timestamp,RAW_TP9,RAW_AF7,RAW_AF8,RAW_TP10
1,802.2344360351562,803.040283203125,791.7582397460938,793.3699340820312
2,807.069580078125,798.6080322265625,791.3552856445312,795.7875366210938
3,803.8461303710938,797.8021850585938,792.967041015625,793.3699340820312
4,791.3552856445312,801.025634765625,799.010986328125,789.7435913085938
5,789.3406372070312,801.025634765625,800.2197875976562,786.923095703125
6,793.3699340820312,795.3846435546875,796.996337890625,790.952392578125
7,796.1904907226562,796.996337890625,795.7875366210938,797.8021850585938
8,799.010986328125,794.1758422851562,795.3846435546875,786.5201416015625
9,796.5933837890625,789.7435913085938,796.5933837890625,779.6703491210938
10,795.3846435546875,788.937744140625,794.5787353515625,778.4615478515625
11,795.3846435546875,786.5201416015625,794.1758422851562,778.4615478515625
12,790.952392578125,786.1171875,792.967041015625,778.4615478515625
13,791.7582397460938,786.1171875,793.3699340820312,776.8497924804688
14,796.996337890625,786.923095703125,790.5494384765625,783.6996459960938
15,795.3846435546875,789.7435913085938,786.5201416015625,782.4908447265625
16,789.7435913085938,793.7728881835938,787.3259887695312,778.05859375
17,793.3699340820312,796.996337890625,790.1465454101562,782.4908447265625
18,802.6373901367188,799.8168334960938,792.1611938476562,786.1171875
19,806.6666870117188,801.4285888671875,788.937744140625,787.3259887695312
20,805.054931640625,801.025634765625,788.937744140625,785.3113403320312
21,800.6226806640625,799.4139404296875,794.5787353515625,784.5054931640625
22,804.6520385742188,803.4432373046875,798.2051391601562,793.3699340820312
23,810.2930297851562,807.069580078125,799.4139404296875,789.3406372070312
24,813.5164794921875,805.054931640625,795.7875366210938,778.8644409179688
25,807.069580078125,799.010986328125,792.5640869140625,781.6849975585938
26,809.4871826171875,800.6226806640625,796.5933837890625,786.1171875
27,815.1282348632812,807.4725341796875,799.4139404296875,793.3699340820312
28,807.4725341796875,805.054931640625,798.6080322265625,793.7728881835938
29,797.3992919921875,799.010986328125,796.1904907226562,790.952392578125
30,790.952392578125,794.5787353515625,794.5787353515625,786.1171875
31,787.7289428710938,788.5347900390625,793.7728881835938,785.7142944335938
32,782.893798828125,786.923095703125,794.5787353515625,784.5054931640625
33,781.2820434570312,792.5640869140625,792.967041015625,777.6557006835938
34,782.087890625,788.5347900390625,790.5494384765625,776.4468994140625
35,776.4468994140625,781.6849975585938,789.3406372070312,779.2673950195312
36,775.6410522460938,787.3259887695312,787.3259887695312,780.4761962890625
37,782.893798828125,788.937744140625,791.3552856445312,782.087890625
38,791.3552856445312,785.3113403320312,792.967041015625,785.3113403320312
39,798.2051391601562,786.5201416015625,790.952392578125,784.908447265625
40,791.7582397460938,784.1025390625,791.3552856445312,780.0732421875
41,784.5054931640625,781.2820434570312,793.7728881835938,791.7582397460938
42,782.4908447265625,780.0732421875,790.1465454101562,795.7875366210938
43,786.923095703125,782.087890625,787.7289428710938,785.7142944335938
44,795.3846435546875,784.908447265625,790.5494384765625,789.3406372070312
45,794.981689453125,785.3113403320312,789.3406372070312,794.5787353515625
46,786.5201416015625,790.5494384765625,786.1171875,792.5640869140625
47,785.7142944335938,789.7435913085938,782.893798828125,788.1318969726562
48,789.3406372070312,785.3113403320312,782.087890625,792.1611938476562
49,784.908447265625,788.1318969726562,784.1025390625,790.5494384765625
50,779.2673950195312,788.5347900390625,784.1025390625,783.6996459960938
51,784.908447265625,780.0732421875,785.7142944335938,779.2673950195312
52,788.937744140625,779.6703491210938,790.5494384765625,780.4761962890625
53,788.5347900390625,785.7142944335938,790.1465454101562,785.3113403320312
54,789.7435913085938,786.5201416015625,788.5347900390625,790.1465454101562
55,778.4615478515625,787.3259887695312,784.1025390625,788.1318969726562
56,765.5677490234375,784.908447265625,780.879150390625,788.937744140625
57,761.5384521484375,784.1025390625,786.923095703125,792.5640869140625
58,764.3589477539062,785.7142944335938,794.5787353515625,788.1318969726562
59,769.5970458984375,782.087890625,796.1904907226562,786.1171875
60,777.6557006835938,780.879150390625,799.4139404296875,785.3113403320312
61,786.5201416015625,782.893798828125,798.6080322265625,788.1318969726562
62,789.7435913085938,789.3406372070312,792.5640869140625,787.7289428710938
63,795.7875366210938,791.3552856445312,794.5787353515625,792.5640869140625
64,794.5787353515625,789.3406372070312,796.5933837890625,792.5640869140625
65,790.952392578125,793.7728881835938,794.5787353515625,788.937744140625
66,788.937744140625,795.7875366210938,795.7875366210938,793.3699340820312
67,783.6996459960938,794.5787353515625,792.1611938476562,789.3406372070312
68,794.1758422851562,801.8314819335938,787.7289428710938,787.7289428710938
69,796.996337890625,800.2197875976562,783.6996459960938,788.1318969726562
70,792.5640869140625,796.1904907226562,781.6849975585938,781.6849975585938
71,784.908447265625,795.3846435546875,780.0732421875,776.8497924804688
72,787.3259887695312,794.981689453125,780.879150390625,779.2673950195312
73,798.2051391601562,800.6226806640625,784.1025390625,787.3259887695312
74,796.1904907226562,802.2344360351562,785.7142944335938,792.967041015625
75,795.3846435546875,804.2490844726562,780.4761962890625,790.952392578125
76,791.7582397460938,801.025634765625,774.029296875,778.8644409179688
77,787.3259887695312,796.1904907226562,773.2234497070312,774.8351440429688
78,790.952392578125,796.5933837890625,776.4468994140625,778.05859375
79,787.7289428710938,793.7728881835938,779.2673950195312,781.2820434570312
80,780.879150390625,797.8021850585938,780.879150390625,782.893798828125
81,778.8644409179688,801.8314819335938,782.4908447265625,781.6849975585938
82,776.4468994140625,796.5933837890625,783.2966918945312,778.05859375
83,775.2380981445312,792.967041015625,784.1025390625,776.8497924804688
84,780.4761962890625,789.7435913085938,780.4761962890625,778.8644409179688
85,782.4908447265625,788.1318969726562,781.2820434570312,780.879150390625
86,785.3113403320312,794.1758422851562,783.6996459960938,784.1025390625
87,796.5933837890625,799.4139404296875,786.1171875,784.908447265625
88,798.6080322265625,800.6226806640625,783.6996459960938,784.1025390625
89,804.2490844726562,795.3846435546875,780.879150390625,786.923095703125
90,811.5018310546875,795.3846435546875,781.2820434570312,788.1318969726562
91,804.2490844726562,799.010986328125,781.6849975585938,788.937744140625
92,789.7435913085938,794.981689453125,784.908447265625,790.1465454101562
93,783.2966918945312,794.981689453125,784.908447265625,789.3406372070312
94,783.6996459960938,794.981689453125,778.4615478515625,788.937744140625
95,786.1171875,793.7728881835938,776.4468994140625,788.937744140625
96,779.6703491210938,792.5640869140625,783.2966918945312,788.5347900390625
97,783.2966918945312,792.5640869140625,786.1171875,783.6996459960938
98,794.5787353515625,792.1611938476562,785.3113403320312,785.7142944335938
99,793.3699340820312,788.1318969726562,785.3113403320312,789.7435913085938
100,794.981689453125,788.937744140625,784.5054931640625,786.1171875
101,790.1465454101562,789.3406372070312,785.7142944335938,784.908447265625
102,780.0732421875,789.3406372070312,786.923095703125,785.7142944335938
103,778.4615478515625,784.908447265625,783.2966918945312,778.05859375
104,782.087890625,783.2966918945312,786.5201416015625,781.2820434570312
105,782.087890625,788.937744140625,786.923095703125,777.6557006835938
106,782.4908447265625,786.1171875,783.2966918945312,778.4615478515625
107,784.5054931640625,786.5201416015625,785.7142944335938,782.4908447265625
108,784.1025390625,789.3406372070312,790.5494384765625,776.0439453125
109,781.2820434570312,791.3552856445312,792.967041015625,777.6557006835938
110,785.3113403320312,793.7728881835938,790.952392578125,782.087890625
111,794.981689453125,795.3846435546875,788.5347900390625,786.5201416015625
112,799.8168334960938,799.010986328125,787.3259887695312,788.937744140625
113,803.040283203125,800.6226806640625,791.3552856445312,783.6996459960938
114,808.2783813476562,799.010986328125,794.981689453125,786.1171875
115,809.89013671875,799.4139404296875,794.5787353515625,788.1318969726562
116,809.4871826171875,802.2344360351562,792.1611938476562,786.923095703125
117,805.8607788085938,801.025634765625,784.908447265625,791.3552856445312
118,795.7875366210938,801.025634765625,786.5201416015625,802.2344360351562
119,787.7289428710938,799.8168334960938,792.1611938476562,801.8314819335938
120,786.5201416015625,794.981689453125,789.7435913085938,791.7582397460938
121,784.908447265625,792.967041015625,789.3406372070312,790.952392578125
122,785.3113403320312,792.5640869140625,792.967041015625,793.3699340820312
123,783.2966918945312,788.5347900390625,796.5933837890625,787.7289428710938
124,790.952392578125,789.3406372070312,796.996337890625,787.7289428710938
125,800.2197875976562,785.7142944335938,794.981689453125,792.5640869140625
126,798.2051391601562,780.0732421875,794.1758422851562,792.1611938476562
127,788.1318969726562,784.908447265625,792.5640869140625,786.5201416015625
128,789.3406372070312,784.5054931640625,791.7582397460938,779.6703491210938
129,794.5787353515625,780.0732421875,796.5933837890625,789.3406372070312
130,785.7142944335938,782.4908447265625,793.7728881835938,791.3552856445312
131,787.7289428710938,783.6996459960938,787.3259887695312,784.5054931640625
132,788.5347900390625,785.3113403320312,787.7289428710938,782.4908447265625
133,786.5201416015625,792.967041015625,792.1611938476562,781.6849975585938
134,792.5640869140625,796.996337890625,794.981689453125,791.3552856445312
135,796.1904907226562,792.5640869140625,792.5640869140625,794.1758422851562
136,802.2344360351562,792.5640869140625,794.1758422851562,793.7728881835938
137,801.4285888671875,799.4139404296875,795.7875366210938,800.6226806640625
138,788.937744140625,797.8021850585938,794.981689453125,797.3992919921875
139,787.7289428710938,789.3406372070312,794.5787353515625,787.7289428710938
140,794.981689453125,786.1171875,793.7728881835938,789.7435913085938
141,791.7582397460938,784.908447265625,796.1904907226562,799.4139404296875
142,786.923095703125,785.7142944335938,793.3699340820312,794.5787353515625
143,791.7582397460938,790.1465454101562,791.3552856445312,786.5201416015625
144,793.3699340820312,795.3846435546875,795.3846435546875,788.5347900390625
145,788.5347900390625,793.7728881835938,799.4139404296875,792.967041015625
146,787.3259887695312,789.7435913085938,796.996337890625,794.5787353515625
147,794.1758422851562,794.1758422851562,796.1904907226562,793.7728881835938
148,792.967041015625,795.3846435546875,799.010986328125,797.3992919921875
149,786.5201416015625,790.952392578125,798.2051391601562,795.7875366210938
150,790.952392578125,794.5787353515625,798.6080322265625,790.1465454101562
151,791.3552856445312,796.1904907226562,802.6373901367188,790.952392578125
152,786.923095703125,793.7728881835938,808.2783813476562,793.3699340820312
153,792.5640869140625,795.3846435546875,805.8607788085938,790.952392578125
154,790.952392578125,793.3699340820312,803.4432373046875,783.2966918945312
155,794.981689453125,790.5494384765625,804.6520385742188,789.3406372070312
156,810.2930297851562,792.1611938476562,805.8607788085938,802.6373901367188
157,812.7106323242188,798.6080322265625,803.8461303710938,797.3992919921875
158,807.4725341796875,799.4139404296875,799.4139404296875,791.7582397460938
159,805.4578857421875,801.8314819335938,798.6080322265625,795.7875366210938
160,802.2344360351562,803.040283203125,801.025634765625,796.1904907226562
161,802.6373901367188,802.6373901367188,798.6080322265625,792.1611938476562
162,809.4871826171875,800.2197875976562,798.6080322265625,798.6080322265625
163,805.4578857421875,801.8314819335938,800.6226806640625,800.6226806640625
164,800.6226806640625,800.2197875976562,799.010986328125,806.6666870117188
165,801.4285888671875,794.981689453125,796.1904907226562,805.8607788085938
166,799.8168334960938,797.8021850585938,796.996337890625,795.7875366210938
167,794.5787353515625,797.3992919921875,796.5933837890625,793.7728881835938
168,789.7435913085938,793.3699340820312,793.7728881835938,786.923095703125
169,785.3113403320312,793.7728881835938,790.5494384765625,782.4908447265625
170,782.4908447265625,790.952392578125,794.981689453125,784.1025390625
171,788.1318969726562,791.3552856445312,799.4139404296875,796.996337890625
172,794.5787353515625,796.5933837890625,795.3846435546875,795.7875366210938
173,796.996337890625,796.996337890625,794.5787353515625,791.7582397460938
174,791.3552856445312,798.2051391601562,794.1758422851562,797.8021850585938
175,787.7289428710938,796.996337890625,793.7728881835938,793.7728881835938
176,790.5494384765625,794.1758422851562,795.3846435546875,791.7582397460938
177,786.1171875,794.1758422851562,793.3699340820312,792.1611938476562
178,783.6996459960938,788.5347900390625,792.1611938476562,790.952392578125
179,789.3406372070312,791.3552856445312,794.5787353515625,793.7728881835938
180,795.3846435546875,796.1904907226562,797.3992919921875,799.8168334960938
181,805.054931640625,801.025634765625,799.010986328125,800.2197875976562
182,809.4871826171875,806.2637329101562,801.8314819335938,796.996337890625
183,802.2344360351562,799.8168334960938,803.8461303710938,794.1758422851562
184,794.981689453125,794.1758422851562,801.025634765625,790.5494384765625
185,800.2197875976562,794.981689453125,800.6226806640625,792.967041015625
186,803.4432373046875,796.5933837890625,802.6373901367188,799.010986328125
187,794.5787353515625,796.1904907226562,803.040283203125,803.040283203125
188,794.1758422851562,796.996337890625,802.6373901367188,804.6520385742188
189,795.7875366210938,795.3846435546875,800.6226806640625,799.4139404296875
190,785.3113403320312,793.7728881835938,798.2051391601562,795.3846435546875
191,779.6703491210938,798.6080322265625,795.7875366210938,797.8021850585938
192,787.3259887695312,799.8168334960938,794.5787353515625,796.1904907226562
193,793.7728881835938,797.8021850585938,794.981689453125,797.3992919921875
194,791.7582397460938,795.7875366210938,795.3846435546875,794.5787353515625
195,794.1758422851562,795.3846435546875,792.967041015625,790.5494384765625
196,788.937744140625,790.952392578125,792.967041015625,793.3699340820312
197,790.952392578125,788.937744140625,792.1611938476562,790.1465454101562
198,802.2344360351562,794.1758422851562,795.3846435546875,792.967041015625
199,801.4285888671875,796.5933837890625,792.967041015625,794.981689453125
200,799.010986328125,793.7728881835938,794.981689453125,789.3406372070312
201,799.4139404296875,792.5640869140625,795.3846435546875,787.7289428710938
202,801.025634765625,795.7875366210938,791.7582397460938,796.5933837890625
203,803.040283203125,796.5933837890625,793.7728881835938,799.010986328125
204,798.6080322265625,791.7582397460938,792.5640869140625,793.3699340820312
205,797.8021850585938,794.5787353515625,795.7875366210938,794.5787353515625
206,803.8461303710938,801.4285888671875,793.7728881835938,793.7728881835938
207,803.4432373046875,798.2051391601562,793.7728881835938,796.5933837890625
208,800.2197875976562,796.996337890625,794.981689453125,794.1758422851562
209,805.054931640625,794.1758422851562,794.1758422851562,797.8021850585938
210,807.069580078125,793.7728881835938,796.5933837890625,796.996337890625
211,810.6959838867188,796.1904907226562,795.3846435546875,794.5787353515625
212,808.6813354492188,791.3552856445312,797.3992919921875,803.040283203125
213,807.069580078125,788.5347900390625,797.3992919921875,807.87548828125
214,811.90478515625,793.3699340820312,794.1758422851562,805.054931640625
215,805.4578857421875,799.8168334960938,793.7728881835938,796.1904907226562
216,802.2344360351562,796.996337890625,790.1465454101562,793.3699340820312
217,804.2490844726562,794.5787353515625,787.7289428710938,794.1758422851562
218,796.996337890625,796.5933837890625,785.7142944335938,794.981689453125
219,786.1171875,792.5640869140625,784.1025390625,790.5494384765625
220,783.2966918945312,789.3406372070312,786.5201416015625,782.4908447265625
221,785.7142944335938,796.1904907226562,788.5347900390625,785.7142944335938
222,788.937744140625,799.4139404296875,788.1318969726562,787.7289428710938
223,791.3552856445312,792.1611938476562,792.967041015625,788.5347900390625
224,794.1758422851562,787.3259887695312,792.5640869140625,787.3259887695312
225,789.7435913085938,790.1465454101562,788.937744140625,790.1465454101562
226,784.908447265625,793.3699340820312,786.5201416015625,790.5494384765625
227,780.879150390625,794.1758422851562,786.1171875,781.2820434570312
228,778.8644409179688,790.5494384765625,787.3259887695312,782.893798828125
229,781.6849975585938,782.893798828125,788.937744140625,790.1465454101562
230,780.879150390625,785.7142944335938,790.1465454101562,789.3406372070312
231,777.6557006835938,789.7435913085938,788.1318969726562,783.2966918945312
232,774.029296875,789.3406372070312,788.5347900390625,786.1171875
233,779.6703491210938,788.5347900390625,789.3406372070312,793.3699340820312
234,785.3113403320312,791.7582397460938,788.5347900390625,790.952392578125
235,789.7435913085938,790.952392578125,790.952392578125,792.1611938476562
236,793.3699340820312,790.5494384765625,790.1465454101562,796.5933837890625
237,789.3406372070312,796.996337890625,788.937744140625,796.996337890625
238,790.1465454101562,796.5933837890625,786.923095703125,796.5933837890625
239,799.8168334960938,795.3846435546875,786.5201416015625,797.8021850585938
240,794.5787353515625,797.3992919921875,789.7435913085938,791.7582397460938
241,782.893798828125,798.2051391601562,792.1611938476562,786.1171875
242,780.0732421875,800.6226806640625,793.3699340820312,787.3259887695312
243,784.5054931640625,797.3992919921875,791.3552856445312,782.893798828125
244,794.5787353515625,796.1904907226562,790.1465454101562,789.7435913085938
245,801.025634765625,796.5933837890625,792.1611938476562,790.952392578125
246,801.8314819335938,793.3699340820312,795.3846435546875,785.7142944335938
247,797.3992919921875,794.5787353515625,795.7875366210938,784.5054931640625
248,794.5787353515625,789.3406372070312,797.8021850585938,788.1318969726562
249,792.5640869140625,787.3259887695312,797.3992919921875,790.1465454101562
250,797.3992919921875,791.7582397460938,795.3846435546875,790.1465454101562
251,799.8168334960938,794.981689453125,796.996337890625,790.952392578125
252,793.3699340820312,796.5933837890625,795.3846435546875,795.7875366210938
253,792.1611938476562,794.981689453125,791.3552856445312,797.8021850585938
254,796.1904907226562,795.3846435546875,789.7435913085938,799.010986328125
255,799.4139404296875,793.3699340820312,790.5494384765625,795.7875366210938
256,794.5787353515625,786.5201416015625,790.952392578125,792.1611938476562
257,795.7875366210938,786.5201416015625,791.3552856445312,795.7875366210938
258,801.025634765625,790.952392578125,792.967041015625,794.1758422851562
259,804.6520385742188,790.952392578125,793.7728881835938,792.967041015625
260,798.2051391601562,789.7435913085938,794.5787353515625,803.040283203125
261,794.5787353515625,794.1758422851562,792.5640869140625,801.8314819335938
262,802.6373901367188,791.3552856445312,791.7582397460938,786.1171875
263,794.5787353515625,784.908447265625,789.3406372070312,786.5201416015625
264,788.1318969726562,789.3406372070312,791.7582397460938,790.5494384765625
265,788.937744140625,788.1318969726562,790.952392578125,784.1025390625
266,788.937744140625,783.6996459960938,789.7435913085938,782.893798828125
267,790.1465454101562,783.6996459960938,796.5933837890625,783.6996459960938
268,795.7875366210938,784.1025390625,792.5640869140625,785.7142944335938
269,801.4285888671875,790.952392578125,786.5201416015625,787.3259887695312
270,799.8168334960938,794.1758422851562,786.923095703125,791.3552856445312
271,801.4285888671875,792.5640869140625,790.1465454101562,792.967041015625
272,805.8607788085938,792.967041015625,790.952392578125,788.1318969726562
273,801.4285888671875,791.3552856445312,789.3406372070312,789.3406372070312
274,796.1904907226562,788.937744140625,794.1758422851562,791.3552856445312
275,799.4139404296875,786.923095703125,796.5933837890625,796.996337890625
276,794.5787353515625,785.3113403320312,797.3992919921875,796.5933837890625
277,790.952392578125,794.981689453125,797.8021850585938,786.923095703125
278,796.5933837890625,799.4139404296875,795.3846435546875,783.6996459960938
279,798.6080322265625,799.4139404296875,797.3992919921875,790.5494384765625
280,803.8461303710938,803.040283203125,799.4139404296875,795.7875366210938
281,802.6373901367188,795.7875366210938,796.5933837890625,791.3552856445312
282,790.1465454101562,790.952392578125,798.6080322265625,787.7289428710938
283,788.5347900390625,790.5494384765625,800.6226806640625,794.1758422851562
284,794.5787353515625,789.3406372070312,795.7875366210938,793.7728881835938
285,795.7875366210938,789.3406372070312,792.5640869140625,787.3259887695312
286,795.3846435546875,790.1465454101562,792.5640869140625,786.923095703125
287,792.1611938476562,790.952392578125,794.981689453125,783.6996459960938
288,790.5494384765625,791.7582397460938,792.5640869140625,782.087890625
289,796.996337890625,795.7875366210938,791.3552856445312,791.3552856445312
290,792.967041015625,800.6226806640625,793.3699340820312,790.952392578125
291,787.7289428710938,797.3992919921875,793.3699340820312,784.908447265625
292,787.7289428710938,795.7875366210938,794.5787353515625,785.7142944335938
293,786.1171875,790.952392578125,794.981689453125,784.1025390625
294,780.4761962890625,789.7435913085938,791.3552856445312,786.923095703125
295,783.6996459960938,791.7582397460938,789.7435913085938,787.3259887695312
296,790.952392578125,790.952392578125,790.952392578125,784.1025390625
297,794.5787353515625,788.937744140625,793.3699340820312,785.7142944335938
298,790.5494384765625,789.7435913085938,791.7582397460938,783.2966918945312
299,785.7142944335938,795.3846435546875,793.3699340820312,790.952392578125
300,791.7582397460938,796.5933837890625,796.5933837890625,794.1758422851562
301,794.5787353515625,794.1758422851562,790.1465454101562,782.893798828125
302,792.1611938476562,788.937744140625,786.5201416015625,780.0732421875
303,783.6996459960938,791.3552856445312,791.3552856445312,786.923095703125
304,782.893798828125,793.7728881835938,795.7875366210938,795.3846435546875
305,788.937744140625,795.3846435546875,795.7875366210938,799.4139404296875
306,792.5640869140625,801.025634765625,796.5933837890625,797.8021850585938
307,789.3406372070312,801.8314819335938,800.6226806640625,790.952392578125
308,777.6557006835938,799.8168334960938,802.2344360351562,787.3259887695312
309,775.2380981445312,796.5933837890625,801.8314819335938,791.3552856445312
310,782.893798828125,793.3699340820312,801.025634765625,790.1465454101562
311,782.893798828125,791.7582397460938,801.025634765625,785.3113403320312
312,779.2673950195312,792.967041015625,797.8021850585938,779.6703491210938
313,782.4908447265625,788.1318969726562,793.7728881835938,779.6703491210938
314,785.7142944335938,789.3406372070312,791.7582397460938,783.2966918945312
315,788.5347900390625,794.981689453125,790.5494384765625,780.0732421875
316,786.5201416015625,794.1758422851562,791.7582397460938,781.6849975585938
317,781.6849975585938,793.7728881835938,790.1465454101562,788.1318969726562
318,778.4615478515625,791.7582397460938,788.937744140625,785.3113403320312
319,784.5054931640625,794.5787353515625,792.967041015625,783.2966918945312
320,799.4139404296875,795.7875366210938,793.7728881835938,786.5201416015625
321,803.8461303710938,792.1611938476562,789.7435913085938,791.3552856445312
322,789.3406372070312,790.5494384765625,790.5494384765625,793.7728881835938
323,781.6849975585938,791.7582397460938,786.1171875,780.879150390625
324,787.3259887695312,791.7582397460938,784.1025390625,779.2673950195312
325,791.3552856445312,794.5787353515625,791.7582397460938,786.1171875
326,792.5640869140625,791.3552856445312,790.1465454101562,781.6849975585938
327,794.1758422851562,787.3259887695312,788.1318969726562,781.6849975585938
328,786.923095703125,789.7435913085938,788.1318969726562,785.3113403320312
329,782.087890625,792.5640869140625,787.7289428710938,784.908447265625
330,788.1318969726562,792.967041015625,784.5054931640625,787.7289428710938
331,790.952392578125,790.5494384765625,784.908447265625,786.1171875
332,787.7289428710938,788.937744140625,788.5347900390625,780.4761962890625
333,780.879150390625,786.5201416015625,790.952392578125,790.1465454101562
334,791.3552856445312,788.5347900390625,792.5640869140625,797.3992919921875
335,797.8021850585938,790.1465454101562,795.3846435546875,787.3259887695312
336,797.3992919921875,786.1171875,795.7875366210938,789.3406372070312
337,799.8168334960938,784.5054931640625,791.3552856445312,792.1611938476562
338,785.3113403320312,784.5054931640625,789.3406372070312,790.5494384765625
339,786.5201416015625,788.5347900390625,786.923095703125,786.923095703125
340,789.3406372070312,786.5201416015625,784.908447265625,782.893798828125
341,785.3113403320312,783.2966918945312,781.2820434570312,794.5787353515625
342,790.1465454101562,786.1171875,783.2966918945312,789.7435913085938
343,789.3406372070312,788.1318969726562,790.952392578125,775.2380981445312
344,780.0732421875,789.3406372070312,788.937744140625,780.4761962890625
345,788.5347900390625,795.3846435546875,784.5054931640625,788.5347900390625
346,800.6226806640625,801.4285888671875,788.937744140625,796.996337890625
347,799.4139404296875,793.7728881835938,793.7728881835938,794.981689453125
348,796.5933837890625,788.937744140625,792.967041015625,790.5494384765625
349,789.7435913085938,796.5933837890625,795.3846435546875,796.996337890625
350,791.7582397460938,799.8168334960938,796.5933837890625,794.981689453125
351,789.3406372070312,795.3846435546875,790.952392578125,792.1611938476562
352,792.1611938476562,796.5933837890625,788.1318969726562,792.5640869140625
353,803.4432373046875,804.6520385742188,786.5201416015625,791.7582397460938
354,792.5640869140625,800.6226806640625,784.908447265625,790.5494384765625
355,783.2966918945312,796.1904907226562,788.937744140625,784.908447265625
356,783.2966918945312,793.3699340820312,792.1611938476562,784.5054931640625
357,784.5054931640625,791.3552856445312,794.5787353515625,788.1318969726562
358,788.937744140625,793.7728881835938,796.1904907226562,788.937744140625
359,777.6557006835938,791.3552856445312,794.5787353515625,786.5201416015625
360,782.893798828125,790.1465454101562,790.952392578125,786.1171875
361,788.1318969726562,790.952392578125,789.7435913085938,790.1465454101562
362,780.4761962890625,790.952392578125,790.952392578125,790.952392578125
363,792.1611938476562,791.7582397460938,790.5494384765625,792.967041015625
364,797.3992919921875,792.967041015625,795.7875366210938,795.7875366210938
365,782.087890625,784.5054931640625,796.5933837890625,790.1465454101562
366,780.879150390625,779.6703491210938,792.967041015625,782.893798828125
367,788.5347900390625,780.4761962890625,790.952392578125,788.5347900390625
368,783.6996459960938,782.087890625,789.3406372070312,790.5494384765625
369,784.5054931640625,789.3406372070312,787.3259887695312,782.087890625
370,782.4908447265625,788.1318969726562,791.7582397460938,785.3113403320312
371,785.3113403320312,786.923095703125,799.8168334960938,788.5347900390625
372,799.4139404296875,789.3406372070312,802.6373901367188,788.937744140625
373,790.5494384765625,790.952392578125,801.8314819335938,785.3113403320312
374,778.05859375,795.7875366210938,796.5933837890625,785.7142944335938
375,776.8497924804688,792.967041015625,792.1611938476562,777.2527465820312
376,781.6849975585938,792.5640869140625,793.3699340820312,778.4615478515625
377,789.7435913085938,799.010986328125,796.1904907226562,778.05859375
378,789.7435913085938,799.8168334960938,798.6080322265625,774.029296875
379,780.879150390625,794.1758422851562,802.2344360351562,793.3699340820312
380,796.1904907226562,794.5787353515625,801.025634765625,788.937744140625
381,797.3992919921875,789.7435913085938,802.6373901367188,788.5347900390625
382,787.7289428710938,788.1318969726562,806.6666870117188,800.6226806640625
383,791.7582397460938,794.981689453125,804.2490844726562,794.5787353515625
384,782.087890625,789.3406372070312,803.040283203125,792.1611938476562
385,788.937744140625,785.7142944335938,801.025634765625,792.5640869140625
386,793.3699340820312,792.1611938476562,800.2197875976562,792.1611938476562
387,782.087890625,790.952392578125,799.4139404296875,779.6703491210938
388,788.1318969726562,785.3113403320312,794.981689453125,780.4761962890625
389,796.5933837890625,786.5201416015625,801.4285888671875,797.3992919921875
390,791.3552856445312,788.937744140625,805.054931640625,801.025634765625
391,792.1611938476562,787.3259887695312,800.6226806640625,796.996337890625
392,805.4578857421875,792.5640869140625,798.6080322265625,786.5201416015625
393,801.4285888671875,791.3552856445312,796.1904907226562,784.908447265625
394,779.6703491210938,786.5201416015625,797.8021850585938,789.3406372070312
395,782.087890625,793.7728881835938,797.8021850585938,786.1171875
396,796.5933837890625,794.981689453125,797.8021850585938,791.3552856445312
397,791.7582397460938,790.952392578125,800.2197875976562,791.7582397460938
398,788.5347900390625,796.1904907226562,796.996337890625,790.952392578125
399,788.1318969726562,797.3992919921875,800.2197875976562,808.2783813476562
400,780.0732421875,794.1758422851562,797.8021850585938,785.7142944335938
401,787.7289428710938,792.1611938476562,791.3552856445312,780.4761962890625
402,790.1465454101562,790.1465454101562,792.1611938476562,778.05859375
403,773.6264038085938,787.7289428710938,794.1758422851562,774.4322509765625
404,776.8497924804688,788.937744140625,794.1758422851562,789.3406372070312
405,785.3113403320312,789.7435913085938,789.7435913085938,794.1758422851562
406,792.5640869140625,790.952392578125,784.908447265625,792.967041015625
407,794.981689453125,794.1758422851562,785.3113403320312,786.5201416015625
408,789.7435913085938,792.5640869140625,784.1025390625,772.8204956054688
409,784.908447265625,792.967041015625,785.3113403320312,773.6264038085938
410,791.3552856445312,793.3699340820312,793.7728881835938,801.8314819335938
411,791.3552856445312,793.3699340820312,796.996337890625,803.040283203125
412,784.5054931640625,791.3552856445312,792.5640869140625,784.1025390625
413,791.7582397460938,790.1465454101562,792.1611938476562,792.967041015625
414,788.1318969726562,790.5494384765625,790.952392578125,786.1171875
415,778.8644409179688,788.937744140625,781.6849975585938,777.2527465820312
416,794.981689453125,791.3552856445312,783.6996459960938,789.7435913085938
417,802.2344360351562,788.5347900390625,786.923095703125,792.1611938476562
418,790.952392578125,790.952392578125,782.4908447265625,778.8644409179688
419,795.3846435546875,792.967041015625,782.087890625,789.3406372070312
420,800.6226806640625,788.5347900390625,788.1318969726562,803.4432373046875
421,783.2966918945312,794.1758422851562,794.1758422851562,789.7435913085938
422,774.8351440429688,792.1611938476562,796.1904907226562,789.3406372070312
423,796.1904907226562,787.3259887695312,796.1904907226562,798.6080322265625
424,823.5897216796875,792.5640869140625,796.996337890625,803.040283203125
425,821.97802734375,791.7582397460938,792.967041015625,803.8461303710938
426,818.3516235351562,793.7728881835938,786.1171875,811.90478515625
427,805.054931640625,796.1904907226562,789.7435913085938,796.1904907226562
428,779.6703491210938,792.967041015625,797.3992919921875,790.1465454101562
429,777.6557006835938,791.3552856445312,796.996337890625,806.2637329101562
430,793.3699340820312,790.1465454101562,796.996337890625,805.054931640625
431,804.2490844726562,786.1171875,798.2051391601562,809.084228515625
432,805.054931640625,785.7142944335938,796.5933837890625,809.084228515625
433,815.93408203125,794.1758422851562,793.7728881835938,803.8461303710938
434,809.4871826171875,790.952392578125,796.5933837890625,804.2490844726562
435,792.5640869140625,788.5347900390625,797.8021850585938,803.4432373046875
436,800.6226806640625,793.7728881835938,798.2051391601562,797.3992919921875
437,812.7106323242188,795.3846435546875,795.7875366210938,803.4432373046875
438,819.5604248046875,794.981689453125,796.5933837890625,813.113525390625
439,811.5018310546875,794.1758422851562,798.2051391601562,800.6226806640625
440,794.981689453125,794.981689453125,794.981689453125,807.87548828125
441,812.7106323242188,795.3846435546875,793.7728881835938,816.3369750976562
442,818.3516235351562,795.7875366210938,793.7728881835938,800.6226806640625
443,796.1904907226562,792.967041015625,796.5933837890625,794.981689453125
444,797.8021850585938,790.952392578125,793.3699340820312,789.7435913085938
445,810.6959838867188,794.1758422851562,790.5494384765625,796.5933837890625
446,795.3846435546875,795.3846435546875,792.5640869140625,803.8461303710938
447,789.3406372070312,794.981689453125,795.3846435546875,794.1758422851562
448,807.069580078125,794.1758422851562,793.3699340820312,792.967041015625
449,808.6813354492188,792.5640869140625,790.1465454101562,792.1611938476562
450,784.1025390625,793.3699340820312,792.5640869140625,788.937744140625
451,778.05859375,792.1611938476562,797.8021850585938,798.2051391601562
452,794.981689453125,793.7728881835938,793.3699340820312,799.010986328125
453,797.8021850585938,801.025634765625,789.3406372070312,776.4468994140625
454,799.010986328125,799.4139404296875,792.5640869140625,787.7289428710938
455,799.010986328125,796.1904907226562,789.7435913085938,798.2051391601562
456,797.8021850585938,797.8021850585938,786.923095703125,776.4468994140625
457,799.010986328125,799.010986328125,789.7435913085938,781.6849975585938
458,786.923095703125,795.3846435546875,792.967041015625,793.7728881835938
459,794.1758422851562,794.1758422851562,791.3552856445312,794.5787353515625
460,815.5311279296875,794.1758422851562,792.5640869140625,795.7875366210938
461,815.5311279296875,794.5787353515625,792.5640869140625,793.3699340820312
462,795.7875366210938,797.3992919921875,795.3846435546875,788.1318969726562
463,793.7728881835938,798.6080322265625,794.5787353515625,794.5787353515625
464,815.93408203125,801.4285888671875,790.952392578125,796.996337890625
465,803.8461303710938,799.8168334960938,787.7289428710938,771.6116943359375
466,782.4908447265625,793.7728881835938,787.3259887695312,767.5823974609375
467,788.1318969726562,788.1318969726562,786.923095703125,783.2966918945312
468,796.1904907226562,790.1465454101562,783.6996459960938,766.7765502929688
469,785.7142944335938,789.3406372070312,787.3259887695312,773.2234497070312
470,785.3113403320312,785.3113403320312,783.2966918945312,775.2380981445312
471,788.1318969726562,790.1465454101562,782.893798828125,769.5970458984375
472,788.5347900390625,794.5787353515625,791.3552856445312,789.3406372070312
473,782.893798828125,791.3552856445312,790.1465454101562,784.908447265625
474,774.8351440429688,787.7289428710938,790.1465454101562,779.6703491210938
475,801.8314819335938,792.967041015625,794.1758422851562,795.7875366210938
476,794.5787353515625,788.937744140625,790.952392578125,792.1611938476562
477,780.0732421875,782.893798828125,791.7582397460938,775.6410522460938
478,788.1318969726562,784.1025390625,792.5640869140625,774.8351440429688
479,789.3406372070312,785.3113403320312,793.3699340820312,775.2380981445312
480,796.5933837890625,786.5201416015625,799.010986328125,799.4139404296875
481,799.8168334960938,793.3699340820312,800.6226806640625,800.2197875976562
482,792.967041015625,796.5933837890625,799.8168334960938,780.4761962890625
483,793.3699340820312,791.7582397460938,800.6226806640625,802.6373901367188
484,787.7289428710938,791.3552856445312,805.4578857421875,816.7399291992188
485,788.937744140625,793.7728881835938,798.2051391601562,790.952392578125
486,784.908447265625,786.5201416015625,793.3699340820312,785.3113403320312
487,794.1758422851562,785.7142944335938,792.1611938476562,782.087890625
488,801.8314819335938,787.3259887695312,790.952392578125,781.2820434570312
489,804.6520385742188,792.5640869140625,793.3699340820312,795.3846435546875
490,796.5933837890625,798.6080322265625,799.010986328125,808.6813354492188
491,771.2088012695312,795.3846435546875,801.4285888671875,788.1318969726562
492,780.879150390625,794.981689453125,796.1904907226562,778.4615478515625
493,800.6226806640625,793.3699340820312,796.5933837890625,793.3699340820312
494,797.8021850585938,789.3406372070312,799.8168334960938,799.8168334960938
495,796.1904907226562,793.3699340820312,797.3992919921875,788.1318969726562
496,795.3846435546875,799.010986328125,794.981689453125,786.1171875
497,796.1904907226562,799.4139404296875,800.2197875976562,796.1904907226562
498,796.5933837890625,796.5933837890625,805.054931640625,799.8168334960938
499,789.7435913085938,787.7289428710938,801.025634765625,790.1465454101562
500,792.5640869140625,786.923095703125,791.3552856445312,769.5970458984375
501,788.1318969726562,786.1171875,791.7582397460938,780.879150390625
502,774.029296875,783.6996459960938,796.996337890625,806.2637329101562
503,775.6410522460938,789.7435913085938,795.3846435546875,799.8168334960938
504,794.981689453125,790.5494384765625,790.952392578125,791.7582397460938
505,803.040283203125,785.3113403320312,791.7582397460938,796.5933837890625
506,793.7728881835938,783.2966918945312,792.1611938476562,796.5933837890625
507,776.4468994140625,779.6703491210938,788.937744140625,786.5201416015625
508,779.2673950195312,782.893798828125,794.1758422851562,789.7435913085938
509,800.2197875976562,788.937744140625,794.1758422851562,792.967041015625
510,794.981689453125,783.6996459960938,791.3552856445312,792.967041015625
511,784.908447265625,782.087890625,795.7875366210938,799.8168334960938
512,781.6849975585938,780.879150390625,793.7728881835938,792.1611938476562
513,788.5347900390625,782.4908447265625,786.5201416015625,784.5054931640625
514,796.996337890625,785.3113403320312,787.7289428710938,791.3552856445312
515,795.3846435546875,786.5201416015625,789.7435913085938,793.3699340820312
516,794.981689453125,786.5201416015625,784.5054931640625,782.4908447265625
517,793.7728881835938,787.3259887695312,786.1171875,785.3113403320312
518,786.1171875,787.3259887695312,788.1318969726562,790.952392578125
519,787.3259887695312,786.923095703125,782.087890625,782.4908447265625
520,792.967041015625,794.1758422851562,786.1171875,789.3406372070312
521,790.1465454101562,794.5787353515625,792.967041015625,794.5787353515625
522,794.981689453125,791.3552856445312,791.7582397460938,796.996337890625
523,800.2197875976562,794.981689453125,790.1465454101562,795.7875366210938
524,787.3259887695312,795.3846435546875,794.1758422851562,786.5201416015625
525,787.3259887695312,792.967041015625,801.4285888671875,798.6080322265625
526,798.6080322265625,789.3406372070312,803.040283203125,801.4285888671875
527,808.2783813476562,792.967041015625,799.8168334960938,790.952392578125
528,805.4578857421875,795.3846435546875,802.2344360351562,792.5640869140625
529,798.2051391601562,792.1611938476562,803.4432373046875,794.5787353515625
530,799.4139404296875,791.3552856445312,799.4139404296875,797.3992919921875
531,807.4725341796875,795.3846435546875,798.6080322265625,794.981689453125
532,812.3076782226562,799.8168334960938,798.6080322265625,792.1611938476562
533,802.6373901367188,798.2051391601562,796.996337890625,787.7289428710938
534,791.3552856445312,797.8021850585938,798.2051391601562,785.7142944335938
535,794.1758422851562,794.5787353515625,800.2197875976562,794.1758422851562
536,804.2490844726562,793.7728881835938,797.8021850585938,804.6520385742188
537,805.054931640625,791.7582397460938,801.4285888671875,805.8607788085938
538,802.6373901367188,792.967041015625,801.025634765625,799.010986328125
539,810.6959838867188,796.996337890625,794.5787353515625,791.7582397460938
540,802.2344360351562,799.010986328125,796.1904907226562,786.923095703125
541,782.893798828125,798.2051391601562,798.2051391601562,791.3552856445312
542,782.4908447265625,797.3992919921875,791.7582397460938,795.3846435546875
543,787.3259887695312,798.2051391601562,792.5640869140625,795.7875366210938
544,780.4761962890625,796.1904907226562,795.3846435546875,790.952392578125
545,778.4615478515625,792.967041015625,791.3552856445312,789.7435913085938
546,787.3259887695312,791.7582397460938,792.967041015625,788.5347900390625
547,793.3699340820312,792.1611938476562,799.4139404296875,786.5201416015625
548,792.967041015625,792.967041015625,799.8168334960938,791.3552856445312
549,790.952392578125,791.3552856445312,793.7728881835938,784.1025390625
550,792.1611938476562,792.1611938476562,795.3846435546875,780.879150390625
551,799.4139404296875,795.3846435546875,795.3846435546875,787.3259887695312
552,795.3846435546875,792.967041015625,794.1758422851562,788.937744140625
553,782.893798828125,793.3699340820312,790.5494384765625,785.7142944335938
554,787.7289428710938,791.3552856445312,787.7289428710938,779.6703491210938
555,788.1318969726562,786.5201416015625,793.3699340820312,781.2820434570312
556,782.893798828125,788.5347900390625,794.5787353515625,787.7289428710938
557,782.893798828125,792.967041015625,792.5640869140625,786.923095703125
558,782.893798828125,794.5787353515625,793.7728881835938,781.2820434570312
559,782.893798828125,791.3552856445312,790.1465454101562,784.908447265625
560,783.2966918945312,788.5347900390625,788.1318969726562,790.5494384765625
561,784.5054931640625,787.7289428710938,791.7582397460938,784.5054931640625
562,783.2966918945312,786.5201416015625,792.967041015625,781.6849975585938
563,780.4761962890625,787.7289428710938,793.7728881835938,787.3259887695312
564,781.6849975585938,789.7435913085938,794.5787353515625,788.5347900390625
565,782.4908447265625,787.7289428710938,791.7582397460938,780.879150390625
566,788.1318969726562,784.908447265625,792.5640869140625,780.0732421875
567,788.1318969726562,785.7142944335938,796.1904907226562,785.3113403320312
568,773.6264038085938,788.1318969726562,799.4139404296875,782.087890625
569,775.2380981445312,789.7435913085938,799.010986328125,783.6996459960938
570,783.2966918945312,790.952392578125,799.010986328125,790.952392578125
571,790.952392578125,794.1758422851562,798.6080322265625,802.2344360351562
572,787.3259887695312,787.3259887695312,799.010986328125,799.4139404296875
573,782.4908447265625,787.3259887695312,800.2197875976562,788.1318969726562
574,786.1171875,795.3846435546875,800.6226806640625,789.7435913085938
575,783.2966918945312,793.3699340820312,805.4578857421875,789.7435913085938
576,785.7142944335938,791.3552856445312,805.054931640625,788.5347900390625
577,805.054931640625,788.937744140625,799.010986328125,786.5201416015625
578,805.4578857421875,786.5201416015625,795.7875366210938,786.5201416015625
579,794.1758422851562,785.7142944335938,797.3992919921875,788.1318969726562
580,793.7728881835938,785.7142944335938,799.8168334960938,789.7435913085938
581,797.8021850585938,786.5201416015625,799.4139404296875,794.5787353515625
582,791.7582397460938,785.3113403320312,799.4139404296875,792.967041015625
583,781.6849975585938,783.6996459960938,796.5933837890625,791.3552856445312
584,780.0732421875,786.1171875,792.1611938476562,786.923095703125
585,771.2088012695312,785.3113403320312,791.3552856445312,780.4761962890625
586,774.8351440429688,788.5347900390625,790.1465454101562,783.2966918945312
587,785.3113403320312,791.3552856445312,790.1465454101562,791.7582397460938
588,785.7142944335938,791.3552856445312,792.967041015625,786.1171875
589,779.2673950195312,789.7435913085938,796.1904907226562,786.1171875
590,775.2380981445312,792.1611938476562,793.7728881835938,790.952392578125
591,779.6703491210938,794.1758422851562,790.952392578125,787.7289428710938
592,788.5347900390625,792.5640869140625,794.5787353515625,794.5787353515625
593,786.1171875,788.937744140625,791.7582397460938,794.1758422851562
594,778.8644409179688,786.923095703125,786.5201416015625,787.7289428710938
595,782.893798828125,785.7142944335938,792.967041015625,790.952392578125
596,790.5494384765625,784.5054931640625,795.3846435546875,794.5787353515625
597,792.5640869140625,792.1611938476562,798.2051391601562,795.3846435546875
598,796.5933837890625,799.4139404296875,797.3992919921875,803.8461303710938
599,801.025634765625,794.5787353515625,788.1318969726562,801.4285888671875
600,797.3992919921875,787.3259887695312,791.7582397460938,793.3699340820312
601,796.1904907226562,787.3259887695312,794.981689453125,798.2051391601562
602,799.8168334960938,787.7289428710938,790.952392578125,798.2051391601562
603,796.5933837890625,786.1171875,788.937744140625,796.1904907226562
604,788.1318969726562,784.5054931640625,786.923095703125,788.937744140625
605,784.908447265625,784.5054931640625,792.1611938476562,780.0732421875
606,786.1171875,780.879150390625,797.8021850585938,790.952392578125
607,796.1904907226562,782.4908447265625,796.5933837890625,791.7582397460938
608,797.8021850585938,791.7582397460938,797.3992919921875,789.7435913085938
609,793.7728881835938,789.3406372070312,797.3992919921875,799.010986328125
610,788.937744140625,785.3113403320312,799.4139404296875,797.3992919921875
611,781.2820434570312,792.1611938476562,800.6226806640625,792.5640869140625
612,786.1171875,795.7875366210938,796.1904907226562,792.1611938476562
613,793.3699340820312,794.5787353515625,790.5494384765625,788.1318969726562
614,794.1758422851562,788.1318969726562,789.3406372070312,787.7289428710938
615,792.1611938476562,788.1318969726562,791.7582397460938,782.4908447265625
616,793.7728881835938,791.7582397460938,793.3699340820312,785.3113403320312
617,794.1758422851562,790.1465454101562,796.5933837890625,791.7582397460938
618,793.7728881835938,790.5494384765625,798.2051391601562,786.923095703125
619,790.5494384765625,790.952392578125,795.3846435546875,786.5201416015625
620,785.7142944335938,788.5347900390625,794.981689453125,788.1318969726562
621,792.1611938476562,790.952392578125,794.981689453125,794.5787353515625
622,794.5787353515625,792.5640869140625,793.3699340820312,796.5933837890625
623,793.7728881835938,788.5347900390625,795.3846435546875,797.8021850585938
624,800.2197875976562,790.1465454101562,795.7875366210938,801.4285888671875
625,794.981689453125,791.7582397460938,792.5640869140625,792.967041015625
626,789.7435913085938,794.5787353515625,790.5494384765625,782.4908447265625
627,787.7289428710938,796.1904907226562,792.1611938476562,782.4908447265625
628,786.5201416015625,796.1904907226562,792.5640869140625,791.3552856445312
629,793.3699340820312,798.2051391601562,792.967041015625,795.7875366210938
630,792.5640869140625,797.3992919921875,789.3406372070312,787.7289428710938
631,788.5347900390625,798.6080322265625,787.3259887695312,784.5054931640625
632,789.7435913085938,793.7728881835938,787.7289428710938,781.6849975585938
633,786.923095703125,790.1465454101562,791.3552856445312,787.3259887695312
634,782.893798828125,794.981689453125,790.952392578125,789.3406372070312
635,781.6849975585938,794.981689453125,788.5347900390625,785.3113403320312
636,779.2673950195312,791.3552856445312,791.3552856445312,786.1171875
637,779.2673950195312,791.7582397460938,787.3259887695312,779.6703491210938
638,784.1025390625,788.937744140625,786.1171875,782.087890625
639,782.893798828125,782.893798828125,787.7289428710938,786.1171875
640,784.908447265625,786.1171875,786.1171875,780.4761962890625
641,789.7435913085938,788.937744140625,784.908447265625,776.0439453125
642,790.952392578125,788.937744140625,788.1318969726562,782.893798828125
643,792.967041015625,789.3406372070312,794.5787353515625,786.923095703125
644,797.8021850585938,790.1465454101562,795.7875366210938,785.3113403320312
645,801.8314819335938,796.1904907226562,793.7728881835938,785.3113403320312
646,799.8168334960938,796.996337890625,794.1758422851562,788.5347900390625
647,794.1758422851562,798.2051391601562,793.7728881835938,786.5201416015625
648,790.1465454101562,796.996337890625,789.7435913085938,783.2966918945312
649,790.952392578125,790.1465454101562,792.1611938476562,793.3699340820312
650,790.5494384765625,792.1611938476562,797.3992919921875,794.5787353515625
651,787.7289428710938,794.1758422851562,797.3992919921875,789.3406372070312
652,789.7435913085938,790.5494384765625,795.3846435546875,788.5347900390625
653,787.7289428710938,795.3846435546875,795.7875366210938,786.5201416015625
654,785.7142944335938,793.3699340820312,795.7875366210938,782.087890625
655,782.087890625,783.6996459960938,793.3699340820312,786.923095703125
656,775.2380981445312,782.087890625,791.3552856445312,786.5201416015625
657,770.4029541015625,782.893798828125,788.937744140625,778.05859375
658,779.2673950195312,786.5201416015625,791.7582397460938,787.3259887695312
659,790.5494384765625,790.952392578125,790.952392578125,794.981689453125
660,791.3552856445312,788.937744140625,788.5347900390625,790.952392578125
661,787.3259887695312,788.937744140625,791.3552856445312,790.1465454101562
662,790.952392578125,790.1465454101562,791.7582397460938,795.3846435546875
663,793.3699340820312,787.3259887695312,791.7582397460938,792.1611938476562
664,791.3552856445312,788.1318969726562,788.1318969726562,783.6996459960938
665,791.3552856445312,791.7582397460938,786.1171875,782.893798828125
666,786.5201416015625,794.981689453125,789.3406372070312,790.1465454101562
667,785.7142944335938,796.5933837890625,794.1758422851562,801.025634765625
668,788.5347900390625,796.5933837890625,795.7875366210938,797.3992919921875
669,785.3113403320312,791.3552856445312,795.3846435546875,784.5054931640625
670,784.5054931640625,785.7142944335938,795.7875366210938,784.908447265625
671,785.7142944335938,784.908447265625,796.1904907226562,783.6996459960938
672,792.1611938476562,791.7582397460938,792.5640869140625,779.6703491210938
673,791.7582397460938,793.7728881835938,793.7728881835938,780.0732421875
674,787.7289428710938,787.3259887695312,795.3846435546875,786.5201416015625
675,788.937744140625,786.923095703125,795.3846435546875,787.3259887695312
676,780.0732421875,787.3259887695312,796.5933837890625,779.6703491210938
677,778.05859375,787.3259887695312,795.3846435546875,781.2820434570312
678,783.6996459960938,790.952392578125,794.5787353515625,784.1025390625
679,783.2966918945312,790.5494384765625,794.1758422851562,785.3113403320312
680,783.6996459960938,788.937744140625,792.1611938476562,784.908447265625
681,789.3406372070312,792.967041015625,794.981689453125,784.908447265625
682,786.923095703125,791.3552856445312,797.8021850585938,782.4908447265625
683,787.7289428710938,785.3113403320312,796.996337890625,784.1025390625
684,792.1611938476562,787.3259887695312,797.8021850585938,786.5201416015625
685,798.6080322265625,797.3992919921875,798.6080322265625,789.3406372070312
686,794.981689453125,801.025634765625,795.7875366210938,791.3552856445312
687,790.1465454101562,799.010986328125,792.1611938476562,792.1611938476562
688,800.6226806640625,802.2344360351562,795.3846435546875,799.4139404296875
689,800.2197875976562,798.2051391601562,798.6080322265625,796.5933837890625
690,792.967041015625,790.952392578125,798.6080322265625,797.3992919921875
691,783.6996459960938,793.7728881835938,803.040283203125,802.6373901367188
692,779.6703491210938,797.3992919921875,804.2490844726562,799.4139404296875
693,789.3406372070312,797.8021850585938,804.2490844726562,801.025634765625
694,797.3992919921875,796.996337890625,804.2490844726562,796.5933837890625
695,801.4285888671875,795.7875366210938,802.2344360351562,791.7582397460938
696,805.8607788085938,793.7728881835938,805.054931640625,796.996337890625
697,799.8168334960938,793.7728881835938,803.8461303710938,796.5933837890625
698,792.967041015625,790.5494384765625,799.4139404296875,794.1758422851562
699,790.1465454101562,784.908447265625,794.981689453125,792.5640869140625
700,791.7582397460938,785.3113403320312,791.7582397460938,788.937744140625
701,795.3846435546875,784.908447265625,796.996337890625,791.3552856445312
702,793.7728881835938,781.6849975585938,796.1904907226562,787.7289428710938
703,790.5494384765625,780.4761962890625,791.7582397460938,782.087890625
704,790.1465454101562,778.05859375,792.1611938476562,782.4908447265625
705,794.5787353515625,782.087890625,793.7728881835938,792.967041015625
706,795.7875366210938,788.5347900390625,798.2051391601562,795.7875366210938
707,793.7728881835938,793.7728881835938,799.4139404296875,788.5347900390625
708,785.3113403320312,794.1758422851562,800.6226806640625,791.3552856445312
709,784.5054931640625,789.7435913085938,798.6080322265625,790.5494384765625
710,787.7289428710938,788.1318969726562,794.5787353515625,790.952392578125
711,785.7142944335938,792.967041015625,797.8021850585938,799.4139404296875
712,788.937744140625,793.3699340820312,801.025634765625,803.4432373046875
713,793.7728881835938,796.1904907226562,802.2344360351562,801.025634765625
714,791.7582397460938,798.6080322265625,796.996337890625,796.1904907226562
715,790.5494384765625,792.967041015625,795.7875366210938,800.2197875976562
716,790.1465454101562,788.1318969726562,794.981689453125,795.3846435546875
717,787.3259887695312,782.4908447265625,788.937744140625,796.5933837890625
718,784.5054931640625,788.5347900390625,787.3259887695312,798.6080322265625
719,791.7582397460938,791.3552856445312,790.1465454101562,787.3259887695312
720,796.1904907226562,786.5201416015625,792.5640869140625,787.3259887695312
721,790.1465454101562,786.5201416015625,793.7728881835938,787.7289428710938
722,787.7289428710938,788.1318969726562,799.4139404296875,787.3259887695312
723,778.8644409179688,788.937744140625,797.8021850585938,781.2820434570312
724,776.4468994140625,787.3259887695312,791.7582397460938,775.6410522460938
725,780.879150390625,786.1171875,793.7728881835938,779.2673950195312
726,784.5054931640625,793.3699340820312,796.996337890625,784.5054931640625
727,788.937744140625,793.7728881835938,799.010986328125,782.893798828125
728,782.087890625,792.5640869140625,792.1611938476562,778.05859375
729,771.6116943359375,791.7582397460938,787.3259887695312,783.2966918945312
730,779.2673950195312,784.5054931640625,792.5640869140625,786.1171875
731,790.952392578125,777.2527465820312,791.3552856445312,782.4908447265625
732,788.5347900390625,779.6703491210938,790.5494384765625,777.2527465820312
733,786.1171875,785.7142944335938,788.1318969726562,774.4322509765625
734,776.4468994140625,782.4908447265625,785.3113403320312,771.2088012695312
735,778.05859375,780.0732421875,788.937744140625,776.0439453125
736,790.1465454101562,784.908447265625,791.7582397460938,785.7142944335938
737,784.1025390625,783.6996459960938,794.5787353515625,782.4908447265625
738,780.0732421875,779.6703491210938,796.996337890625,783.6996459960938
739,781.2820434570312,781.2820434570312,800.2197875976562,788.1318969726562
740,775.6410522460938,785.3113403320312,800.6226806640625,790.5494384765625
741,774.4322509765625,786.5201416015625,794.981689453125,785.3113403320312
742,780.0732421875,780.0732421875,793.3699340820312,778.4615478515625
743,784.1025390625,779.2673950195312,786.5201416015625,783.6996459960938
744,788.1318969726562,784.908447265625,783.6996459960938,787.3259887695312
745,786.5201416015625,786.923095703125,787.3259887695312,782.4908447265625
746,790.5494384765625,788.937744140625,785.7142944335938,778.8644409179688
747,794.5787353515625,785.7142944335938,788.1318969726562,782.087890625
748,792.1611938476562,788.937744140625,788.937744140625,783.2966918945312
749,784.1025390625,788.937744140625,783.6996459960938,779.6703491210938
750,780.4761962890625,785.3113403320312,780.879150390625,778.4615478515625
751,779.2673950195312,784.1025390625,780.4761962890625,777.2527465820312
752,781.2820434570312,786.923095703125,776.8497924804688,775.6410522460938
753,786.1171875,792.967041015625,779.2673950195312,775.2380981445312
754,782.4908447265625,788.5347900390625,786.923095703125,773.6264038085938
755,779.6703491210938,792.1611938476562,792.5640869140625,780.0732421875
756,779.6703491210938,798.2051391601562,793.7728881835938,789.7435913085938
757,782.4908447265625,791.3552856445312,793.3699340820312,790.952392578125
758,792.5640869140625,789.7435913085938,796.1904907226562,790.5494384765625
759,790.952392578125,794.5787353515625,799.8168334960938,790.952392578125
760,792.1611938476562,800.2197875976562,801.4285888671875,793.7728881835938
761,807.069580078125,807.4725341796875,801.4285888671875,799.010986328125
762,813.5164794921875,802.6373901367188,801.025634765625,800.2197875976562
763,814.7252807617188,797.8021850585938,799.010986328125,799.4139404296875
764,809.4871826171875,807.4725341796875,799.4139404296875,800.6226806640625
765,798.6080322265625,805.4578857421875,801.025634765625,796.996337890625
766,799.010986328125,798.2051391601562,801.8314819335938,797.3992919921875
767,804.6520385742188,796.5933837890625,801.4285888671875,807.87548828125
768,801.4285888671875,790.5494384765625,800.2197875976562,807.4725341796875
769,802.2344360351562,792.5640869140625,802.2344360351562,793.7728881835938
770,798.2051391601562,794.5787353515625,802.2344360351562,795.7875366210938
771,785.7142944335938,795.3846435546875,798.6080322265625,803.040283203125
772,785.7142944335938,793.7728881835938,794.1758422851562,800.6226806640625
773,786.923095703125,791.7582397460938,793.7728881835938,798.2051391601562
774,786.923095703125,790.5494384765625,800.2197875976562,802.6373901367188
775,790.5494384765625,791.3552856445312,798.6080322265625,807.4725341796875
776,791.3552856445312,789.3406372070312,791.7582397460938,799.010986328125
777,789.3406372070312,789.3406372070312,791.7582397460938,792.967041015625
778,794.981689453125,788.1318969726562,793.7728881835938,793.7728881835938
779,798.2051391601562,789.3406372070312,794.5787353515625,790.1465454101562
780,800.2197875976562,796.1904907226562,797.8021850585938,786.1171875
781,797.8021850585938,796.5933837890625,799.4139404296875,790.5494384765625
782,792.1611938476562,792.967041015625,793.7728881835938,786.1171875
783,796.5933837890625,789.3406372070312,794.981689453125,788.937744140625
784,792.1611938476562,792.967041015625,799.010986328125,793.7728881835938
785,776.0439453125,793.7728881835938,796.996337890625,790.952392578125
786,767.5823974609375,788.1318969726562,792.5640869140625,788.1318969726562
787,775.6410522460938,790.5494384765625,788.1318969726562,782.4908447265625
788,786.1171875,792.967041015625,790.952392578125,782.893798828125
789,790.5494384765625,791.3552856445312,792.967041015625,786.1171875
790,783.6996459960938,793.3699340820312,792.1611938476562,788.5347900390625
791,776.8497924804688,793.7728881835938,789.3406372070312,783.2966918945312
792,786.1171875,791.7582397460938,789.3406372070312,780.4761962890625
793,788.5347900390625,792.1611938476562,788.937744140625,783.6996459960938
794,786.923095703125,792.967041015625,788.937744140625,784.5054931640625
795,785.3113403320312,792.967041015625,788.5347900390625,788.5347900390625
796,780.4761962890625,793.3699340820312,791.7582397460938,787.3259887695312
797,786.1171875,788.937744140625,798.2051391601562,788.937744140625
798,796.5933837890625,787.3259887695312,802.6373901367188,790.1465454101562
799,796.5933837890625,790.1465454101562,799.4139404296875,787.3259887695312
800,792.1611938476562,790.5494384765625,794.5787353515625,784.1025390625
801,791.7582397460938,789.3406372070312,793.7728881835938,784.908447265625
802,801.8314819335938,784.908447265625,793.3699340820312,794.981689453125
803,807.069580078125,784.908447265625,796.996337890625,793.3699340820312
804,799.8168334960938,786.5201416015625,797.3992919921875,789.7435913085938
805,796.5933837890625,787.7289428710938,793.3699340820312,793.7728881835938
806,788.937744140625,785.7142944335938,790.5494384765625,794.5787353515625
807,787.3259887695312,784.1025390625,792.1611938476562,794.5787353515625
808,802.6373901367188,786.923095703125,792.5640869140625,794.981689453125
809,799.8168334960938,784.1025390625,789.3406372070312,792.5640869140625
810,786.923095703125,784.908447265625,788.1318969726562,790.1465454101562
811,788.1318969726562,792.967041015625,787.7289428710938,787.3259887695312
812,792.1611938476562,789.7435913085938,786.923095703125,785.7142944335938
813,796.996337890625,785.7142944335938,787.3259887695312,786.1171875
814,797.3992919921875,792.5640869140625,786.923095703125,791.7582397460938
815,788.937744140625,794.1758422851562,787.7289428710938,793.7728881835938
816,781.6849975585938,788.5347900390625,782.087890625,784.908447265625
817,783.2966918945312,786.923095703125,779.2673950195312,781.6849975585938
818,787.7289428710938,787.7289428710938,785.7142944335938,783.6996459960938
819,797.8021850585938,786.923095703125,786.5201416015625,785.3113403320312
820,795.3846435546875,784.908447265625,784.908447265625,783.6996459960938
821,784.1025390625,784.908447265625,786.5201416015625,785.7142944335938
822,784.1025390625,786.5201416015625,788.5347900390625,786.923095703125
823,786.923095703125,785.7142944335938,785.7142944335938,788.5347900390625
824,784.5054931640625,784.1025390625,781.2820434570312,790.1465454101562
825,781.6849975585938,787.7289428710938,782.087890625,786.5201416015625
826,779.6703491210938,788.1318969726562,785.7142944335938,780.879150390625
827,783.2966918945312,792.5640869140625,784.5054931640625,774.029296875
828,786.923095703125,799.010986328125,788.1318969726562,774.029296875
829,773.6264038085938,795.7875366210938,784.908447265625,770.8058471679688
830,761.1355590820312,790.952392578125,772.0146484375,757.5091552734375
831,758.3150024414062,802.2344360351562,770.0,753.076904296875
832,761.5384521484375,819.1575317382812,772.0146484375,753.4798583984375
833,760.3296508789062,819.5604248046875,774.029296875,749.8534545898438
834,752.2710571289062,828.8278198242188,773.2234497070312,743.8095092773438
835,743.003662109375,843.7362670898438,767.9853515625,732.930419921875
836,728.901123046875,846.959716796875,767.1795043945312,729.7069702148438
837,717.6190185546875,851.3919677734375,767.5823974609375,721.6483764648438
838,717.6190185546875,861.062255859375,770.4029541015625,709.96337890625
839,714.7985229492188,867.912109375,772.0146484375,705.5311279296875
840,691.8314819335938,866.7033081054688,765.5677490234375,687.8021850585938
841,678.1318969726562,857.8388061523438,762.7472534179688,671.2820434570312
842,672.893798828125,860.2564086914062,757.5091552734375,661.2088012695312
843,674.1025390625,868.3150024414062,761.1355590820312,666.4468994140625
844,679.7435913085938,866.7033081054688,766.3735961914062,671.6849975585938
845,679.3406372070312,861.062255859375,760.3296508789062,670.0732421875
846,682.967041015625,858.2417602539062,761.1355590820312,676.1171875
847,688.2051391601562,860.6593627929688,770.8058471679688,680.952392578125
848,685.7875366210938,859.4505615234375,777.6557006835938,691.025634765625
849,678.937744140625,859.047607421875,778.05859375,688.2051391601562
850,686.5933837890625,862.2710571289062,779.2673950195312,678.1318969726562
851,703.5164794921875,863.8828125,779.6703491210938,693.8461303710938
852,709.1575317382812,861.062255859375,778.05859375,712.7838745117188
853,714.7985229492188,851.7948608398438,775.6410522460938,713.99267578125
854,721.2454223632812,842.930419921875,773.6264038085938,718.8278198242188
855,731.7216186523438,841.3186645507812,777.6557006835938,728.09521484375
856,749.8534545898438,840.915771484375,776.8497924804688,738.5714111328125
857,752.6740112304688,838.09521484375,769.5970458984375,745.8241577148438
858,755.4945068359375,830.03662109375,776.0439453125,749.047607421875
859,772.4176025390625,820.7692260742188,782.4908447265625,764.7619018554688
860,781.2820434570312,816.7399291992188,783.2966918945312,780.0732421875
861,784.5054931640625,808.6813354492188,789.3406372070312,782.893798828125
862,784.908447265625,798.6080322265625,792.1611938476562,787.3259887695312
863,790.5494384765625,788.1318969726562,788.937744140625,789.7435913085938
864,809.89013671875,781.2820434570312,782.087890625,796.996337890625
865,814.7252807617188,782.087890625,782.4908447265625,803.4432373046875
866,810.6959838867188,779.2673950195312,780.879150390625,807.87548828125
867,817.1428833007812,772.4176025390625,777.6557006835938,814.7252807617188
868,821.1721801757812,769.1941528320312,781.2820434570312,820.7692260742188
869,827.6190185546875,771.6116943359375,784.5054931640625,832.8571166992188
870,827.2161254882812,770.4029541015625,783.6996459960938,833.2600708007812
871,819.1575317382812,762.7472534179688,782.4908447265625,830.03662109375
872,816.7399291992188,753.8828125,782.087890625,825.6043701171875
873,818.3516235351562,749.047607421875,780.879150390625,828.8278198242188
874,830.8424682617188,753.076904296875,783.6996459960938,844.5421142578125
875,832.05126953125,755.8974609375,786.5201416015625,842.930419921875
876,827.6190185546875,756.3003540039062,788.5347900390625,842.5274658203125
877,833.2600708007812,756.3003540039062,791.3552856445312,848.974365234375
878,839.7069702148438,759.120849609375,794.5787353515625,847.7655639648438
879,834.8717651367188,760.3296508789062,795.3846435546875,850.989013671875
880,833.2600708007812,763.9560546875,793.7728881835938,850.989013671875
881,831.6483764648438,767.9853515625,790.5494384765625,843.3333129882812
882,835.6776733398438,768.3883056640625,788.937744140625,838.09521484375
883,840.915771484375,769.5970458984375,786.5201416015625,833.6630249023438
884,835.2747192382812,769.1941528320312,784.908447265625,828.4249267578125
885,837.6923217773438,768.3883056640625,784.1025390625,832.8571166992188
886,842.5274658203125,766.7765502929688,780.4761962890625,839.3040161132812
887,837.6923217773438,762.3442993164062,777.2527465820312,837.2893676757812
888,836.08056640625,762.3442993164062,780.0732421875,830.4395751953125
889,846.1538696289062,765.5677490234375,784.5054931640625,832.4542236328125
890,848.5714111328125,765.970703125,781.6849975585938,840.5128173828125
891,843.3333129882812,762.7472534179688,777.2527465820312,838.901123046875
892,836.886474609375,761.5384521484375,775.2380981445312,834.06591796875
893,837.6923217773438,763.5531005859375,774.8351440429688,839.7069702148438
894,840.5128173828125,765.970703125,781.2820434570312,838.901123046875
895,840.5128173828125,766.3735961914062,778.8644409179688,831.6483764648438
896,840.10986328125,770.0,773.2234497070312,830.8424682617188
897,839.3040161132812,770.8058471679688,778.8644409179688,839.7069702148438
898,831.6483764648438,768.3883056640625,782.4908447265625,844.5421142578125
899,827.2161254882812,765.1648559570312,782.893798828125,840.915771484375
900,832.05126953125,765.5677490234375,780.879150390625,838.09521484375
901,836.4835205078125,772.4176025390625,782.4908447265625,836.886474609375
902,834.8717651367188,774.4322509765625,781.6849975585938,830.03662109375
903,832.4542236328125,773.6264038085938,779.6703491210938,826.00732421875
904,829.6337280273438,774.029296875,774.8351440429688,822.7838745117188
905,824.7985229492188,774.029296875,774.029296875,816.3369750976562
906,820.3662719726562,775.2380981445312,783.6996459960938,826.4102783203125
907,809.084228515625,772.4176025390625,783.6996459960938,820.7692260742188
908,806.6666870117188,771.2088012695312,780.879150390625,809.4871826171875
909,809.4871826171875,774.4322509765625,784.5054931640625,823.1868286132812
910,805.4578857421875,774.8351440429688,785.7142944335938,821.5750732421875
911,814.3223266601562,769.1941528320312,779.2673950195312,810.6959838867188
912,811.098876953125,763.9560546875,778.4615478515625,808.2783813476562
913,799.8168334960938,768.3883056640625,782.087890625,807.069580078125
914,807.4725341796875,771.6116943359375,780.0732421875,807.87548828125
915,815.5311279296875,774.4322509765625,777.2527465820312,811.098876953125
916,811.098876953125,780.879150390625,775.6410522460938,805.4578857421875
917,811.90478515625,783.6996459960938,774.029296875,804.2490844726562
918,812.7106323242188,782.893798828125,772.4176025390625,803.8461303710938
919,811.098876953125,781.2820434570312,777.2527465820312,798.6080322265625
920,807.87548828125,777.2527465820312,780.879150390625,805.4578857421875
921,807.4725341796875,773.6264038085938,779.2673950195312,808.2783813476562
922,799.8168334960938,772.4176025390625,775.2380981445312,797.3992919921875
923,793.7728881835938,773.6264038085938,776.0439453125,792.967041015625
924,797.3992919921875,776.4468994140625,775.2380981445312,796.1904907226562
925,801.8314819335938,776.8497924804688,777.6557006835938,801.025634765625
926,808.2783813476562,776.8497924804688,782.893798828125,812.7106323242188
927,802.2344360351562,779.6703491210938,780.4761962890625,815.93408203125
928,793.3699340820312,776.4468994140625,778.05859375,804.6520385742188
929,793.7728881835938,773.6264038085938,773.6264038085938,795.3846435546875
930,798.6080322265625,778.4615478515625,772.8204956054688,789.7435913085938
931,803.8461303710938,779.2673950195312,776.0439453125,787.7289428710938
932,802.2344360351562,775.2380981445312,774.4322509765625,796.1904907226562
933,803.8461303710938,770.8058471679688,779.2673950195312,803.8461303710938
934,815.5311279296875,777.6557006835938,780.879150390625,799.4139404296875
935,821.1721801757812,783.6996459960938,778.8644409179688,803.040283203125
936,817.5457763671875,781.6849975585938,779.6703491210938,805.4578857421875
937,815.5311279296875,779.6703491210938,788.1318969726562,798.2051391601562
938,817.1428833007812,788.1318969726562,792.967041015625,799.8168334960938
939,815.1282348632812,790.1465454101562,788.5347900390625,794.1758422851562
940,810.6959838867188,783.6996459960938,786.5201416015625,786.1171875
941,805.4578857421875,786.923095703125,785.7142944335938,780.879150390625
942,801.4285888671875,789.7435913085938,785.3113403320312,782.087890625
943,787.7289428710938,788.5347900390625,780.0732421875,784.5054931640625
944,776.4468994140625,786.923095703125,777.6557006835938,787.7289428710938
945,776.4468994140625,791.7582397460938,777.2527465820312,783.2966918945312
946,778.4615478515625,785.7142944335938,774.029296875,776.0439453125
947,782.4908447265625,783.6996459960938,767.9853515625,774.029296875
948,778.4615478515625,784.908447265625,765.1648559570312,773.2234497070312
949,779.6703491210938,786.1171875,769.5970458984375,779.2673950195312
950,782.087890625,788.5347900390625,773.6264038085938,781.6849975585938
951,787.7289428710938,778.8644409179688,770.4029541015625,779.2673950195312
952,797.3992919921875,780.4761962890625,768.7911987304688,786.923095703125
953,801.025634765625,786.5201416015625,776.0439453125,793.7728881835938
954,798.2051391601562,785.3113403320312,774.8351440429688,797.8021850585938
955,796.5933837890625,786.5201416015625,774.029296875,811.5018310546875
956,807.4725341796875,786.923095703125,775.2380981445312,820.7692260742188
957,814.7252807617188,786.1171875,777.6557006835938,827.6190185546875
958,808.2783813476562,785.3113403320312,777.6557006835938,825.2014770507812
959,808.2783813476562,784.1025390625,773.6264038085938,819.1575317382812
960,807.4725341796875,787.3259887695312,775.2380981445312,817.1428833007812
961,809.084228515625,786.1171875,775.6410522460938,813.5164794921875
962,816.7399291992188,780.879150390625,777.2527465820312,804.2490844726562
963,811.5018310546875,784.5054931640625,780.4761962890625,797.3992919921875
964,796.996337890625,790.1465454101562,776.4468994140625,794.981689453125
965,797.8021850585938,786.923095703125,776.0439453125,794.1758422851562
966,799.8168334960938,782.087890625,776.4468994140625,792.967041015625
967,794.981689453125,787.3259887695312,777.6557006835938,789.7435913085938
968,789.3406372070312,792.967041015625,781.6849975585938,782.893798828125
969,782.4908447265625,788.937744140625,784.1025390625,780.0732421875
970,784.1025390625,782.087890625,778.8644409179688,779.6703491210938
971,780.4761962890625,778.05859375,772.0146484375,778.4615478515625
972,778.4615478515625,779.2673950195312,774.4322509765625,774.4322509765625
973,785.3113403320312,780.4761962890625,777.2527465820312,778.05859375
974,780.0732421875,781.2820434570312,777.6557006835938,779.2673950195312
975,780.4761962890625,786.5201416015625,780.0732421875,778.05859375
976,789.3406372070312,790.1465454101562,783.6996459960938,778.05859375
977,789.7435913085938,790.1465454101562,782.087890625,782.4908447265625
978,785.7142944335938,790.1465454101562,780.879150390625,793.7728881835938
979,784.908447265625,788.5347900390625,783.2966918945312,796.5933837890625
980,785.7142944335938,787.3259887695312,783.6996459960938,795.3846435546875
981,781.2820434570312,785.7142944335938,783.2966918945312,793.7728881835938
982,784.1025390625,788.5347900390625,786.5201416015625,800.6226806640625
983,790.1465454101562,790.952392578125,787.3259887695312,801.025634765625
984,790.952392578125,786.1171875,785.3113403320312,790.952392578125
985,787.7289428710938,784.908447265625,784.1025390625,794.981689453125
986,788.1318969726562,792.1611938476562,781.2820434570312,800.2197875976562
987,794.1758422851562,797.3992919921875,785.7142944335938,799.8168334960938
988,792.967041015625,797.3992919921875,793.3699340820312,799.4139404296875
989,789.7435913085938,796.996337890625,790.5494384765625,799.8168334960938
990,789.7435913085938,790.5494384765625,790.1465454101562,794.981689453125
991,792.1611938476562,788.1318969726562,790.5494384765625,788.1318969726562
992,795.3846435546875,792.1611938476562,787.7289428710938,790.1465454101562
993,802.2344360351562,794.981689453125,788.5347900390625,793.7728881835938
994,804.2490844726562,801.025634765625,788.937744140625,795.3846435546875
995,803.040283203125,799.010986328125,786.5201416015625,791.7582397460938
996,804.2490844726562,793.3699340820312,782.087890625,785.3113403320312
997,801.4285888671875,792.967041015625,784.1025390625,787.3259887695312
998,794.1758422851562,795.7875366210938,784.1025390625,788.1318969726562
999,791.3552856445312,794.1758422851562,782.4908447265625,786.1171875
1000,782.087890625,790.1465454101562,782.087890625,780.879150390625
1001,780.0732421875,786.5201416015625,781.2820434570312,782.087890625
1002,785.7142944335938,788.1318969726562,781.2820434570312,786.923095703125
1003,781.2820434570312,792.5640869140625,783.6996459960938,786.923095703125
1004,774.8351440429688,791.7582397460938,781.6849975585938,782.4908447265625
1005,768.3883056640625,789.3406372070312,780.4761962890625,784.5054931640625
1006,767.9853515625,790.5494384765625,781.2820434570312,788.937744140625
1007,776.0439453125,793.7728881835938,778.8644409179688,788.1318969726562
1008,792.1611938476562,792.1611938476562,782.4908447265625,792.5640869140625
1009,796.1904907226562,790.5494384765625,780.4761962890625,791.7582397460938
1010,796.996337890625,789.7435913085938,774.029296875,784.908447265625
1011,799.4139404296875,787.7289428710938,778.05859375,785.3113403320312
1012,798.6080322265625,786.1171875,778.05859375,788.937744140625
1013,807.4725341796875,789.3406372070312,778.05859375,790.952392578125
1014,811.5018310546875,790.1465454101562,778.05859375,784.1025390625
1015,801.4285888671875,787.3259887695312,777.6557006835938,784.5054931640625
1016,792.5640869140625,787.3259887695312,780.0732421875,789.3406372070312
1017,799.8168334960938,784.5054931640625,776.0439453125,792.5640869140625
1018,803.8461303710938,785.3113403320312,780.0732421875,793.3699340820312
1019,797.8021850585938,792.1611938476562,785.3113403320312,793.3699340820312
1020,799.4139404296875,787.3259887695312,784.1025390625,795.7875366210938
1021,799.010986328125,780.4761962890625,781.2820434570312,793.7728881835938
1022,803.040283203125,786.1171875,785.7142944335938,799.010986328125
1023,799.4139404296875,792.1611938476562,791.7582397460938,808.6813354492188
1024,795.3846435546875,795.7875366210938,790.952392578125,813.5164794921875
1025,794.1758422851562,787.3259887695312,788.1318969726562,808.2783813476562
1026,796.996337890625,785.7142944335938,790.1465454101562,804.6520385742188
1027,801.8314819335938,792.5640869140625,792.967041015625,815.93408203125
1028,799.010986328125,796.1904907226562,794.981689453125,812.3076782226562
1029,794.981689453125,798.2051391601562,796.996337890625,799.010986328125
1030,792.1611938476562,792.5640869140625,793.3699340820312,800.6226806640625
1031,787.7289428710938,792.967041015625,794.981689453125,799.4139404296875
1032,788.5347900390625,788.937744140625,798.6080322265625,806.6666870117188
1033,788.937744140625,786.923095703125,794.981689453125,809.4871826171875
1034,780.0732421875,791.7582397460938,792.5640869140625,806.2637329101562
1035,780.0732421875,787.3259887695312,794.981689453125,812.7106323242188
1036,785.7142944335938,790.1465454101562,794.1758422851562,809.084228515625
1037,785.3113403320312,793.7728881835938,792.967041015625,801.4285888671875
1038,788.1318969726562,792.1611938476562,792.1611938476562,796.5933837890625
1039,799.4139404296875,793.7728881835938,791.7582397460938,794.5787353515625
1040,794.981689453125,790.1465454101562,785.3113403320312,792.1611938476562
1041,788.5347900390625,789.3406372070312,782.087890625,785.7142944335938
1042,790.1465454101562,791.7582397460938,779.2673950195312,780.4761962890625
1043,791.7582397460938,790.5494384765625,777.6557006835938,783.6996459960938
1044,793.3699340820312,787.7289428710938,786.5201416015625,789.7435913085938
1045,795.3846435546875,788.1318969726562,782.4908447265625,789.3406372070312
1046,800.6226806640625,793.7728881835938,778.05859375,787.3259887695312
1047,804.6520385742188,799.010986328125,779.6703491210938,781.2820434570312
1048,804.6520385742188,799.8168334960938,777.6557006835938,784.1025390625
1049,805.054931640625,800.2197875976562,777.6557006835938,790.5494384765625
1050,806.6666870117188,803.8461303710938,778.4615478515625,788.1318969726562
1051,809.084228515625,803.040283203125,778.8644409179688,788.1318969726562
1052,799.4139404296875,797.8021850585938,779.2673950195312,784.1025390625
1053,792.1611938476562,794.5787353515625,781.6849975585938,782.4908447265625
1054,803.4432373046875,794.1758422851562,784.1025390625,790.5494384765625
1055,803.4432373046875,789.3406372070312,782.4908447265625,792.1611938476562
1056,792.967041015625,790.1465454101562,782.893798828125,797.8021850585938
1057,792.5640869140625,794.5787353515625,783.6996459960938,794.1758422851562
1058,794.981689453125,792.1611938476562,787.3259887695312,792.1611938476562
1059,793.7728881835938,792.5640869140625,794.1758422851562,797.8021850585938
1060,791.3552856445312,794.1758422851562,794.1758422851562,790.952392578125
1061,796.1904907226562,798.2051391601562,797.3992919921875,794.1758422851562
1062,793.7728881835938,797.8021850585938,794.981689453125,801.8314819335938
1063,797.8021850585938,803.8461303710938,795.7875366210938,805.054931640625
1064,803.8461303710938,807.87548828125,800.2197875976562,803.040283203125
1065,804.2490844726562,803.8461303710938,797.3992919921875,797.3992919921875
1066,811.90478515625,800.2197875976562,796.1904907226562,801.025634765625
1067,816.7399291992188,800.6226806640625,796.1904907226562,807.069580078125
1068,814.3223266601562,802.2344360351562,795.7875366210938,799.010986328125
1069,817.1428833007812,805.8607788085938,796.1904907226562,799.4139404296875
1070,820.3662719726562,809.084228515625,795.7875366210938,805.054931640625
1071,807.87548828125,806.2637329101562,795.3846435546875,799.010986328125
1072,789.3406372070312,799.010986328125,789.7435913085938,788.5347900390625
1073,783.2966918945312,795.3846435546875,784.908447265625,788.1318969726562
1074,788.1318969726562,800.6226806640625,785.3113403320312,789.3406372070312
1075,795.3846435546875,801.025634765625,785.3113403320312,784.5054931640625
1076,797.8021850585938,799.010986328125,782.4908447265625,783.6996459960938
1077,801.4285888671875,799.4139404296875,784.5054931640625,784.908447265625
1078,801.8314819335938,800.2197875976562,785.7142944335938,786.923095703125
1079,799.4139404296875,799.8168334960938,783.2966918945312,784.5054931640625
1080,796.1904907226562,796.5933837890625,784.908447265625,779.6703491210938
1081,793.3699340820312,798.6080322265625,786.1171875,783.6996459960938
1082,791.3552856445312,804.6520385742188,789.3406372070312,785.3113403320312
1083,786.1171875,802.6373901367188,787.3259887695312,783.2966918945312
1084,791.7582397460938,802.6373901367188,783.6996459960938,792.1611938476562
1085,796.996337890625,803.4432373046875,784.908447265625,799.8168334960938
1086,787.7289428710938,801.025634765625,780.879150390625,794.981689453125
1087,783.2966918945312,798.6080322265625,779.2673950195312,787.7289428710938
1088,790.952392578125,795.3846435546875,785.3113403320312,789.3406372070312
1089,797.3992919921875,799.010986328125,792.1611938476562,805.8607788085938
1090,794.5787353515625,795.3846435546875,794.981689453125,813.113525390625
1091,786.923095703125,787.3259887695312,792.5640869140625,804.6520385742188
1092,781.2820434570312,790.952392578125,790.1465454101562,803.4432373046875
1093,785.7142944335938,793.7728881835938,793.7728881835938,804.2490844726562
1094,793.7728881835938,795.3846435546875,794.1758422851562,803.040283203125
1095,804.2490844726562,796.5933837890625,792.1611938476562,806.2637329101562
1096,810.2930297851562,796.1904907226562,789.7435913085938,803.4432373046875
1097,798.6080322265625,794.1758422851562,786.923095703125,797.8021850585938
1098,800.2197875976562,792.5640869140625,786.1171875,801.8314819335938
1099,807.87548828125,794.981689453125,790.5494384765625,805.8607788085938
1100,807.069580078125,797.3992919921875,787.7289428710938,796.5933837890625
1101,805.054931640625,796.1904907226562,784.1025390625,792.5640869140625
1102,796.5933837890625,790.5494384765625,786.923095703125,786.923095703125
1103,792.5640869140625,790.952392578125,785.3113403320312,779.6703491210938
1104,802.6373901367188,796.996337890625,787.7289428710938,785.3113403320312
1105,807.069580078125,794.981689453125,784.908447265625,783.6996459960938
1106,801.025634765625,793.3699340820312,780.879150390625,782.087890625
1107,799.4139404296875,794.5787353515625,784.1025390625,786.5201416015625
1108,798.6080322265625,794.5787353515625,781.6849975585938,789.3406372070312
1109,794.981689453125,795.3846435546875,785.3113403320312,789.3406372070312
1110,793.3699340820312,792.967041015625,785.3113403320312,788.937744140625
1111,797.8021850585938,796.1904907226562,782.087890625,792.1611938476562
1112,798.6080322265625,799.8168334960938,786.1171875,800.2197875976562
1113,792.967041015625,794.1758422851562,789.7435913085938,804.6520385742188
1114,796.5933837890625,794.1758422851562,788.937744140625,797.3992919921875
1115,799.4139404296875,795.3846435546875,787.7289428710938,791.7582397460938
1116,795.7875366210938,794.5787353515625,790.5494384765625,794.1758422851562
1117,788.5347900390625,796.5933837890625,792.967041015625,797.3992919921875
1118,790.1465454101562,796.1904907226562,794.1758422851562,801.025634765625
1119,800.6226806640625,795.3846435546875,796.996337890625,807.069580078125
1120,796.5933837890625,795.3846435546875,794.1758422851562,801.025634765625
1121,793.7728881835938,795.3846435546875,790.952392578125,790.5494384765625
1122,789.7435913085938,800.2197875976562,789.7435913085938,787.7289428710938
1123,784.908447265625,801.4285888671875,786.923095703125,789.7435913085938
1124,797.3992919921875,799.4139404296875,783.2966918945312,804.6520385742188
1125,808.2783813476562,801.025634765625,783.2966918945312,810.2930297851562
1126,813.113525390625,801.025634765625,790.1465454101562,802.2344360351562
1127,811.90478515625,801.4285888671875,790.5494384765625,798.6080322265625
1128,805.4578857421875,800.6226806640625,790.952392578125,795.7875366210938
1129,811.5018310546875,800.2197875976562,788.937744140625,802.6373901367188
1130,817.5457763671875,802.2344360351562,786.1171875,809.084228515625
1131,825.2014770507812,805.4578857421875,792.5640869140625,813.5164794921875
1132,830.8424682617188,806.2637329101562,800.6226806640625,815.1282348632812
1133,821.5750732421875,805.8607788085938,795.7875366210938,809.084228515625
1134,810.6959838867188,805.4578857421875,794.981689453125,809.89013671875
1135,817.1428833007812,802.6373901367188,801.025634765625,817.1428833007812
1136,818.7545776367188,799.4139404296875,798.2051391601562,812.7106323242188
1137,809.4871826171875,801.025634765625,795.7875366210938,804.6520385742188
1138,804.6520385742188,803.4432373046875,799.4139404296875,805.054931640625
1139,797.8021850585938,801.4285888671875,796.996337890625,806.2637329101562
1140,790.1465454101562,791.7582397460938,789.3406372070312,801.025634765625
1141,790.952392578125,788.5347900390625,790.952392578125,797.3992919921875
1142,789.7435913085938,790.5494384765625,790.952392578125,795.7875366210938
1143,790.952392578125,788.1318969726562,794.5787353515625,792.5640869140625
1144,794.5787353515625,788.5347900390625,800.2197875976562,792.1611938476562
1145,788.5347900390625,788.5347900390625,794.1758422851562,789.7435913085938
1146,788.937744140625,783.6996459960938,792.5640869140625,791.3552856445312
1147,799.8168334960938,788.937744140625,794.1758422851562,802.6373901367188
1148,796.5933837890625,786.1171875,794.981689453125,799.8168334960938
1149,782.087890625,782.4908447265625,793.3699340820312,786.923095703125
1150,779.2673950195312,783.2966918945312,794.1758422851562,788.937744140625
1151,786.923095703125,778.8644409179688,795.3846435546875,795.3846435546875
1152,790.1465454101562,779.2673950195312,796.1904907226562,794.981689453125
1153,792.5640869140625,784.1025390625,800.2197875976562,798.2051391601562
1154,790.5494384765625,782.4908447265625,796.996337890625,801.8314819335938
1155,789.3406372070312,780.879150390625,793.3699340820312,808.6813354492188
1156,790.952392578125,785.3113403320312,793.7728881835938,806.6666870117188
1157,792.967041015625,784.5054931640625,789.3406372070312,801.8314819335938
1158,801.025634765625,784.1025390625,790.5494384765625,803.4432373046875
1159,802.2344360351562,785.7142944335938,793.3699340820312,804.6520385742188
1160,799.4139404296875,787.3259887695312,789.3406372070312,795.3846435546875
1161,807.4725341796875,788.937744140625,786.923095703125,790.952392578125
1162,807.069580078125,786.923095703125,783.6996459960938,792.1611938476562
1163,791.7582397460938,788.937744140625,777.6557006835938,790.5494384765625
1164,788.937744140625,796.1904907226562,774.4322509765625,787.7289428710938
1165,792.967041015625,794.981689453125,776.0439453125,790.1465454101562
1166,790.1465454101562,785.7142944335938,774.029296875,785.7142944335938
1167,792.1611938476562,786.923095703125,776.0439453125,780.879150390625
1168,789.7435913085938,794.1758422851562,784.5054931640625,781.6849975585938
1169,784.1025390625,795.3846435546875,782.893798828125,782.893798828125
1170,785.7142944335938,792.1611938476562,780.4761962890625,788.5347900390625
1171,788.5347900390625,790.5494384765625,782.893798828125,782.893798828125
1172,787.7289428710938,794.1758422851562,786.5201416015625,779.6703491210938
1173,780.0732421875,794.981689453125,790.5494384765625,784.908447265625
1174,777.6557006835938,789.3406372070312,787.7289428710938,782.4908447265625
1175,779.2673950195312,788.937744140625,788.1318969726562,776.8497924804688
1176,779.6703491210938,790.5494384765625,789.3406372070312,776.4468994140625
1177,786.5201416015625,790.952392578125,787.3259887695312,782.087890625
1178,793.3699340820312,795.7875366210938,790.952392578125,787.3259887695312
1179,789.3406372070312,789.3406372070312,794.5787353515625,788.937744140625
1180,781.6849975585938,788.1318969726562,796.1904907226562,783.6996459960938
1181,782.4908447265625,792.967041015625,794.981689453125,788.937744140625
1182,786.1171875,787.7289428710938,794.1758422851562,791.3552856445312
1183,790.952392578125,786.923095703125,791.3552856445312,785.3113403320312
1184,801.025634765625,789.7435913085938,788.5347900390625,784.5054931640625
1185,801.8314819335938,783.2966918945312,792.967041015625,788.937744140625
1186,804.2490844726562,785.3113403320312,796.5933837890625,795.7875366210938
1187,809.89013671875,794.1758422851562,799.4139404296875,793.3699340820312
1188,809.4871826171875,795.3846435546875,800.2197875976562,788.5347900390625
1189,807.4725341796875,794.981689453125,794.5787353515625,782.087890625
1190,805.054931640625,792.1611938476562,794.981689453125,782.893798828125
1191,796.5933837890625,793.3699340820312,794.981689453125,786.1171875
1192,796.1904907226562,794.5787353515625,796.1904907226562,791.7582397460938
1193,800.6226806640625,800.6226806640625,803.040283203125,798.2051391601562
1194,800.2197875976562,803.040283203125,804.6520385742188,795.3846435546875
1195,787.3259887695312,799.4139404296875,801.4285888671875,787.7289428710938
1196,782.4908447265625,795.3846435546875,801.4285888671875,787.3259887695312
1197,788.5347900390625,794.1758422851562,800.2197875976562,791.3552856445312
1198,799.8168334960938,797.3992919921875,796.5933837890625,790.952392578125
1199,805.4578857421875,800.2197875976562,798.6080322265625,792.1611938476562
1200,784.908447265625,794.1758422851562,796.1904907226562,784.5054931640625
1201,782.4908447265625,788.5347900390625,794.981689453125,780.4761962890625
1202,790.952392578125,789.7435913085938,798.2051391601562,783.2966918945312
1203,782.4908447265625,785.3113403320312,798.6080322265625,782.893798828125
1204,778.4615478515625,787.7289428710938,802.2344360351562,793.3699340820312
1205,780.0732421875,792.1611938476562,805.8607788085938,803.4432373046875
1206,780.879150390625,784.5054931640625,805.4578857421875,797.8021850585938
1207,782.893798828125,786.923095703125,797.3992919921875,788.5347900390625
1208,787.7289428710938,794.5787353515625,795.3846435546875,792.5640869140625
1209,788.1318969726562,793.7728881835938,797.8021850585938,790.952392578125
1210,788.5347900390625,793.3699340820312,801.025634765625,787.7289428710938
1211,786.1171875,792.5640869140625,799.4139404296875,786.923095703125
1212,785.3113403320312,791.7582397460938,796.5933837890625,785.7142944335938
1213,794.981689453125,793.3699340820312,796.5933837890625,788.937744140625
1214,800.6226806640625,790.5494384765625,794.1758422851562,787.3259887695312
1215,802.2344360351562,791.3552856445312,796.996337890625,790.1465454101562
1216,794.981689453125,790.1465454101562,798.6080322265625,788.937744140625
1217,797.8021850585938,788.937744140625,796.5933837890625,788.937744140625
1218,798.6080322265625,791.7582397460938,797.3992919921875,788.5347900390625
1219,796.5933837890625,789.3406372070312,796.996337890625,786.5201416015625
1220,796.996337890625,792.1611938476562,798.2051391601562,791.7582397460938
1221,796.5933837890625,798.2051391601562,801.025634765625,794.5787353515625
1222,806.2637329101562,796.1904907226562,800.6226806640625,796.5933837890625
1223,813.113525390625,792.5640869140625,797.8021850585938,797.8021850585938
1224,812.7106323242188,789.7435913085938,799.8168334960938,794.1758422851562
1225,803.4432373046875,785.3113403320312,803.040283203125,796.1904907226562
1226,786.923095703125,785.7142944335938,800.6226806640625,790.5494384765625
1227,786.1171875,785.3113403320312,797.3992919921875,792.1611938476562
1228,791.7582397460938,778.8644409179688,790.1465454101562,797.3992919921875
1229,786.5201416015625,780.0732421875,790.5494384765625,790.5494384765625
1230,780.4761962890625,791.3552856445312,796.5933837890625,790.5494384765625
1231,782.087890625,790.5494384765625,795.3846435546875,793.3699340820312
1232,788.1318969726562,788.937744140625,796.5933837890625,795.7875366210938
1233,792.967041015625,790.1465454101562,796.996337890625,785.7142944335938
1234,795.7875366210938,790.5494384765625,794.5787353515625,780.879150390625
1235,798.2051391601562,794.1758422851562,794.981689453125,788.937744140625
1236,786.923095703125,792.5640869140625,790.952392578125,784.1025390625
1237,784.5054931640625,792.967041015625,786.5201416015625,776.0439453125
1238,798.2051391601562,799.4139404296875,790.952392578125,780.4761962890625
1239,798.6080322265625,801.4285888671875,795.3846435546875,787.3259887695312
1240,792.1611938476562,796.1904907226562,796.996337890625,784.908447265625
1241,791.7582397460938,794.981689453125,794.1758422851562,779.6703491210938
1242,793.3699340820312,798.6080322265625,789.7435913085938,778.05859375
1243,800.6226806640625,800.2197875976562,789.7435913085938,781.2820434570312
1244,802.6373901367188,802.2344360351562,792.1611938476562,783.2966918945312
1245,800.6226806640625,800.2197875976562,790.952392578125,778.4615478515625
1246,799.8168334960938,793.7728881835938,788.5347900390625,776.0439453125
1247,796.1904907226562,789.7435913085938,786.1171875,775.2380981445312
1248,789.7435913085938,787.3259887695312,789.3406372070312,779.6703491210938
1249,792.5640869140625,784.908447265625,793.7728881835938,785.3113403320312
1250,796.5933837890625,790.5494384765625,800.6226806640625,790.1465454101562
1251,786.1171875,790.952392578125,798.6080322265625,789.7435913085938
1252,777.2527465820312,784.908447265625,791.7582397460938,792.1611938476562
1253,776.4468994140625,781.6849975585938,791.7582397460938,791.3552856445312
1254,781.6849975585938,780.0732421875,795.3846435546875,790.952392578125
1255,792.1611938476562,784.1025390625,796.1904907226562,797.3992919921875
1256,792.5640869140625,790.952392578125,798.6080322265625,793.7728881835938
1257,791.3552856445312,787.3259887695312,801.8314819335938,789.7435913085938
1258,788.5347900390625,780.879150390625,799.8168334960938,795.3846435546875
1259,786.1171875,784.908447265625,798.6080322265625,797.3992919921875
1260,790.1465454101562,791.7582397460938,796.996337890625,788.1318969726562
1261,795.3846435546875,796.5933837890625,798.2051391601562,785.7142944335938
1262,803.040283203125,799.4139404296875,803.040283203125,790.952392578125
1263,802.2344360351562,801.025634765625,800.6226806640625,793.7728881835938
1264,798.6080322265625,796.996337890625,797.8021850585938,793.3699340820312
1265,799.4139404296875,797.8021850585938,796.5933837890625,790.952392578125
1266,794.981689453125,799.010986328125,793.3699340820312,788.937744140625
1267,791.7582397460938,798.6080322265625,788.5347900390625,785.7142944335938
1268,795.3846435546875,796.996337890625,788.937744140625,782.893798828125
1269,798.2051391601562,796.1904907226562,792.967041015625,784.908447265625
1270,798.2051391601562,799.010986328125,792.967041015625,791.3552856445312
1271,794.981689453125,801.4285888671875,793.7728881835938,792.1611938476562
1272,788.1318969726562,796.5933837890625,794.5787353515625,787.3259887695312
1273,799.4139404296875,795.7875366210938,792.967041015625,787.3259887695312
1274,813.113525390625,803.4432373046875,792.5640869140625,792.967041015625
1275,792.967041015625,799.8168334960938,790.952392578125,793.3699340820312
1276,780.0732421875,796.5933837890625,788.5347900390625,788.5347900390625
1277,782.087890625,795.7875366210938,788.937744140625,787.3259887695312
1278,780.0732421875,796.1904907226562,789.3406372070312,784.908447265625
1279,782.087890625,794.5787353515625,788.1318969726562,786.923095703125
1280,783.2966918945312,790.5494384765625,788.1318969726562,788.5347900390625
1281,785.3113403320312,790.5494384765625,791.3552856445312,792.967041015625
1282,791.7582397460938,790.1465454101562,799.010986328125,797.8021850585938
1283,792.1611938476562,792.1611938476562,801.4285888671875,792.1611938476562
1284,795.7875366210938,794.1758422851562,797.8021850585938,792.1611938476562
1285,798.6080322265625,792.1611938476562,799.4139404296875,797.3992919921875
1286,795.3846435546875,796.5933837890625,801.025634765625,795.3846435546875
1287,793.3699340820312,799.4139404296875,801.4285888671875,791.3552856445312
1288,799.4139404296875,798.6080322265625,806.6666870117188,796.5933837890625
1289,804.6520385742188,792.1611938476562,804.6520385742188,795.7875366210938
1290,800.6226806640625,789.7435913085938,799.010986328125,788.937744140625
1291,804.6520385742188,795.3846435546875,799.8168334960938,788.937744140625
1292,800.6226806640625,795.7875366210938,802.6373901367188,788.937744140625
1293,795.3846435546875,791.7582397460938,802.2344360351562,794.1758422851562
1294,801.025634765625,791.7582397460938,798.2051391601562,797.3992919921875
1295,798.6080322265625,789.3406372070312,795.7875366210938,792.967041015625
1296,800.2197875976562,786.923095703125,799.4139404296875,798.2051391601562
1297,805.054931640625,787.3259887695312,798.6080322265625,799.8168334960938
1298,807.069580078125,785.7142944335938,799.8168334960938,796.996337890625
1299,803.040283203125,789.7435913085938,798.6080322265625,787.7289428710938
1300,794.5787353515625,794.5787353515625,792.5640869140625,785.3113403320312
1301,789.7435913085938,793.3699340820312,787.7289428710938,784.5054931640625
1302,791.3552856445312,796.996337890625,790.952392578125,779.2673950195312
1303,793.3699340820312,793.3699340820312,794.1758422851562,779.2673950195312
1304,792.5640869140625,786.1171875,788.5347900390625,782.087890625
1305,788.5347900390625,791.3552856445312,789.3406372070312,781.2820434570312
1306,782.893798828125,790.5494384765625,791.7582397460938,779.2673950195312
1307,786.923095703125,788.5347900390625,789.7435913085938,777.6557006835938
1308,788.5347900390625,794.1758422851562,791.7582397460938,781.2820434570312
1309,787.3259887695312,802.6373901367188,794.1758422851562,786.923095703125
1310,791.7582397460938,804.2490844726562,788.937744140625,782.4908447265625
1311,794.981689453125,800.6226806640625,786.5201416015625,780.0732421875
1312,789.7435913085938,798.2051391601562,788.5347900390625,774.029296875
1313,789.3406372070312,797.3992919921875,790.952392578125,769.1941528320312
1314,790.952392578125,802.2344360351562,794.5787353515625,771.6116943359375
1315,788.5347900390625,801.025634765625,798.2051391601562,775.6410522460938
1316,791.3552856445312,798.6080322265625,803.8461303710938,780.0732421875
1317,787.3259887695312,799.4139404296875,805.4578857421875,780.4761962890625
1318,790.5494384765625,799.010986328125,805.054931640625,787.7289428710938
1319,795.7875366210938,803.040283203125,804.6520385742188,799.4139404296875
1320,793.3699340820312,803.8461303710938,801.4285888671875,795.3846435546875
1321,799.010986328125,801.8314819335938,801.8314819335938,794.5787353515625
1322,803.040283203125,803.8461303710938,804.2490844726562,799.4139404296875
1323,800.2197875976562,806.6666870117188,805.4578857421875,799.8168334960938
1324,799.010986328125,802.6373901367188,803.4432373046875,801.025634765625
1325,795.7875366210938,797.3992919921875,797.8021850585938,799.8168334960938
1326,795.3846435546875,796.5933837890625,793.7728881835938,799.4139404296875
1327,798.6080322265625,800.2197875976562,796.5933837890625,798.6080322265625
1328,796.996337890625,803.8461303710938,801.025634765625,797.8021850585938
1329,792.967041015625,805.054931640625,800.2197875976562,797.3992919921875
1330,799.4139404296875,804.2490844726562,801.8314819335938,802.6373901367188
1331,810.6959838867188,806.6666870117188,803.8461303710938,803.4432373046875
1332,812.7106323242188,809.4871826171875,801.025634765625,792.967041015625
1333,804.2490844726562,809.4871826171875,804.6520385742188,792.5640869140625
1334,793.3699340820312,810.2930297851562,807.4725341796875,793.3699340820312
1335,787.3259887695312,810.2930297851562,801.8314819335938,789.3406372070312
1336,792.1611938476562,810.6959838867188,799.8168334960938,788.5347900390625
1337,792.967041015625,806.6666870117188,797.8021850585938,784.5054931640625
1338,796.996337890625,800.6226806640625,801.8314819335938,790.1465454101562
1339,804.2490844726562,799.8168334960938,805.8607788085938,794.1758422851562
1340,793.3699340820312,799.4139404296875,802.6373901367188,789.3406372070312
1341,794.1758422851562,804.2490844726562,799.4139404296875,790.5494384765625
1342,789.3406372070312,798.6080322265625,797.3992919921875,785.3113403320312
1343,782.087890625,789.3406372070312,800.6226806640625,782.4908447265625
1344,785.3113403320312,792.5640869140625,799.8168334960938,788.937744140625
1345,794.5787353515625,792.1611938476562,794.981689453125,790.5494384765625
1346,803.8461303710938,786.5201416015625,797.3992919921875,795.3846435546875
1347,797.8021850585938,786.5201416015625,797.3992919921875,798.6080322265625
1348,791.7582397460938,794.5787353515625,799.4139404296875,801.4285888671875
1349,791.7582397460938,795.7875366210938,799.8168334960938,801.4285888671875
1350,797.8021850585938,789.7435913085938,803.4432373046875,809.084228515625
1351,798.6080322265625,793.7728881835938,801.8314819335938,811.90478515625
1352,801.025634765625,796.996337890625,801.4285888671875,802.6373901367188
1353,804.2490844726562,796.1904907226562,801.8314819335938,798.6080322265625
1354,801.4285888671875,799.010986328125,802.2344360351562,803.4432373046875
1355,801.4285888671875,800.2197875976562,805.4578857421875,806.2637329101562
1356,797.8021850585938,795.7875366210938,805.054931640625,801.4285888671875
1357,793.7728881835938,796.1904907226562,801.8314819335938,796.996337890625
1358,794.1758422851562,799.010986328125,800.6226806640625,792.5640869140625
1359,788.5347900390625,796.1904907226562,801.8314819335938,785.7142944335938
1360,786.5201416015625,793.7728881835938,801.025634765625,786.1171875
1361,789.3406372070312,792.1611938476562,798.6080322265625,794.1758422851562
1362,795.7875366210938,790.5494384765625,800.2197875976562,789.7435913085938
1363,793.3699340820312,792.1611938476562,800.2197875976562,784.5054931640625
1364,785.7142944335938,793.3699340820312,794.5787353515625,781.2820434570312
1365,788.5347900390625,795.3846435546875,795.3846435546875,778.05859375
1366,792.967041015625,793.3699340820312,797.3992919921875,792.5640869140625
1367,794.1758422851562,790.952392578125,794.5787353515625,796.5933837890625
1368,794.5787353515625,797.8021850585938,795.3846435546875,786.1171875
1369,797.8021850585938,799.4139404296875,796.1904907226562,794.5787353515625
1370,794.1758422851562,795.3846435546875,794.1758422851562,796.996337890625
1371,795.7875366210938,795.7875366210938,792.1611938476562,796.1904907226562
1372,798.6080322265625,794.5787353515625,792.5640869140625,800.6226806640625
1373,796.996337890625,791.3552856445312,790.952392578125,792.1611938476562
1374,799.010986328125,793.7728881835938,790.952392578125,790.1465454101562
1375,803.8461303710938,794.5787353515625,793.7728881835938,794.1758422851562
1376,805.8607788085938,794.981689453125,795.7875366210938,793.3699340820312
1377,796.996337890625,795.3846435546875,796.1904907226562,791.7582397460938
1378,794.5787353515625,793.3699340820312,798.2051391601562,787.3259887695312
1379,790.952392578125,790.952392578125,797.8021850585938,781.6849975585938
1380,782.893798828125,792.967041015625,792.967041015625,783.2966918945312
1381,784.908447265625,784.5054931640625,797.8021850585938,787.3259887695312
1382,790.5494384765625,780.0732421875,800.6226806640625,788.937744140625
1383,791.3552856445312,788.937744140625,802.2344360351562,792.967041015625
1384,790.1465454101562,787.3259887695312,800.2197875976562,790.952392578125
1385,794.981689453125,784.5054931640625,803.8461303710938,796.996337890625
1386,789.3406372070312,785.7142944335938,805.054931640625,805.054931640625
1387,783.2966918945312,785.7142944335938,799.4139404296875,799.010986328125
1388,796.1904907226562,788.937744140625,809.4871826171875,801.8314819335938
1389,800.6226806640625,788.937744140625,814.7252807617188,810.6959838867188
1390,797.8021850585938,787.7289428710938,813.91943359375,806.6666870117188
1391,796.996337890625,792.1611938476562,816.3369750976562,802.6373901367188
1392,809.4871826171875,792.967041015625,819.1575317382812,807.069580078125
1393,808.2783813476562,790.952392578125,819.5604248046875,809.084228515625
1394,788.5347900390625,791.3552856445312,809.89013671875,803.040283203125
1395,789.3406372070312,792.1611938476562,803.040283203125,795.7875366210938
1396,791.3552856445312,789.7435913085938,803.8461303710938,796.996337890625
1397,784.5054931640625,788.5347900390625,805.054931640625,798.6080322265625
1398,787.7289428710938,789.7435913085938,803.4432373046875,797.8021850585938
1399,790.5494384765625,794.981689453125,803.8461303710938,794.5787353515625
1400,792.5640869140625,799.8168334960938,806.6666870117188,793.3699340820312
1401,799.4139404296875,798.2051391601562,808.2783813476562,797.8021850585938
1402,796.5933837890625,791.7582397460938,802.2344360351562,791.3552856445312
1403,800.6226806640625,793.7728881835938,799.010986328125,793.7728881835938
1404,805.8607788085938,798.2051391601562,802.6373901367188,797.8021850585938
1405,796.5933837890625,796.1904907226562,805.8607788085938,796.5933837890625
1406,794.5787353515625,798.2051391601562,808.2783813476562,795.7875366210938
1407,803.4432373046875,799.8168334960938,803.040283203125,792.967041015625
1408,799.4139404296875,796.996337890625,799.4139404296875,795.7875366210938
1409,792.5640869140625,792.5640869140625,798.6080322265625,798.2051391601562
1410,796.1904907226562,793.7728881835938,801.025634765625,803.4432373046875
1411,791.7582397460938,794.981689453125,801.8314819335938,801.8314819335938
1412,787.7289428710938,788.5347900390625,801.4285888671875,801.025634765625
1413,788.5347900390625,786.1171875,803.040283203125,799.4139404296875
1414,787.7289428710938,791.7582397460938,804.6520385742188,792.1611938476562
1415,792.967041015625,793.7728881835938,804.6520385742188,791.7582397460938
1416,795.7875366210938,795.7875366210938,803.8461303710938,793.3699340820312
1417,805.4578857421875,798.2051391601562,804.6520385742188,798.6080322265625
1418,818.7545776367188,798.2051391601562,803.4432373046875,803.4432373046875
1419,818.3516235351562,796.996337890625,802.6373901367188,802.6373901367188
1420,815.5311279296875,790.952392578125,803.8461303710938,801.8314819335938
1421,812.7106323242188,788.937744140625,804.6520385742188,801.8314819335938
1422,808.2783813476562,790.1465454101562,801.8314819335938,796.1904907226562
1423,803.4432373046875,792.1611938476562,796.1904907226562,801.025634765625
1424,802.2344360351562,797.3992919921875,799.4139404296875,810.2930297851562
1425,804.2490844726562,798.6080322265625,801.8314819335938,797.3992919921875
1426,791.7582397460938,795.3846435546875,798.2051391601562,784.1025390625
1427,785.7142944335938,792.5640869140625,803.040283203125,784.1025390625
1428,788.937744140625,792.1611938476562,805.8607788085938,789.7435913085938
1429,786.923095703125,788.1318969726562,800.6226806640625,783.6996459960938
1430,784.908447265625,786.923095703125,796.996337890625,782.4908447265625
1431,777.2527465820312,794.1758422851562,800.2197875976562,784.1025390625
1432,776.0439453125,796.1904907226562,802.2344360351562,785.3113403320312
1433,782.893798828125,794.981689453125,801.025634765625,794.5787353515625
1434,787.7289428710938,794.1758422851562,802.6373901367188,793.7728881835938
1435,782.087890625,790.5494384765625,804.2490844726562,792.1611938476562
1436,782.087890625,793.3699340820312,803.4432373046875,792.967041015625
1437,789.7435913085938,792.967041015625,799.4139404296875,786.5201416015625
1438,788.5347900390625,785.7142944335938,794.1758422851562,782.893798828125
1439,784.908447265625,787.7289428710938,792.967041015625,783.2966918945312
1440,783.2966918945312,790.5494384765625,795.3846435546875,783.6996459960938
1441,786.1171875,792.1611938476562,798.2051391601562,782.4908447265625
1442,791.3552856445312,795.7875366210938,795.7875366210938,784.1025390625
1443,791.3552856445312,789.3406372070312,792.5640869140625,780.879150390625
1444,786.923095703125,787.7289428710938,794.981689453125,778.05859375
1445,791.7582397460938,789.7435913085938,794.981689453125,775.2380981445312
1446,800.6226806640625,786.1171875,792.1611938476562,776.4468994140625
1447,792.967041015625,794.1758422851562,790.952392578125,774.4322509765625
1448,784.5054931640625,796.5933837890625,794.5787353515625,774.4322509765625
1449,790.952392578125,795.7875366210938,795.3846435546875,772.0146484375
1450,792.1611938476562,796.5933837890625,792.5640869140625,769.1941528320312
1451,783.2966918945312,796.5933837890625,794.5787353515625,771.6116943359375
1452,781.6849975585938,800.6226806640625,794.1758422851562,770.8058471679688
1453,787.7289428710938,796.996337890625,791.3552856445312,777.6557006835938
1454,787.3259887695312,792.5640869140625,792.967041015625,782.893798828125
1455,782.4908447265625,787.7289428710938,790.952392578125,782.4908447265625
1456,785.3113403320312,787.7289428710938,791.3552856445312,778.8644409179688
1457,787.3259887695312,788.937744140625,794.1758422851562,780.4761962890625
1458,789.3406372070312,790.5494384765625,794.1758422851562,788.5347900390625
1459,797.8021850585938,791.7582397460938,796.996337890625,793.3699340820312
1460,806.6666870117188,790.952392578125,796.1904907226562,799.8168334960938
1461,803.8461303710938,794.1758422851562,796.1904907226562,798.6080322265625
1462,803.040283203125,794.5787353515625,801.4285888671875,804.6520385742188
1463,799.010986328125,792.967041015625,801.8314819335938,805.054931640625
1464,792.1611938476562,790.5494384765625,796.1904907226562,798.2051391601562
1465,795.3846435546875,786.5201416015625,794.981689453125,803.8461303710938
1466,790.1465454101562,788.1318969726562,791.7582397460938,799.4139404296875
1467,790.952392578125,787.7289428710938,788.1318969726562,792.1611938476562
1468,806.2637329101562,787.7289428710938,791.3552856445312,792.5640869140625
1469,809.89013671875,787.3259887695312,797.3992919921875,794.5787353515625
1470,805.054931640625,786.1171875,796.5933837890625,790.952392578125
1471,797.8021850585938,788.5347900390625,795.3846435546875,790.1465454101562
1472,790.1465454101562,792.967041015625,796.1904907226562,784.908447265625
1473,788.5347900390625,788.937744140625,794.981689453125,782.087890625
1474,790.952392578125,790.5494384765625,798.2051391601562,793.3699340820312
1475,796.5933837890625,796.996337890625,798.2051391601562,791.7582397460938
1476,795.7875366210938,795.7875366210938,798.6080322265625,785.3113403320312
1477,787.3259887695312,792.967041015625,802.2344360351562,788.1318969726562
1478,786.923095703125,795.3846435546875,799.8168334960938,789.7435913085938
1479,789.3406372070312,797.3992919921875,797.8021850585938,792.967041015625
1480,791.7582397460938,792.5640869140625,796.996337890625,793.3699340820312
1481,787.7289428710938,789.7435913085938,799.010986328125,788.937744140625
1482,777.6557006835938,792.5640869140625,801.4285888671875,787.7289428710938
1483,780.0732421875,795.7875366210938,799.8168334960938,790.5494384765625
1484,788.5347900390625,794.5787353515625,796.1904907226562,793.3699340820312
1485,796.996337890625,791.3552856445312,796.5933837890625,801.025634765625
1486,798.2051391601562,790.1465454101562,798.2051391601562,801.4285888671875
1487,799.4139404296875,788.1318969726562,796.996337890625,796.5933837890625
1488,800.2197875976562,791.7582397460938,796.1904907226562,800.6226806640625
1489,791.3552856445312,793.7728881835938,794.5787353515625,804.2490844726562
1490,788.5347900390625,784.908447265625,790.952392578125,803.040283203125
1491,794.1758422851562,788.1318969726562,790.952392578125,802.6373901367188
1492,791.3552856445312,793.7728881835938,790.1465454101562,799.010986328125
1493,786.923095703125,795.3846435546875,790.952392578125,792.967041015625
1494,790.5494384765625,794.5787353515625,793.7728881835938,789.3406372070312
1495,790.5494384765625,796.996337890625,791.3552856445312,786.923095703125
1496,789.3406372070312,797.3992919921875,788.937744140625,782.087890625
1497,788.937744140625,795.7875366210938,787.3259887695312,791.7582397460938
1498,791.7582397460938,796.996337890625,786.5201416015625,785.7142944335938
1499,793.7728881835938,796.996337890625,786.5201416015625,771.2088012695312
1500,789.3406372070312,793.7728881835938,794.1758422851562,777.6557006835938
1501,785.3113403320312,789.7435913085938,795.7875366210938,776.8497924804688
1502,788.937744140625,793.3699340820312,790.1465454101562,771.6116943359375
1503,790.5494384765625,797.8021850585938,793.3699340820312,772.4176025390625
1504,786.1171875,801.025634765625,797.3992919921875,772.4176025390625
1505,795.7875366210938,797.3992919921875,799.010986328125,778.8644409179688
1506,801.8314819335938,792.967041015625,798.6080322265625,784.5054931640625
1507,793.7728881835938,792.1611938476562,799.010986328125,780.879150390625
1508,789.3406372070312,789.7435913085938,799.4139404296875,788.937744140625
1509,789.7435913085938,787.7289428710938,801.8314819335938,795.7875366210938
1510,791.3552856445312,785.3113403320312,800.6226806640625,784.908447265625
1511,792.1611938476562,781.6849975585938,794.981689453125,782.4908447265625
1512,788.1318969726562,781.2820434570312,790.5494384765625,794.5787353515625
1513,781.2820434570312,784.5054931640625,790.5494384765625,794.981689453125
1514,788.937744140625,791.3552856445312,794.1758422851562,790.952392578125
1515,795.7875366210938,794.1758422851562,792.967041015625,796.996337890625
1516,795.3846435546875,796.996337890625,797.3992919921875,794.981689453125
1517,794.1758422851562,799.4139404296875,801.4285888671875,798.2051391601562
1518,787.3259887695312,794.1758422851562,799.8168334960938,799.8168334960938
1519,787.3259887695312,794.981689453125,802.2344360351562,799.010986328125
1520,787.3259887695312,799.8168334960938,805.4578857421875,808.6813354492188
1521,790.952392578125,801.8314819335938,803.040283203125,803.040283203125
1522,792.967041015625,795.3846435546875,797.3992919921875,791.7582397460938
1523,787.3259887695312,794.981689453125,797.3992919921875,795.3846435546875
1524,790.5494384765625,797.8021850585938,802.2344360351562,795.7875366210938
1525,800.6226806640625,801.025634765625,800.2197875976562,789.7435913085938
1526,801.025634765625,802.2344360351562,795.3846435546875,788.937744140625
1527,801.4285888671875,801.4285888671875,794.981689453125,787.7289428710938
1528,803.4432373046875,802.6373901367188,790.5494384765625,787.3259887695312
1529,803.040283203125,803.8461303710938,788.937744140625,791.3552856445312
1530,809.89013671875,808.2783813476562,791.7582397460938,797.8021850585938
1531,815.1282348632812,806.6666870117188,792.5640869140625,796.996337890625
1532,817.1428833007812,806.6666870117188,797.3992919921875,794.5787353515625
1533,811.5018310546875,808.6813354492188,797.8021850585938,793.3699340820312
1534,813.5164794921875,808.2783813476562,795.3846435546875,793.7728881835938
1535,820.7692260742188,809.084228515625,795.3846435546875,795.7875366210938
1536,811.5018310546875,802.6373901367188,792.1611938476562,792.1611938476562
1537,801.8314819335938,798.6080322265625,791.7582397460938,789.7435913085938
1538,790.952392578125,794.5787353515625,793.3699340820312,792.5640869140625
1539,783.2966918945312,790.5494384765625,794.1758422851562,789.7435913085938
1540,792.967041015625,794.5787353515625,798.2051391601562,794.5787353515625
1541,790.952392578125,798.6080322265625,801.4285888671875,799.4139404296875
1542,781.2820434570312,792.1611938476562,804.2490844726562,797.3992919921875
1543,778.4615478515625,788.5347900390625,811.098876953125,801.4285888671875
1544,775.2380981445312,789.3406372070312,817.1428833007812,805.054931640625
1545,773.6264038085938,784.908447265625,812.3076782226562,801.4285888671875
1546,772.8204956054688,780.4761962890625,808.2783813476562,806.2637329101562
1547,778.8644409179688,781.6849975585938,808.6813354492188,811.098876953125
1548,784.1025390625,781.6849975585938,809.4871826171875,806.6666870117188
1549,784.1025390625,785.3113403320312,811.098876953125,807.87548828125
1550,781.2820434570312,790.1465454101562,808.6813354492188,805.054931640625
1551,786.5201416015625,794.5787353515625,804.2490844726562,799.4139404296875
1552,796.996337890625,796.1904907226562,798.6080322265625,794.5787353515625
1553,803.4432373046875,796.1904907226562,799.4139404296875,793.3699340820312
1554,810.2930297851562,802.6373901367188,799.010986328125,790.952392578125
1555,802.2344360351562,801.8314819335938,796.5933837890625,786.1171875
1556,804.2490844726562,796.5933837890625,792.967041015625,784.1025390625
1557,812.7106323242188,794.981689453125,788.937744140625,780.879150390625
1558,811.5018310546875,800.6226806640625,786.5201416015625,780.0732421875
1559,813.113525390625,802.6373901367188,792.967041015625,780.0732421875
1560,810.6959838867188,796.1904907226562,794.5787353515625,778.05859375
1561,810.2930297851562,796.996337890625,789.7435913085938,780.0732421875
1562,804.6520385742188,797.8021850585938,789.3406372070312,786.5201416015625
1563,798.6080322265625,799.4139404296875,789.7435913085938,792.1611938476562
1564,798.6080322265625,799.4139404296875,792.5640869140625,795.7875366210938
1565,799.8168334960938,800.2197875976562,796.5933837890625,802.2344360351562
1566,800.2197875976562,799.8168334960938,795.3846435546875,803.8461303710938
1567,797.3992919921875,799.8168334960938,794.981689453125,804.2490844726562
1568,792.1611938476562,799.010986328125,800.2197875976562,800.6226806640625
1569,781.2820434570312,795.7875366210938,798.2051391601562,793.7728881835938
1570,776.0439453125,798.6080322265625,800.2197875976562,798.2051391601562
1571,778.8644409179688,796.1904907226562,804.2490844726562,798.6080322265625
1572,778.8644409179688,786.923095703125,800.6226806640625,792.1611938476562
1573,774.4322509765625,787.7289428710938,796.5933837890625,790.5494384765625
1574,770.4029541015625,789.7435913085938,799.010986328125,788.937744140625
1575,772.0146484375,786.923095703125,801.4285888671875,789.3406372070312
1576,777.6557006835938,789.7435913085938,796.996337890625,788.5347900390625
1577,784.5054931640625,791.3552856445312,794.1758422851562,784.1025390625
1578,795.3846435546875,792.967041015625,794.981689453125,782.087890625
1579,791.3552856445312,799.010986328125,796.996337890625,779.2673950195312
1580,785.3113403320312,796.1904907226562,796.996337890625,775.2380981445312
1581,794.5787353515625,793.7728881835938,797.8021850585938,782.893798828125
1582,796.1904907226562,797.8021850585938,805.054931640625,784.908447265625
1583,789.7435913085938,795.3846435546875,803.4432373046875,777.6557006835938
1584,790.5494384765625,792.1611938476562,801.025634765625,774.4322509765625
1585,782.087890625,793.7728881835938,801.8314819335938,771.2088012695312
1586,782.087890625,792.1611938476562,800.6226806640625,770.4029541015625
1587,791.7582397460938,793.3699340820312,797.3992919921875,772.4176025390625
