timestamp,RAW_TP9,RAW_AF7,RAW_AF8,RAW_TP10
1,798.6080322265625,795.7875366210938,802.2344360351562,804.2490844726562
2,799.4139404296875,798.2051391601562,809.084228515625,804.6520385742188
3,798.6080322265625,794.1758422851562,809.084228515625,806.2637329101562
4,798.2051391601562,793.3699340820312,805.8607788085938,808.2783813476562
5,798.6080322265625,797.3992919921875,803.4432373046875,806.2637329101562
6,792.967041015625,796.5933837890625,804.6520385742188,801.4285888671875
7,796.996337890625,795.7875366210938,807.87548828125,807.069580078125
8,796.996337890625,796.5933837890625,805.8607788085938,806.6666870117188
9,796.5933837890625,801.025634765625,809.084228515625,805.8607788085938
10,802.2344360351562,800.2197875976562,814.7252807617188,807.87548828125
11,801.025634765625,794.1758422851562,811.5018310546875,806.2637329101562
12,796.996337890625,794.1758422851562,811.5018310546875,803.040283203125
13,799.4139404296875,795.7875366210938,811.5018310546875,803.8461303710938
14,799.010986328125,798.6080322265625,809.084228515625,805.8607788085938
15,794.981689453125,801.8314819335938,809.89013671875,805.4578857421875
16,796.1904907226562,800.2197875976562,805.8607788085938,806.2637329101562
17,796.996337890625,796.996337890625,802.2344360351562,809.4871826171875
18,795.7875366210938,794.981689453125,805.4578857421875,809.89013671875
19,797.3992919921875,792.5640869140625,803.4432373046875,809.084228515625
20,805.054931640625,794.981689453125,805.054931640625,812.3076782226562
21,806.6666870117188,796.5933837890625,811.5018310546875,809.084228515625
22,806.2637329101562,794.981689453125,807.069580078125,808.2783813476562
23,803.4432373046875,797.3992919921875,801.8314819335938,804.2490844726562
24,803.040283203125,801.4285888671875,803.8461303710938,799.4139404296875
25,798.6080322265625,800.2197875976562,803.4432373046875,800.6226806640625
26,793.7728881835938,798.2051391601562,807.4725341796875,805.054931640625
27,800.6226806640625,797.8021850585938,811.90478515625,805.4578857421875
28,807.069580078125,797.3992919921875,809.89013671875,804.2490844726562
29,807.4725341796875,800.6226806640625,811.098876953125,812.3076782226562
30,807.4725341796875,801.4285888671875,811.90478515625,814.7252807617188
31,804.2490844726562,795.7875366210938,804.2490844726562,802.6373901367188
32,799.8168334960938,792.1611938476562,804.2490844726562,801.025634765625
33,799.4139404296875,792.5640869140625,811.5018310546875,805.8607788085938
34,803.4432373046875,794.981689453125,807.4725341796875,806.6666870117188
35,805.4578857421875,799.010986328125,806.6666870117188,807.069580078125
36,799.4139404296875,798.2051391601562,807.4725341796875,799.010986328125
37,794.981689453125,796.1904907226562,803.4432373046875,804.2490844726562
38,795.3846435546875,795.3846435546875,809.4871826171875,806.6666870117188
39,795.3846435546875,798.6080322265625,811.90478515625,800.6226806640625
40,795.3846435546875,798.2051391601562,803.4432373046875,795.7875366210938
41,795.7875366210938,792.1611938476562,805.054931640625,790.952392578125
42,795.7875366210938,791.7582397460938,807.4725341796875,790.952392578125
43,799.8168334960938,796.1904907226562,804.2490844726562,795.3846435546875
44,804.6520385742188,795.3846435546875,805.8607788085938,801.025634765625
45,807.4725341796875,791.3552856445312,807.4725341796875,806.2637329101562
46,808.6813354492188,795.3846435546875,805.4578857421875,813.113525390625
47,809.4871826171875,801.8314819335938,805.4578857421875,808.2783813476562
48,808.2783813476562,799.8168334960938,808.2783813476562,806.2637329101562
49,809.084228515625,796.996337890625,807.87548828125,809.4871826171875
50,807.069580078125,803.8461303710938,808.6813354492188,808.6813354492188
51,796.5933837890625,807.87548828125,809.084228515625,799.8168334960938
52,800.2197875976562,801.025634765625,804.6520385742188,796.5933837890625
53,804.2490844726562,800.2197875976562,803.8461303710938,796.5933837890625
54,802.2344360351562,803.4432373046875,805.8607788085938,797.3992919921875
55,806.2637329101562,798.6080322265625,804.6520385742188,799.8168334960938
56,807.87548828125,796.996337890625,805.4578857421875,801.025634765625
57,805.8607788085938,797.8021850585938,806.2637329101562,809.89013671875
58,807.069580078125,796.996337890625,807.069580078125,811.90478515625
59,809.084228515625,799.010986328125,811.098876953125,807.87548828125
60,810.2930297851562,799.8168334960938,815.1282348632812,808.2783813476562
61,809.89013671875,796.5933837890625,812.7106323242188,809.084228515625
62,809.084228515625,798.2051391601562,808.6813354492188,815.5311279296875
63,798.6080322265625,798.2051391601562,806.6666870117188,810.6959838867188
64,793.7728881835938,794.1758422851562,805.4578857421875,804.2490844726562
65,800.2197875976562,793.3699340820312,801.8314819335938,809.89013671875
66,800.6226806640625,794.1758422851562,804.6520385742188,804.6520385742188
67,793.7728881835938,792.967041015625,811.90478515625,803.8461303710938
68,794.5787353515625,793.7728881835938,813.5164794921875,816.7399291992188
69,795.3846435546875,794.981689453125,811.098876953125,814.7252807617188
70,801.4285888671875,799.010986328125,810.2930297851562,806.2637329101562
71,807.4725341796875,799.8168334960938,809.4871826171875,804.6520385742188
72,796.1904907226562,789.3406372070312,804.6520385742188,804.2490844726562
73,791.7582397460938,786.1171875,804.2490844726562,803.4432373046875
74,796.5933837890625,792.5640869140625,808.2783813476562,798.6080322265625
75,801.4285888671875,799.010986328125,807.4725341796875,799.010986328125
76,806.2637329101562,797.8021850585938,808.2783813476562,799.8168334960938
77,803.8461303710938,794.1758422851562,804.6520385742188,796.5933837890625
78,799.8168334960938,797.3992919921875,799.4139404296875,793.7728881835938
79,802.6373901367188,795.7875366210938,803.040283203125,795.7875366210938
80,807.87548828125,792.1611938476562,802.6373901367188,800.2197875976562
81,808.6813354492188,795.7875366210938,801.4285888671875,798.2051391601562
82,807.4725341796875,797.3992919921875,803.8461303710938,801.4285888671875
83,809.084228515625,799.010986328125,807.069580078125,808.2783813476562
84,810.2930297851562,796.5933837890625,809.89013671875,812.7106323242188
85,800.2197875976562,793.7728881835938,810.2930297851562,808.6813354492188
86,795.3846435546875,801.025634765625,813.91943359375,807.069580078125
87,798.2051391601562,800.6226806640625,812.3076782226562,809.4871826171875
88,798.6080322265625,799.010986328125,811.90478515625,807.4725341796875
89,799.8168334960938,799.8168334960938,815.93408203125,804.6520385742188
90,799.4139404296875,796.996337890625,812.3076782226562,804.2490844726562
91,796.996337890625,795.3846435546875,809.084228515625,812.3076782226562
92,797.3992919921875,791.3552856445312,807.87548828125,811.90478515625
93,797.8021850585938,793.3699340820312,806.2637329101562,805.8607788085938
94,805.4578857421875,795.7875366210938,807.069580078125,810.2930297851562
95,813.5164794921875,794.981689453125,808.2783813476562,821.5750732421875
96,811.098876953125,796.5933837890625,812.3076782226562,828.02197265625
97,808.2783813476562,803.040283203125,817.5457763671875,818.3516235351562
98,805.4578857421875,799.010986328125,817.1428833007812,811.90478515625
99,803.040283203125,795.7875366210938,813.5164794921875,805.054931640625
100,802.6373901367188,797.3992919921875,809.4871826171875,796.5933837890625
101,803.4432373046875,794.981689453125,806.6666870117188,803.040283203125
102,805.8607788085938,798.2051391601562,811.098876953125,810.6959838867188
103,807.069580078125,800.6226806640625,812.3076782226562,811.098876953125
104,806.6666870117188,798.6080322265625,812.3076782226562,805.054931640625
105,806.2637329101562,796.5933837890625,810.6959838867188,806.6666870117188
106,803.040283203125,793.3699340820312,807.069580078125,813.113525390625
107,801.025634765625,790.5494384765625,807.4725341796875,806.6666870117188
108,798.6080322265625,790.5494384765625,810.6959838867188,800.2197875976562
109,801.025634765625,792.1611938476562,806.2637329101562,799.010986328125
110,799.4139404296875,789.7435913085938,801.8314819335938,795.7875366210938
111,796.1904907226562,788.5347900390625,802.2344360351562,798.6080322265625
112,795.7875366210938,791.7582397460938,802.6373901367188,799.4139404296875
113,797.8021850585938,794.5787353515625,807.87548828125,798.6080322265625
114,801.4285888671875,790.5494384765625,803.040283203125,800.6226806640625
115,806.2637329101562,790.952392578125,801.025634765625,808.2783813476562
116,803.8461303710938,793.3699340820312,808.6813354492188,804.6520385742188
117,802.6373901367188,791.3552856445312,808.2783813476562,801.025634765625
118,804.6520385742188,796.1904907226562,805.054931640625,803.8461303710938
119,803.8461303710938,795.7875366210938,803.040283203125,805.8607788085938
120,802.2344360351562,793.3699340820312,801.4285888671875,796.5933837890625
121,801.4285888671875,793.3699340820312,800.2197875976562,795.7875366210938
122,803.8461303710938,791.7582397460938,797.8021850585938,806.6666870117188
123,804.2490844726562,794.1758422851562,801.025634765625,806.2637329101562
124,805.8607788085938,796.5933837890625,806.6666870117188,799.4139404296875
125,806.2637329101562,796.5933837890625,808.2783813476562,791.7582397460938
126,805.8607788085938,796.996337890625,804.6520385742188,790.952392578125
127,804.2490844726562,796.996337890625,802.2344360351562,794.981689453125
128,798.6080322265625,796.996337890625,805.4578857421875,794.981689453125
129,801.025634765625,791.3552856445312,806.6666870117188,802.2344360351562
130,803.8461303710938,787.3259887695312,806.6666870117188,809.89013671875
131,808.6813354492188,794.5787353515625,809.89013671875,813.113525390625
132,811.5018310546875,798.6080322265625,813.91943359375,810.2930297851562
133,801.4285888671875,796.996337890625,812.3076782226562,806.6666870117188
134,799.8168334960938,789.3406372070312,807.4725341796875,806.2637329101562
135,798.6080322265625,787.3259887695312,804.6520385742188,800.6226806640625
136,796.5933837890625,792.1611938476562,807.87548828125,795.3846435546875
137,801.025634765625,790.1465454101562,809.89013671875,801.8314819335938
138,805.054931640625,792.1611938476562,808.6813354492188,809.4871826171875
139,801.025634765625,798.6080322265625,809.084228515625,805.4578857421875
140,790.1465454101562,795.7875366210938,809.89013671875,794.5787353515625
141,788.1318969726562,791.7582397460938,807.4725341796875,796.1904907226562
142,792.967041015625,793.7728881835938,803.4432373046875,805.8607788085938
143,796.5933837890625,794.1758422851562,806.2637329101562,803.8461303710938
144,799.010986328125,797.8021850585938,807.069580078125,802.2344360351562
145,801.4285888671875,798.6080322265625,806.2637329101562,804.2490844726562
146,806.2637329101562,796.5933837890625,805.8607788085938,809.084228515625
147,809.084228515625,796.5933837890625,804.6520385742188,807.069580078125
148,809.89013671875,794.5787353515625,805.4578857421875,810.2930297851562
149,811.90478515625,795.3846435546875,809.89013671875,819.1575317382812
150,812.7106323242188,798.6080322265625,809.084228515625,818.3516235351562
151,811.5018310546875,798.6080322265625,808.2783813476562,814.7252807617188
152,808.2783813476562,796.996337890625,811.098876953125,815.1282348632812
153,805.054931640625,793.7728881835938,808.6813354492188,816.3369750976562
154,805.8607788085938,799.4139404296875,808.2783813476562,807.4725341796875
155,800.2197875976562,801.025634765625,811.5018310546875,799.010986328125
156,795.7875366210938,796.1904907226562,804.2490844726562,802.6373901367188
157,796.1904907226562,793.7728881835938,801.4285888671875,806.6666870117188
158,798.2051391601562,796.1904907226562,808.6813354492188,798.2051391601562
159,798.2051391601562,793.7728881835938,808.6813354492188,797.3992919921875
160,790.1465454101562,790.952392578125,803.4432373046875,798.2051391601562
161,795.7875366210938,794.981689453125,802.2344360351562,799.010986328125
162,804.2490844726562,797.8021850585938,806.2637329101562,803.8461303710938
163,804.6520385742188,798.2051391601562,805.4578857421875,807.069580078125
164,803.4432373046875,794.1758422851562,807.4725341796875,810.6959838867188
165,806.6666870117188,795.3846435546875,809.4871826171875,812.7106323242188
166,813.91943359375,800.6226806640625,805.8607788085938,811.5018310546875
167,811.098876953125,801.025634765625,807.069580078125,815.5311279296875
168,807.87548828125,801.8314819335938,807.87548828125,819.1575317382812
169,801.4285888671875,800.6226806640625,803.040283203125,811.098876953125
170,800.6226806640625,799.010986328125,803.040283203125,812.3076782226562
171,799.010986328125,794.5787353515625,801.8314819335938,813.5164794921875
172,799.010986328125,795.3846435546875,800.6226806640625,813.91943359375
173,801.4285888671875,796.996337890625,802.6373901367188,808.2783813476562
174,798.6080322265625,795.3846435546875,804.2490844726562,804.2490844726562
175,798.2051391601562,795.7875366210938,807.069580078125,807.069580078125
176,799.010986328125,797.3992919921875,804.2490844726562,803.8461303710938
177,794.981689453125,794.981689453125,801.8314819335938,798.6080322265625
178,795.3846435546875,792.967041015625,806.2637329101562,798.6080322265625
179,798.2051391601562,793.7728881835938,809.4871826171875,799.8168334960938
180,798.2051391601562,792.967041015625,803.040283203125,805.4578857421875
181,789.7435913085938,793.3699340820312,801.025634765625,801.4285888671875
182,782.4908447265625,797.8021850585938,800.2197875976562,791.3552856445312
183,792.967041015625,802.6373901367188,798.2051391601562,791.3552856445312
184,799.8168334960938,800.2197875976562,798.6080322265625,796.996337890625
185,796.1904907226562,798.2051391601562,800.2197875976562,801.025634765625
186,794.1758422851562,798.2051391601562,803.040283203125,801.025634765625
187,797.3992919921875,796.996337890625,807.069580078125,806.6666870117188
188,799.8168334960938,798.2051391601562,809.084228515625,809.084228515625
189,801.025634765625,796.996337890625,805.8607788085938,807.4725341796875
190,801.8314819335938,792.967041015625,806.2637329101562,807.069580078125
191,801.4285888671875,792.967041015625,808.6813354492188,807.069580078125
192,798.6080322265625,792.5640869140625,805.8607788085938,812.7106323242188
193,792.967041015625,794.1758422851562,809.4871826171875,811.90478515625
194,798.2051391601562,795.3846435546875,816.7399291992188,810.6959838867188
195,803.4432373046875,794.5787353515625,814.7252807617188,812.7106323242188
196,793.7728881835938,792.5640869140625,807.87548828125,804.2490844726562
197,797.3992919921875,795.7875366210938,809.89013671875,805.054931640625
198,801.4285888671875,799.8168334960938,808.2783813476562,809.4871826171875
199,797.8021850585938,796.5933837890625,800.2197875976562,809.4871826171875
200,799.8168334960938,794.1758422851562,799.010986328125,807.069580078125
201,799.8168334960938,798.2051391601562,803.8461303710938,808.6813354492188
202,796.5933837890625,797.3992919921875,805.4578857421875,807.4725341796875
203,801.025634765625,791.7582397460938,803.4432373046875,805.054931640625
204,806.2637329101562,796.1904907226562,809.4871826171875,806.2637329101562
205,800.2197875976562,798.6080322265625,807.4725341796875,801.4285888671875
206,798.6080322265625,791.3552856445312,805.4578857421875,803.4432373046875
207,805.4578857421875,790.1465454101562,806.6666870117188,806.6666870117188
208,802.2344360351562,797.3992919921875,805.054931640625,799.8168334960938
209,797.8021850585938,797.8021850585938,805.4578857421875,795.7875366210938
210,797.8021850585938,793.7728881835938,804.2490844726562,798.6080322265625
211,797.3992919921875,793.7728881835938,800.6226806640625,795.7875366210938
212,801.4285888671875,795.3846435546875,797.8021850585938,801.4285888671875
213,802.6373901367188,794.1758422851562,806.6666870117188,805.8607788085938
214,801.8314819335938,795.3846435546875,808.6813354492188,804.2490844726562
215,802.2344360351562,795.7875366210938,806.6666870117188,802.6373901367188
216,795.3846435546875,794.981689453125,807.069580078125,794.1758422851562
217,792.5640869140625,794.5787353515625,807.4725341796875,791.7582397460938
218,796.996337890625,797.3992919921875,811.098876953125,796.1904907226562
219,799.8168334960938,799.8168334960938,808.2783813476562,805.054931640625
220,797.3992919921875,799.010986328125,805.054931640625,805.054931640625
221,795.7875366210938,796.1904907226562,807.87548828125,797.3992919921875
222,796.996337890625,795.7875366210938,811.5018310546875,808.2783813476562
223,801.025634765625,797.3992919921875,810.2930297851562,816.3369750976562
224,806.2637329101562,799.010986328125,809.4871826171875,813.113525390625
225,801.025634765625,796.5933837890625,810.6959838867188,811.90478515625
226,794.5787353515625,789.7435913085938,805.8607788085938,817.5457763671875
227,790.1465454101562,787.3259887695312,803.8461303710938,816.7399291992188
228,793.3699340820312,794.5787353515625,806.2637329101562,809.4871826171875
229,800.2197875976562,794.5787353515625,803.4432373046875,804.2490844726562
230,802.6373901367188,793.3699340820312,800.6226806640625,805.054931640625
231,805.4578857421875,794.5787353515625,801.025634765625,813.113525390625
232,805.054931640625,791.3552856445312,805.4578857421875,815.93408203125
233,805.4578857421875,794.981689453125,807.4725341796875,812.3076782226562
234,807.4725341796875,795.3846435546875,808.6813354492188,811.5018310546875
235,804.6520385742188,794.1758422851562,811.90478515625,811.90478515625
236,796.5933837890625,792.1611938476562,811.098876953125,801.8314819335938
237,796.996337890625,785.7142944335938,805.8607788085938,800.6226806640625
238,801.025634765625,784.1025390625,802.6373901367188,806.6666870117188
239,799.010986328125,791.3552856445312,803.4432373046875,802.6373901367188
240,800.2197875976562,796.996337890625,807.4725341796875,806.2637329101562
241,798.6080322265625,793.3699340820312,805.4578857421875,807.4725341796875
242,798.6080322265625,791.7582397460938,805.054931640625,806.6666870117188
243,796.1904907226562,794.5787353515625,803.040283203125,804.2490844726562
244,794.981689453125,793.3699340820312,804.2490844726562,798.2051391601562
245,792.5640869140625,791.7582397460938,801.025634765625,789.3406372070312
246,795.3846435546875,796.5933837890625,800.6226806640625,793.7728881835938
247,796.1904907226562,795.3846435546875,800.2197875976562,793.7728881835938
248,786.923095703125,789.3406372070312,796.5933837890625,788.1318969726562
249,794.1758422851562,790.5494384765625,799.010986328125,802.6373901367188
250,802.6373901367188,795.7875366210938,803.4432373046875,809.4871826171875
251,796.5933837890625,799.010986328125,808.2783813476562,799.8168334960938
252,797.8021850585938,798.6080322265625,808.2783813476562,798.2051391601562
253,794.981689453125,796.5933837890625,805.4578857421875,796.5933837890625
254,793.7728881835938,796.5933837890625,807.87548828125,799.8168334960938
255,798.6080322265625,794.981689453125,810.6959838867188,807.4725341796875
256,798.6080322265625,790.1465454101562,806.2637329101562,806.2637329101562
257,796.996337890625,790.1465454101562,797.8021850585938,801.8314819335938
258,799.010986328125,792.5640869140625,798.6080322265625,802.2344360351562
259,798.2051391601562,793.3699340820312,800.6226806640625,802.2344360351562
260,795.3846435546875,790.1465454101562,799.4139404296875,796.5933837890625
261,800.6226806640625,793.7728881835938,801.4285888671875,799.010986328125
262,800.2197875976562,797.8021850585938,804.6520385742188,800.6226806640625
263,796.5933837890625,798.6080322265625,807.069580078125,801.8314819335938
264,797.3992919921875,792.967041015625,807.4725341796875,807.87548828125
265,798.2051391601562,789.7435913085938,806.6666870117188,810.6959838867188
266,791.3552856445312,793.7728881835938,805.8607788085938,805.4578857421875
267,792.5640869140625,792.967041015625,801.8314819335938,801.4285888671875
268,802.6373901367188,792.1611938476562,803.8461303710938,805.4578857421875
269,802.6373901367188,794.981689453125,802.6373901367188,802.2344360351562
270,801.025634765625,795.7875366210938,799.8168334960938,800.6226806640625
271,798.2051391601562,791.7582397460938,802.2344360351562,807.069580078125
272,798.2051391601562,788.5347900390625,802.6373901367188,808.2783813476562
273,801.025634765625,790.1465454101562,803.040283203125,806.6666870117188
274,798.6080322265625,786.1171875,803.8461303710938,804.6520385742188
275,805.054931640625,785.3113403320312,804.2490844726562,807.4725341796875
276,815.93408203125,787.3259887695312,807.4725341796875,817.5457763671875
277,809.4871826171875,788.937744140625,807.069580078125,811.90478515625
278,800.2197875976562,790.1465454101562,803.040283203125,803.040283203125
279,802.2344360351562,788.937744140625,807.87548828125,808.6813354492188
280,801.8314819335938,789.3406372070312,811.5018310546875,811.098876953125
281,799.010986328125,794.5787353515625,809.4871826171875,807.4725341796875
282,793.7728881835938,793.7728881835938,805.8607788085938,800.6226806640625
283,792.5640869140625,792.5640869140625,801.025634765625,792.967041015625
284,793.7728881835938,793.3699340820312,801.8314819335938,797.3992919921875
285,796.1904907226562,792.1611938476562,805.054931640625,803.040283203125
286,796.5933837890625,792.1611938476562,804.2490844726562,797.3992919921875
287,794.5787353515625,791.7582397460938,804.2490844726562,795.7875366210938
288,796.996337890625,791.3552856445312,807.87548828125,801.8314819335938
289,796.5933837890625,794.1758422851562,806.2637329101562,799.010986328125
290,793.3699340820312,796.996337890625,807.4725341796875,799.8168334960938
291,797.3992919921875,792.967041015625,808.6813354492188,807.4725341796875
292,799.4139404296875,790.5494384765625,808.2783813476562,801.4285888671875
293,796.5933837890625,794.1758422851562,809.4871826171875,797.8021850585938
294,796.1904907226562,795.3846435546875,811.5018310546875,800.2197875976562
295,799.4139404296875,797.3992919921875,807.4725341796875,799.010986328125
296,801.025634765625,795.7875366210938,800.6226806640625,797.8021850585938
297,804.6520385742188,792.5640869140625,802.2344360351562,795.7875366210938
298,808.2783813476562,794.981689453125,804.6520385742188,799.010986328125
299,812.7106323242188,798.2051391601562,809.084228515625,814.3223266601562
300,808.6813354492188,801.025634765625,812.3076782226562,815.5311279296875
301,812.3076782226562,802.2344360351562,815.1282348632812,807.069580078125
302,813.91943359375,800.6226806640625,811.5018310546875,811.90478515625
303,809.084228515625,799.8168334960938,806.6666870117188,809.4871826171875
304,810.2930297851562,801.025634765625,805.4578857421875,803.8461303710938
305,811.098876953125,799.4139404296875,808.6813354492188,807.87548828125
306,809.084228515625,798.6080322265625,812.7106323242188,808.6813354492188
307,802.2344360351562,799.010986328125,814.3223266601562,810.2930297851562
308,801.4285888671875,799.4139404296875,812.7106323242188,815.5311279296875
309,805.4578857421875,803.4432373046875,812.7106323242188,815.1282348632812
310,803.040283203125,801.025634765625,817.1428833007812,819.1575317382812
311,805.054931640625,796.5933837890625,817.94873046875,826.8131713867188
312,801.025634765625,796.1904907226562,813.91943359375,815.93408203125
313,796.1904907226562,800.2197875976562,814.3223266601562,812.7106323242188
314,798.2051391601562,797.8021850585938,815.93408203125,815.5311279296875
315,798.2051391601562,796.5933837890625,813.91943359375,806.6666870117188
316,797.3992919921875,800.6226806640625,812.3076782226562,800.6226806640625
317,798.2051391601562,794.981689453125,810.6959838867188,804.2490844726562
318,800.6226806640625,791.7582397460938,810.6959838867188,808.2783813476562
319,800.6226806640625,799.010986328125,813.91943359375,805.8607788085938
320,801.4285888671875,803.040283203125,816.7399291992188,807.4725341796875
321,801.4285888671875,801.4285888671875,812.7106323242188,804.6520385742188
322,805.8607788085938,800.2197875976562,810.6959838867188,808.2783813476562
323,805.4578857421875,799.010986328125,813.113525390625,805.054931640625
324,800.6226806640625,799.4139404296875,809.084228515625,794.1758422851562
325,802.2344360351562,799.010986328125,806.2637329101562,796.1904907226562
326,802.6373901367188,796.1904907226562,807.4725341796875,799.010986328125
327,801.4285888671875,796.996337890625,807.069580078125,801.4285888671875
328,798.2051391601562,796.1904907226562,807.069580078125,805.054931640625
329,799.010986328125,797.3992919921875,808.2783813476562,805.8607788085938
330,801.4285888671875,795.7875366210938,808.2783813476562,802.2344360351562
331,803.4432373046875,793.3699340820312,811.098876953125,804.6520385742188
332,807.87548828125,795.3846435546875,814.3223266601562,810.2930297851562
333,806.6666870117188,788.5347900390625,808.2783813476562,807.069580078125
334,807.069580078125,787.3259887695312,805.4578857421875,805.054931640625
335,806.6666870117188,792.967041015625,809.084228515625,803.8461303710938
336,805.054931640625,793.7728881835938,808.6813354492188,801.4285888671875
337,815.1282348632812,794.1758422851562,813.113525390625,809.084228515625
338,819.5604248046875,792.967041015625,811.90478515625,815.1282348632812
339,805.4578857421875,787.7289428710938,809.084228515625,805.054931640625
340,800.6226806640625,789.7435913085938,809.084228515625,801.4285888671875
341,806.2637329101562,792.967041015625,813.5164794921875,805.054931640625
342,803.4432373046875,793.3699340820312,812.7106323242188,808.2783813476562
343,803.4432373046875,794.1758422851562,809.084228515625,807.069580078125
344,803.040283203125,789.7435913085938,809.084228515625,805.8607788085938
345,803.040283203125,789.7435913085938,801.4285888671875,812.7106323242188
346,800.6226806640625,792.1611938476562,801.4285888671875,805.4578857421875
347,801.4285888671875,791.7582397460938,807.069580078125,796.1904907226562
348,808.6813354492188,796.1904907226562,805.4578857421875,803.040283203125
349,803.4432373046875,795.7875366210938,803.8461303710938,806.2637329101562
350,797.8021850585938,794.981689453125,805.8607788085938,799.010986328125
351,794.5787353515625,796.5933837890625,803.8461303710938,794.5787353515625
352,791.3552856445312,796.5933837890625,799.4139404296875,796.996337890625
353,793.3699340820312,796.5933837890625,800.2197875976562,802.6373901367188
354,797.8021850585938,798.2051391601562,803.040283203125,811.90478515625
355,804.2490844726562,799.8168334960938,805.8607788085938,813.91943359375
356,805.4578857421875,801.025634765625,807.069580078125,811.098876953125
357,808.2783813476562,798.6080322265625,807.069580078125,811.5018310546875
358,809.89013671875,798.6080322265625,802.2344360351562,804.2490844726562
359,806.2637329101562,799.8168334960938,799.010986328125,796.5933837890625
360,803.8461303710938,799.4139404296875,799.010986328125,800.6226806640625
361,800.2197875976562,799.8168334960938,799.8168334960938,801.8314819335938
362,800.2197875976562,800.2197875976562,801.8314819335938,800.2197875976562
363,806.6666870117188,798.2051391601562,801.4285888671875,805.8607788085938
364,805.4578857421875,794.981689453125,804.6520385742188,807.87548828125
365,802.6373901367188,797.8021850585938,806.2637329101562,812.3076782226562
366,797.8021850585938,800.6226806640625,803.8461303710938,812.3076782226562
367,803.8461303710938,799.8168334960938,805.4578857421875,809.4871826171875
368,813.91943359375,796.5933837890625,809.084228515625,808.6813354492188
369,811.5018310546875,797.3992919921875,806.6666870117188,805.054931640625
370,808.2783813476562,800.6226806640625,803.040283203125,801.8314819335938
371,811.90478515625,799.4139404296875,806.2637329101562,801.8314819335938
372,805.4578857421875,796.1904907226562,810.2930297851562,804.6520385742188
373,796.996337890625,799.4139404296875,806.2637329101562,799.8168334960938
374,792.5640869140625,797.8021850585938,801.8314819335938,791.7582397460938
375,794.1758422851562,794.5787353515625,798.2051391601562,793.7728881835938
376,798.6080322265625,794.981689453125,796.1904907226562,805.054931640625
377,795.3846435546875,794.5787353515625,798.6080322265625,798.6080322265625
378,790.952392578125,793.7728881835938,794.981689453125,792.967041015625
379,792.967041015625,794.5787353515625,794.1758422851562,806.2637329101562
380,797.8021850585938,796.1904907226562,803.8461303710938,813.5164794921875
381,799.010986328125,792.967041015625,806.2637329101562,809.89013671875
382,798.2051391601562,790.952392578125,804.6520385742188,806.6666870117188
383,798.2051391601562,792.1611938476562,807.4725341796875,811.098876953125
384,801.025634765625,796.1904907226562,811.098876953125,809.084228515625
385,801.8314819335938,796.996337890625,808.6813354492188,801.8314819335938
386,805.054931640625,796.996337890625,807.87548828125,811.098876953125
387,805.4578857421875,796.1904907226562,807.069580078125,809.89013671875
388,800.6226806640625,794.5787353515625,806.6666870117188,801.025634765625
389,799.8168334960938,794.5787353515625,806.2637329101562,801.8314819335938
390,797.8021850585938,798.2051391601562,806.2637329101562,800.2197875976562
391,795.7875366210938,796.1904907226562,803.4432373046875,799.8168334960938
392,797.8021850585938,794.1758422851562,801.8314819335938,799.8168334960938
393,800.6226806640625,796.5933837890625,804.2490844726562,800.2197875976562
394,795.3846435546875,794.1758422851562,807.4725341796875,803.4432373046875
395,791.7582397460938,788.1318969726562,806.6666870117188,808.6813354492188
396,792.1611938476562,792.1611938476562,811.5018310546875,807.4725341796875
397,794.981689453125,797.3992919921875,817.5457763671875,803.4432373046875
398,797.3992919921875,793.7728881835938,815.5311279296875,799.010986328125
399,798.6080322265625,794.981689453125,814.3223266601562,797.8021850585938
400,795.7875366210938,798.2051391601562,814.3223266601562,803.040283203125
401,794.5787353515625,801.8314819335938,810.6959838867188,803.040283203125
402,792.5640869140625,799.4139404296875,810.6959838867188,792.5640869140625
403,794.5787353515625,799.4139404296875,812.3076782226562,791.7582397460938
404,799.4139404296875,799.4139404296875,809.89013671875,796.996337890625
405,799.010986328125,796.5933837890625,809.4871826171875,797.8021850585938
406,799.8168334960938,797.8021850585938,812.7106323242188,801.4285888671875
407,799.4139404296875,798.6080322265625,817.5457763671875,805.8607788085938
408,799.8168334960938,800.2197875976562,817.1428833007812,798.6080322265625
409,805.054931640625,799.4139404296875,813.5164794921875,800.6226806640625
410,803.4432373046875,797.3992919921875,811.90478515625,805.4578857421875
411,798.2051391601562,796.996337890625,807.069580078125,804.6520385742188
412,799.8168334960938,796.5933837890625,807.87548828125,809.4871826171875
413,803.4432373046875,798.6080322265625,809.4871826171875,809.4871826171875
414,810.2930297851562,801.025634765625,809.89013671875,811.90478515625
415,814.3223266601562,799.4139404296875,809.084228515625,812.7106323242188
416,807.4725341796875,795.7875366210938,808.2783813476562,808.6813354492188
417,802.2344360351562,795.7875366210938,810.6959838867188,805.4578857421875
418,803.040283203125,790.5494384765625,805.4578857421875,810.2930297851562
419,801.4285888671875,790.5494384765625,802.2344360351562,807.4725341796875
420,802.6373901367188,800.6226806640625,807.4725341796875,801.4285888671875
421,807.87548828125,801.4285888671875,808.2783813476562,805.4578857421875
422,803.8461303710938,798.6080322265625,811.098876953125,803.8461303710938
423,801.4285888671875,799.4139404296875,813.113525390625,809.084228515625
424,803.040283203125,798.2051391601562,809.084228515625,810.6959838867188
425,803.040283203125,794.981689453125,811.098876953125,801.4285888671875
426,801.4285888671875,797.3992919921875,809.4871826171875,796.996337890625
427,798.2051391601562,798.2051391601562,805.054931640625,795.3846435546875
428,798.6080322265625,792.967041015625,805.8607788085938,794.981689453125
429,802.2344360351562,792.967041015625,807.87548828125,802.2344360351562
430,801.025634765625,794.981689453125,811.098876953125,807.069580078125
431,798.2051391601562,795.3846435546875,812.3076782226562,800.6226806640625
432,799.010986328125,793.7728881835938,809.084228515625,798.6080322265625
433,799.010986328125,794.981689453125,803.4432373046875,800.6226806640625
434,804.6520385742188,800.2197875976562,804.2490844726562,803.4432373046875
435,806.2637329101562,800.2197875976562,805.054931640625,803.4432373046875
436,804.6520385742188,797.3992919921875,803.040283203125,801.4285888671875
437,802.2344360351562,795.3846435546875,807.87548828125,802.2344360351562
438,801.8314819335938,796.996337890625,811.90478515625,805.054931640625
439,799.4139404296875,797.8021850585938,810.6959838867188,799.8168334960938
440,798.2051391601562,797.8021850585938,810.2930297851562,793.7728881835938
441,804.2490844726562,801.8314819335938,807.87548828125,803.8461303710938
442,801.4285888671875,800.2197875976562,808.6813354492188,806.2637329101562
443,796.996337890625,797.3992919921875,809.4871826171875,798.2051391601562
444,801.025634765625,800.6226806640625,805.4578857421875,805.054931640625
445,804.6520385742188,799.8168334960938,805.8607788085938,807.87548828125
446,804.2490844726562,797.3992919921875,805.4578857421875,801.8314819335938
447,798.6080322265625,800.6226806640625,806.2637329101562,799.4139404296875
448,798.2051391601562,801.8314819335938,812.3076782226562,802.2344360351562
449,803.4432373046875,804.2490844726562,812.7106323242188,806.6666870117188
450,804.2490844726562,806.2637329101562,808.2783813476562,806.2637329101562
451,805.4578857421875,799.8168334960938,805.054931640625,807.069580078125
452,810.6959838867188,798.2051391601562,803.4432373046875,814.3223266601562
453,808.2783813476562,799.8168334960938,802.2344360351562,812.3076782226562
454,803.040283203125,797.3992919921875,801.8314819335938,803.040283203125
455,807.069580078125,798.2051391601562,799.010986328125,807.069580078125
456,807.87548828125,796.5933837890625,798.6080322265625,815.1282348632812
457,804.6520385742188,790.5494384765625,798.2051391601562,805.8607788085938
458,806.6666870117188,791.7582397460938,797.3992919921875,799.010986328125
459,804.2490844726562,795.7875366210938,799.010986328125,801.8314819335938
460,800.6226806640625,794.1758422851562,799.010986328125,797.8021850585938
461,799.4139404296875,790.952392578125,801.8314819335938,794.5787353515625
462,800.2197875976562,787.7289428710938,800.6226806640625,796.1904907226562
463,801.025634765625,789.3406372070312,798.2051391601562,799.4139404296875
464,798.6080322265625,792.1611938476562,803.8461303710938,804.6520385742188
465,795.3846435546875,792.5640869140625,805.054931640625,803.8461303710938
466,796.5933837890625,797.3992919921875,800.2197875976562,801.4285888671875
467,792.1611938476562,798.2051391601562,800.2197875976562,804.2490844726562
468,785.3113403320312,797.3992919921875,803.040283203125,805.8607788085938
469,788.5347900390625,799.4139404296875,807.4725341796875,805.8607788085938
470,794.5787353515625,801.025634765625,807.87548828125,800.6226806640625
471,797.8021850585938,799.010986328125,805.054931640625,797.3992919921875
472,800.6226806640625,797.3992919921875,807.87548828125,809.084228515625
473,794.5787353515625,800.2197875976562,810.2930297851562,804.6520385742188
474,787.7289428710938,797.3992919921875,809.084228515625,795.3846435546875
475,788.5347900390625,794.981689453125,811.90478515625,799.010986328125
476,790.5494384765625,791.7582397460938,809.4871826171875,798.6080322265625
477,793.7728881835938,792.1611938476562,807.87548828125,797.8021850585938
478,794.981689453125,796.996337890625,808.6813354492188,797.8021850585938
479,799.4139404296875,800.6226806640625,804.2490844726562,801.4285888671875
480,801.8314819335938,794.981689453125,805.4578857421875,809.89013671875
481,800.6226806640625,788.937744140625,811.5018310546875,808.2783813476562
482,805.8607788085938,793.3699340820312,810.6959838867188,810.6959838867188
483,797.3992919921875,795.3846435546875,807.4725341796875,805.8607788085938
484,781.6849975585938,789.7435913085938,808.6813354492188,794.981689453125
485,782.893798828125,788.1318969726562,806.6666870117188,794.1758422851562
486,794.1758422851562,787.7289428710938,805.054931640625,799.4139404296875
487,801.025634765625,788.5347900390625,808.2783813476562,800.6226806640625
488,799.010986328125,793.7728881835938,812.3076782226562,794.1758422851562
489,795.3846435546875,799.010986328125,813.5164794921875,791.3552856445312
490,794.5787353515625,801.8314819335938,811.098876953125,792.967041015625
491,800.2197875976562,800.6226806640625,810.2930297851562,798.6080322265625
492,801.8314819335938,799.010986328125,809.4871826171875,800.2197875976562
493,794.1758422851562,797.3992919921875,805.8607788085938,797.8021850585938
494,794.981689453125,793.3699340820312,807.4725341796875,801.4285888671875
495,797.3992919921875,795.3846435546875,811.90478515625,810.2930297851562
496,794.981689453125,794.981689453125,808.2783813476562,808.6813354492188
497,799.010986328125,794.981689453125,808.6813354492188,808.2783813476562
498,811.5018310546875,799.4139404296875,813.113525390625,819.1575317382812
499,812.7106323242188,794.1758422851562,813.113525390625,823.5897216796875
500,805.8607788085938,794.5787353515625,810.2930297851562,814.3223266601562
501,807.069580078125,798.2051391601562,811.098876953125,807.87548828125
502,810.2930297851562,795.3846435546875,813.5164794921875,811.098876953125
503,810.2930297851562,797.3992919921875,810.2930297851562,815.1282348632812
504,807.87548828125,803.040283203125,811.5018310546875,809.4871826171875
505,810.6959838867188,803.4432373046875,812.7106323242188,806.6666870117188
506,806.6666870117188,799.4139404296875,810.2930297851562,807.069580078125
507,802.6373901367188,797.8021850585938,810.2930297851562,802.6373901367188
508,801.4285888671875,798.6080322265625,806.2637329101562,806.6666870117188
509,803.040283203125,796.996337890625,807.4725341796875,813.5164794921875
510,802.2344360351562,795.3846435546875,807.069580078125,813.91943359375
511,800.2197875976562,794.981689453125,805.4578857421875,809.084228515625
512,803.8461303710938,795.3846435546875,806.6666870117188,806.2637329101562
513,800.2197875976562,794.5787353515625,809.4871826171875,807.069580078125
514,793.7728881835938,790.952392578125,808.2783813476562,804.6520385742188
515,793.3699340820312,793.7728881835938,807.069580078125,801.4285888671875
516,791.3552856445312,798.2051391601562,809.084228515625,805.054931640625
517,795.3846435546875,798.2051391601562,807.069580078125,804.6520385742188
518,806.2637329101562,797.8021850585938,805.8607788085938,816.3369750976562
519,801.025634765625,796.996337890625,805.4578857421875,816.3369750976562
520,797.3992919921875,795.3846435546875,806.6666870117188,805.8607788085938
521,796.996337890625,795.7875366210938,806.2637329101562,808.2783813476562
522,802.2344360351562,799.8168334960938,809.89013671875,814.3223266601562
523,807.069580078125,800.6226806640625,810.6959838867188,811.90478515625
524,801.4285888671875,800.6226806640625,809.084228515625,801.8314819335938
525,800.2197875976562,801.8314819335938,808.2783813476562,805.4578857421875
526,802.2344360351562,800.6226806640625,806.2637329101562,812.3076782226562
527,796.996337890625,799.4139404296875,806.6666870117188,803.8461303710938
528,801.4285888671875,800.2197875976562,805.054931640625,804.2490844726562
529,806.2637329101562,803.040283203125,807.87548828125,806.6666870117188
530,803.4432373046875,798.6080322265625,807.87548828125,801.4285888671875
531,803.8461303710938,799.010986328125,809.4871826171875,801.4285888671875
532,805.4578857421875,801.025634765625,810.6959838867188,801.8314819335938
533,801.8314819335938,793.7728881835938,807.87548828125,799.010986328125
534,801.025634765625,793.7728881835938,810.6959838867188,800.2197875976562
535,801.8314819335938,795.3846435546875,811.098876953125,805.4578857421875
536,799.4139404296875,791.3552856445312,809.084228515625,805.4578857421875
537,801.8314819335938,789.7435913085938,806.6666870117188,811.90478515625
538,800.2197875976562,792.5640869140625,806.6666870117188,811.5018310546875
539,801.025634765625,793.7728881835938,809.084228515625,804.6520385742188
540,804.2490844726562,796.996337890625,809.084228515625,805.8607788085938
541,800.6226806640625,798.2051391601562,815.93408203125,811.90478515625
542,796.1904907226562,794.981689453125,821.1721801757812,811.90478515625
543,793.7728881835938,794.981689453125,812.3076782226562,807.069580078125
544,796.996337890625,794.1758422851562,807.4725341796875,802.2344360351562
545,799.8168334960938,794.1758422851562,809.084228515625,799.4139404296875
546,796.5933837890625,795.3846435546875,809.084228515625,797.3992919921875
547,801.025634765625,797.8021850585938,806.2637329101562,793.7728881835938
548,801.8314819335938,795.3846435546875,801.8314819335938,796.5933837890625
549,794.1758422851562,793.7728881835938,802.6373901367188,803.040283203125
550,794.5787353515625,800.6226806640625,805.054931640625,802.6373901367188
551,799.8168334960938,799.4139404296875,807.87548828125,807.87548828125
552,801.8314819335938,794.5787353515625,807.4725341796875,808.6813354492188
553,801.4285888671875,791.3552856445312,801.8314819335938,799.010986328125
554,803.040283203125,792.1611938476562,803.4432373046875,796.5933837890625
555,806.2637329101562,795.3846435546875,804.6520385742188,795.7875366210938
556,800.6226806640625,792.1611938476562,805.8607788085938,794.1758422851562
557,797.8021850585938,793.3699340820312,805.8607788085938,798.2051391601562
558,803.8461303710938,795.3846435546875,802.2344360351562,801.8314819335938
559,804.6520385742188,795.7875366210938,802.6373901367188,803.8461303710938
560,807.069580078125,792.5640869140625,803.4432373046875,808.6813354492188
561,807.069580078125,790.952392578125,802.6373901367188,803.040283203125
562,799.8168334960938,796.5933837890625,803.040283203125,796.1904907226562
563,799.4139404296875,797.3992919921875,800.2197875976562,801.4285888671875
564,798.6080322265625,793.7728881835938,799.010986328125,801.8314819335938
565,797.8021850585938,794.5787353515625,803.040283203125,794.1758422851562
566,804.6520385742188,796.5933837890625,808.2783813476562,804.2490844726562
567,806.2637329101562,796.5933837890625,811.90478515625,812.3076782226562
568,806.2637329101562,795.7875366210938,808.6813354492188,801.8314819335938
569,805.8607788085938,797.8021850585938,802.6373901367188,798.2051391601562
570,802.6373901367188,798.2051391601562,803.8461303710938,801.4285888671875
571,800.2197875976562,794.981689453125,807.4725341796875,800.2197875976562
572,798.6080322265625,792.1611938476562,809.084228515625,801.025634765625
573,796.1904907226562,789.7435913085938,807.87548828125,807.4725341796875
574,799.4139404296875,788.937744140625,806.2637329101562,809.4871826171875
575,815.5311279296875,797.3992919921875,805.054931640625,818.7545776367188
576,815.93408203125,801.4285888671875,805.4578857421875,823.5897216796875
577,797.3992919921875,800.2197875976562,806.2637329101562,805.8607788085938
578,795.7875366210938,801.8314819335938,806.2637329101562,799.4139404296875
579,803.8461303710938,802.2344360351562,804.2490844726562,805.054931640625
580,804.2490844726562,800.6226806640625,804.6520385742188,802.2344360351562
581,801.8314819335938,796.5933837890625,804.2490844726562,796.996337890625
582,798.6080322265625,792.5640869140625,799.4139404296875,802.2344360351562
583,795.3846435546875,794.5787353515625,799.4139404296875,805.8607788085938
584,798.6080322265625,796.1904907226562,802.2344360351562,802.6373901367188
585,801.8314819335938,795.7875366210938,801.025634765625,799.8168334960938
586,802.2344360351562,797.8021850585938,799.010986328125,794.981689453125
587,803.4432373046875,797.8021850585938,798.2051391601562,800.2197875976562
588,800.6226806640625,799.4139404296875,802.2344360351562,802.2344360351562
589,800.6226806640625,802.6373901367188,803.040283203125,794.981689453125
590,806.2637329101562,801.8314819335938,799.8168334960938,792.1611938476562
591,804.6520385742188,799.8168334960938,802.6373901367188,794.5787353515625
592,800.2197875976562,797.8021850585938,804.6520385742188,801.025634765625
593,800.2197875976562,797.8021850585938,801.8314819335938,803.4432373046875
594,806.2637329101562,802.2344360351562,802.2344360351562,807.87548828125
595,804.6520385742188,800.6226806640625,803.8461303710938,805.4578857421875
596,799.4139404296875,797.8021850585938,800.2197875976562,801.4285888671875
597,799.4139404296875,800.2197875976562,799.010986328125,805.054931640625
598,801.025634765625,796.1904907226562,802.2344360351562,803.8461303710938
599,801.025634765625,791.3552856445312,807.87548828125,806.6666870117188
600,796.5933837890625,791.7582397460938,808.6813354492188,803.040283203125
601,796.1904907226562,791.7582397460938,807.87548828125,797.3992919921875
602,795.7875366210938,793.3699340820312,810.2930297851562,799.8168334960938
603,795.3846435546875,799.4139404296875,810.2930297851562,798.6080322265625
604,796.5933837890625,798.6080322265625,810.6959838867188,795.7875366210938
605,801.025634765625,793.7728881835938,811.098876953125,793.3699340820312
606,801.4285888671875,792.1611938476562,808.2783813476562,792.1611938476562
607,796.5933837890625,794.1758422851562,807.87548828125,798.2051391601562
608,799.4139404296875,792.1611938476562,810.2930297851562,803.8461303710938
609,801.4285888671875,788.5347900390625,809.89013671875,800.2197875976562
610,804.2490844726562,788.937744140625,810.6959838867188,805.4578857421875
611,804.2490844726562,791.7582397460938,813.5164794921875,805.8607788085938
612,798.2051391601562,794.5787353515625,810.2930297851562,798.2051391601562
613,799.010986328125,795.7875366210938,807.4725341796875,806.2637329101562
614,800.2197875976562,799.010986328125,807.069580078125,808.2783813476562
615,800.2197875976562,801.4285888671875,809.4871826171875,807.4725341796875
616,802.2344360351562,796.5933837890625,815.1282348632812,809.89013671875
617,803.4432373046875,791.7582397460938,815.93408203125,807.4725341796875
618,800.2197875976562,794.1758422851562,810.2930297851562,805.4578857421875
619,803.040283203125,794.5787353515625,811.098876953125,805.8607788085938
620,804.2490844726562,794.1758422851562,813.91943359375,805.8607788085938
621,802.6373901367188,792.967041015625,809.89013671875,811.098876953125
622,805.8607788085938,793.7728881835938,806.6666870117188,814.3223266601562
623,803.8461303710938,795.3846435546875,804.6520385742188,801.025634765625
624,801.4285888671875,793.7728881835938,804.2490844726562,797.3992919921875
625,803.8461303710938,795.7875366210938,807.4725341796875,805.054931640625
626,808.2783813476562,796.996337890625,807.87548828125,809.4871826171875
627,807.069580078125,797.3992919921875,807.87548828125,809.084228515625
628,799.010986328125,797.8021850585938,810.2930297851562,807.069580078125
629,796.996337890625,794.1758422851562,809.084228515625,805.054931640625
630,800.6226806640625,795.7875366210938,807.4725341796875,806.2637329101562
631,801.4285888671875,793.7728881835938,809.4871826171875,802.2344360351562
632,809.084228515625,793.7728881835938,809.084228515625,810.6959838867188
633,805.8607788085938,796.996337890625,803.8461303710938,819.1575317382812
634,788.937744140625,796.996337890625,809.084228515625,808.2783813476562
635,789.3406372070312,795.7875366210938,814.7252807617188,796.5933837890625
636,799.4139404296875,798.2051391601562,811.5018310546875,795.3846435546875
637,795.7875366210938,795.7875366210938,812.7106323242188,809.4871826171875
638,789.3406372070312,793.7728881835938,813.113525390625,804.6520385742188
639,796.996337890625,800.6226806640625,812.7106323242188,791.3552856445312
640,804.6520385742188,803.040283203125,816.7399291992188,795.7875366210938
641,807.069580078125,799.010986328125,815.1282348632812,803.4432373046875
642,803.040283203125,794.5787353515625,808.2783813476562,801.8314819335938
643,798.6080322265625,795.3846435546875,805.054931640625,803.4432373046875
644,802.2344360351562,795.3846435546875,804.2490844726562,809.084228515625
645,804.2490844726562,796.996337890625,805.4578857421875,807.069580078125
646,807.87548828125,801.8314819335938,811.5018310546875,808.6813354492188
647,809.4871826171875,802.2344360351562,813.113525390625,810.2930297851562
648,804.6520385742188,799.4139404296875,807.87548828125,811.5018310546875
649,802.6373901367188,797.8021850585938,808.2783813476562,812.3076782226562
650,803.8461303710938,797.3992919921875,808.2783813476562,805.4578857421875
651,812.7106323242188,801.8314819335938,808.6813354492188,812.7106323242188
652,813.5164794921875,804.2490844726562,811.098876953125,819.96337890625
653,807.4725341796875,804.2490844726562,807.87548828125,812.3076782226562
654,797.8021850585938,800.2197875976562,804.2490844726562,806.2637329101562
655,799.8168334960938,798.2051391601562,803.8461303710938,807.069580078125
656,802.6373901367188,796.5933837890625,805.054931640625,802.2344360351562
657,798.6080322265625,790.952392578125,802.6373901367188,796.1904907226562
658,799.4139404296875,792.967041015625,802.6373901367188,797.8021850585938
659,796.996337890625,798.2051391601562,805.8607788085938,801.8314819335938
660,793.7728881835938,793.7728881835938,803.040283203125,808.2783813476562
661,792.5640869140625,790.5494384765625,803.040283203125,804.2490844726562
662,796.5933837890625,791.7582397460938,805.054931640625,800.6226806640625
663,797.3992919921875,791.7582397460938,801.4285888671875,798.6080322265625
664,796.996337890625,788.1318969726562,803.4432373046875,793.7728881835938
665,799.8168334960938,788.937744140625,806.2637329101562,795.3846435546875
666,801.025634765625,791.7582397460938,806.2637329101562,799.4139404296875
667,803.8461303710938,790.1465454101562,807.069580078125,804.2490844726562
668,801.8314819335938,791.3552856445312,808.6813354492188,807.069580078125
669,796.1904907226562,790.1465454101562,810.6959838867188,805.4578857421875
670,796.5933837890625,790.5494384765625,807.4725341796875,806.2637329101562
671,797.8021850585938,790.952392578125,805.8607788085938,807.069580078125
672,802.2344360351562,788.5347900390625,805.054931640625,807.87548828125
673,802.6373901367188,788.937744140625,803.8461303710938,803.040283203125
674,804.2490844726562,790.1465454101562,804.6520385742188,806.2637329101562
675,806.6666870117188,788.5347900390625,804.6520385742188,807.069580078125
676,798.6080322265625,784.908447265625,801.4285888671875,803.040283203125
677,799.8168334960938,788.5347900390625,807.069580078125,811.90478515625
678,796.5933837890625,792.967041015625,812.3076782226562,815.5311279296875
679,796.5933837890625,792.1611938476562,812.3076782226562,813.91943359375
680,801.8314819335938,792.1611938476562,810.2930297851562,815.5311279296875
681,796.996337890625,791.7582397460938,810.2930297851562,803.040283203125
682,794.981689453125,792.967041015625,811.5018310546875,798.2051391601562
683,801.8314819335938,793.7728881835938,805.8607788085938,807.069580078125
684,808.2783813476562,793.7728881835938,804.6520385742188,803.040283203125
685,807.069580078125,795.3846435546875,803.8461303710938,797.3992919921875
686,802.6373901367188,796.5933837890625,803.040283203125,803.8461303710938
687,794.5787353515625,799.4139404296875,808.2783813476562,797.8021850585938
688,794.1758422851562,801.4285888671875,811.5018310546875,794.981689453125
689,795.7875366210938,801.4285888671875,805.8607788085938,798.2051391601562
690,802.6373901367188,801.8314819335938,804.6520385742188,803.4432373046875
691,807.069580078125,800.6226806640625,803.4432373046875,808.6813354492188
692,802.6373901367188,798.2051391601562,799.8168334960938,808.2783813476562
693,797.3992919921875,795.7875366210938,797.8021850585938,802.2344360351562
694,797.8021850585938,792.5640869140625,802.6373901367188,804.6520385742188
695,799.4139404296875,789.3406372070312,805.054931640625,807.069580078125
696,795.7875366210938,794.1758422851562,805.4578857421875,796.5933837890625
697,796.5933837890625,798.2051391601562,807.069580078125,796.996337890625
698,796.5933837890625,796.996337890625,807.87548828125,804.6520385742188
699,796.996337890625,799.010986328125,807.87548828125,804.2490844726562
700,801.8314819335938,799.010986328125,808.6813354492188,801.025634765625
701,804.6520385742188,800.2197875976562,806.6666870117188,803.4432373046875
702,799.8168334960938,801.4285888671875,801.8314819335938,803.8461303710938
703,797.8021850585938,802.6373901367188,803.8461303710938,797.3992919921875
704,799.010986328125,805.4578857421875,805.054931640625,793.3699340820312
705,797.3992919921875,803.040283203125,805.054931640625,799.4139404296875
706,794.5787353515625,803.040283203125,805.8607788085938,809.89013671875
707,794.5787353515625,806.6666870117188,807.87548828125,807.4725341796875
708,795.3846435546875,805.4578857421875,812.3076782226562,804.6520385742188
709,796.996337890625,804.2490844726562,811.5018310546875,810.2930297851562
710,803.040283203125,802.2344360351562,807.4725341796875,805.8607788085938
711,805.4578857421875,800.6226806640625,807.069580078125,804.6520385742188
712,801.8314819335938,799.4139404296875,806.2637329101562,798.6080322265625
713,797.8021850585938,794.5787353515625,802.6373901367188,791.3552856445312
714,795.7875366210938,795.3846435546875,799.8168334960938,798.2051391601562
715,801.025634765625,799.010986328125,806.2637329101562,804.2490844726562
716,803.040283203125,801.4285888671875,813.91943359375,803.8461303710938
717,801.8314819335938,798.2051391601562,811.90478515625,805.8607788085938
718,805.054931640625,795.7875366210938,808.6813354492188,811.5018310546875
719,805.8607788085938,804.2490844726562,809.89013671875,805.054931640625
720,799.8168334960938,807.069580078125,809.89013671875,799.010986328125
721,794.981689453125,799.8168334960938,807.4725341796875,800.2197875976562
722,797.8021850585938,801.4285888671875,803.8461303710938,798.6080322265625
723,798.2051391601562,800.2197875976562,799.4139404296875,796.5933837890625
724,799.4139404296875,796.996337890625,803.8461303710938,803.040283203125
725,804.6520385742188,796.5933837890625,809.89013671875,809.4871826171875
726,809.4871826171875,799.8168334960938,808.2783813476562,805.4578857421875
727,811.90478515625,803.040283203125,808.2783813476562,807.87548828125
728,798.6080322265625,799.010986328125,807.4725341796875,807.4725341796875
729,800.2197875976562,798.6080322265625,805.8607788085938,811.90478515625
730,802.6373901367188,801.025634765625,805.054931640625,809.89013671875
731,796.996337890625,803.4432373046875,808.6813354492188,801.4285888671875
732,799.4139404296875,805.4578857421875,809.89013671875,805.054931640625
733,806.6666870117188,801.025634765625,803.8461303710938,813.113525390625
734,805.8607788085938,799.4139404296875,801.8314819335938,809.4871826171875
735,797.3992919921875,801.8314819335938,806.2637329101562,811.098876953125
736,801.4285888671875,801.4285888671875,806.6666870117188,815.93408203125
737,806.6666870117188,797.3992919921875,805.054931640625,814.7252807617188
738,802.2344360351562,796.996337890625,806.2637329101562,813.5164794921875
739,806.2637329101562,797.8021850585938,805.054931640625,809.4871826171875
740,807.069580078125,794.5787353515625,806.2637329101562,807.87548828125
741,796.996337890625,792.967041015625,806.2637329101562,803.8461303710938
742,799.010986328125,795.7875366210938,804.2490844726562,801.8314819335938
743,806.2637329101562,794.981689453125,807.4725341796875,803.8461303710938
744,803.4432373046875,791.3552856445312,808.2783813476562,806.6666870117188
745,801.4285888671875,790.952392578125,805.4578857421875,811.90478515625
746,798.6080322265625,793.7728881835938,804.2490844726562,807.069580078125
747,798.6080322265625,793.3699340820312,803.4432373046875,802.6373901367188
748,804.6520385742188,794.5787353515625,804.6520385742188,810.2930297851562
749,803.040283203125,796.996337890625,806.6666870117188,814.3223266601562
750,801.4285888671875,796.996337890625,810.6959838867188,813.113525390625
751,804.2490844726562,796.5933837890625,810.6959838867188,808.6813354492188
752,803.040283203125,794.1758422851562,807.069580078125,799.8168334960938
753,799.8168334960938,799.010986328125,808.2783813476562,797.8021850585938
754,805.054931640625,804.2490844726562,810.2930297851562,798.6080322265625
755,806.6666870117188,799.8168334960938,809.084228515625,799.010986328125
756,803.8461303710938,798.2051391601562,809.084228515625,807.069580078125
757,799.4139404296875,798.6080322265625,808.6813354492188,808.6813354492188
758,795.3846435546875,796.996337890625,803.040283203125,799.010986328125
759,799.010986328125,796.996337890625,804.6520385742188,798.2051391601562
760,797.8021850585938,793.3699340820312,806.6666870117188,801.8314819335938
761,796.996337890625,797.3992919921875,803.4432373046875,794.5787353515625
762,800.6226806640625,800.6226806640625,804.2490844726562,790.952392578125
763,802.2344360351562,793.7728881835938,807.069580078125,795.7875366210938
764,809.084228515625,792.1611938476562,807.069580078125,803.4432373046875
765,816.7399291992188,794.1758422851562,807.069580078125,803.040283203125
766,816.3369750976562,790.952392578125,807.87548828125,800.6226806640625
767,812.3076782226562,790.952392578125,807.4725341796875,799.4139404296875
768,809.89013671875,794.981689453125,806.6666870117188,801.4285888671875
769,804.6520385742188,792.967041015625,810.6959838867188,799.4139404296875
770,802.2344360351562,792.5640869140625,812.3076782226562,796.996337890625
771,801.8314819335938,794.5787353515625,806.2637329101562,802.6373901367188
772,800.2197875976562,792.967041015625,805.4578857421875,810.6959838867188
773,796.996337890625,792.967041015625,809.084228515625,794.5787353515625
774,793.3699340820312,793.3699340820312,807.069580078125,783.2966918945312
775,794.981689453125,793.7728881835938,803.8461303710938,784.5054931640625
776,790.952392578125,793.3699340820312,804.6520385742188,782.893798828125
777,792.967041015625,795.3846435546875,807.4725341796875,787.3259887695312
778,793.3699340820312,796.1904907226562,809.89013671875,790.5494384765625
779,793.3699340820312,790.5494384765625,808.2783813476562,799.8168334960938
780,796.1904907226562,790.5494384765625,810.2930297851562,801.025634765625
781,794.981689453125,795.7875366210938,808.6813354492188,796.5933837890625
782,791.7582397460938,796.996337890625,803.8461303710938,794.981689453125
783,790.1465454101562,797.8021850585938,801.8314819335938,791.7582397460938
784,795.7875366210938,796.5933837890625,799.8168334960938,799.010986328125
785,796.1904907226562,792.967041015625,801.4285888671875,803.4432373046875
786,792.967041015625,792.1611938476562,805.4578857421875,803.4432373046875
787,794.981689453125,797.8021850585938,805.8607788085938,806.2637329101562
788,796.1904907226562,801.8314819335938,805.4578857421875,808.6813354492188
789,806.6666870117188,800.6226806640625,808.2783813476562,811.098876953125
790,811.90478515625,799.010986328125,806.2637329101562,815.5311279296875
791,803.4432373046875,799.010986328125,805.054931640625,819.96337890625
792,795.3846435546875,798.2051391601562,808.6813354492188,809.084228515625
793,796.5933837890625,796.5933837890625,807.4725341796875,804.2490844726562
794,793.7728881835938,796.5933837890625,804.6520385742188,796.996337890625
795,795.3846435546875,801.025634765625,806.6666870117188,789.7435913085938
796,803.4432373046875,804.2490844726562,805.4578857421875,795.7875366210938
797,805.4578857421875,807.4725341796875,807.87548828125,804.2490844726562
798,808.2783813476562,803.040283203125,811.90478515625,811.90478515625
799,808.2783813476562,801.8314819335938,805.4578857421875,814.3223266601562
800,804.2490844726562,802.6373901367188,799.010986328125,806.6666870117188
801,803.8461303710938,801.025634765625,805.054931640625,801.4285888671875
802,802.6373901367188,796.5933837890625,809.4871826171875,803.8461303710938
803,800.2197875976562,794.5787353515625,809.4871826171875,801.8314819335938
804,801.4285888671875,798.6080322265625,812.3076782226562,797.8021850585938
805,797.8021850585938,797.3992919921875,811.90478515625,802.6373901367188
806,792.1611938476562,792.1611938476562,803.8461303710938,802.2344360351562
807,788.5347900390625,789.7435913085938,802.2344360351562,797.8021850585938
808,787.3259887695312,789.3406372070312,807.069580078125,798.6080322265625
809,785.7142944335938,790.1465454101562,803.040283203125,801.4285888671875
810,785.3113403320312,789.3406372070312,798.6080322265625,803.040283203125
811,787.3259887695312,787.3259887695312,802.6373901367188,801.025634765625
812,791.3552856445312,789.7435913085938,809.084228515625,803.4432373046875
813,792.5640869140625,790.952392578125,806.6666870117188,804.2490844726562
814,795.7875366210938,789.7435913085938,807.069580078125,810.2930297851562
815,798.2051391601562,794.5787353515625,811.5018310546875,812.3076782226562
816,796.996337890625,796.996337890625,809.4871826171875,811.90478515625
817,801.025634765625,795.7875366210938,809.89013671875,814.3223266601562
818,800.2197875976562,794.5787353515625,809.4871826171875,809.89013671875
819,798.6080322265625,794.1758422851562,810.6959838867188,810.2930297851562
820,805.8607788085938,797.8021850585938,810.2930297851562,813.5164794921875
821,809.4871826171875,803.040283203125,809.084228515625,811.098876953125
822,808.6813354492188,804.6520385742188,812.3076782226562,814.7252807617188
823,803.040283203125,800.6226806640625,813.113525390625,815.5311279296875
824,797.3992919921875,795.3846435546875,812.3076782226562,807.069580078125
825,802.2344360351562,792.967041015625,813.91943359375,814.7252807617188
826,803.040283203125,793.7728881835938,812.3076782226562,817.5457763671875
827,805.054931640625,795.3846435546875,809.4871826171875,810.6959838867188
828,809.4871826171875,796.996337890625,809.084228515625,811.90478515625
829,807.87548828125,794.5787353515625,806.6666870117188,809.89013671875
830,805.8607788085938,797.8021850585938,807.4725341796875,803.4432373046875
831,806.6666870117188,803.040283203125,807.069580078125,802.2344360351562
832,810.2930297851562,805.054931640625,806.2637329101562,805.054931640625
833,806.2637329101562,803.8461303710938,806.6666870117188,799.4139404296875
834,801.4285888671875,804.6520385742188,807.4725341796875,796.996337890625
835,798.2051391601562,804.2490844726562,807.87548828125,802.2344360351562
836,802.2344360351562,803.040283203125,809.89013671875,811.90478515625
837,802.6373901367188,805.4578857421875,812.3076782226562,813.5164794921875
838,798.6080322265625,806.6666870117188,810.6959838867188,803.4432373046875
839,796.996337890625,803.4432373046875,809.084228515625,797.8021850585938
840,793.7728881835938,801.4285888671875,807.87548828125,801.025634765625
841,797.8021850585938,805.4578857421875,811.90478515625,807.87548828125
842,807.87548828125,804.6520385742188,812.3076782226562,810.6959838867188
843,807.069580078125,800.2197875976562,811.5018310546875,807.069580078125
844,806.2637329101562,804.2490844726562,814.7252807617188,807.069580078125
845,809.4871826171875,806.6666870117188,812.7106323242188,803.040283203125
846,803.4432373046875,801.8314819335938,809.89013671875,803.4432373046875
847,797.8021850585938,798.6080322265625,809.89013671875,811.5018310546875
848,803.8461303710938,799.010986328125,809.89013671875,809.89013671875
849,806.6666870117188,799.010986328125,809.4871826171875,805.8607788085938
850,803.040283203125,799.4139404296875,809.084228515625,808.6813354492188
851,807.069580078125,799.010986328125,807.4725341796875,811.90478515625
852,806.2637329101562,795.7875366210938,807.4725341796875,818.7545776367188
853,800.6226806640625,793.3699340820312,806.6666870117188,814.7252807617188
854,804.2490844726562,795.7875366210938,809.084228515625,811.098876953125
855,809.4871826171875,794.5787353515625,809.4871826171875,817.1428833007812
856,809.89013671875,795.7875366210938,809.4871826171875,819.96337890625
857,807.87548828125,801.025634765625,808.6813354492188,819.96337890625
858,808.2783813476562,801.4285888671875,807.87548828125,817.5457763671875
859,810.2930297851562,797.8021850585938,808.2783813476562,811.098876953125
860,811.098876953125,801.8314819335938,805.054931640625,811.5018310546875
861,805.8607788085938,799.8168334960938,805.8607788085938,808.2783813476562
862,803.8461303710938,797.3992919921875,807.4725341796875,806.2637329101562
863,803.040283203125,799.8168334960938,799.4139404296875,809.084228515625
864,797.3992919921875,798.2051391601562,799.4139404296875,812.7106323242188
865,797.8021850585938,796.5933837890625,805.054931640625,807.069580078125
866,798.6080322265625,795.7875366210938,805.054931640625,809.084228515625
867,796.996337890625,791.7582397460938,803.040283203125,812.7106323242188
868,802.2344360351562,799.010986328125,805.4578857421875,811.098876953125
869,805.054931640625,802.2344360351562,811.5018310546875,810.6959838867188
870,796.5933837890625,799.8168334960938,810.6959838867188,809.084228515625
871,796.5933837890625,798.2051391601562,810.2930297851562,809.4871826171875
872,799.4139404296875,796.1904907226562,813.91943359375,809.4871826171875
873,801.025634765625,797.3992919921875,818.7545776367188,815.1282348632812
874,805.8607788085938,796.1904907226562,815.5311279296875,817.94873046875
875,812.3076782226562,796.996337890625,810.2930297851562,824.7985229492188
876,811.90478515625,799.010986328125,811.90478515625,822.7838745117188
877,808.2783813476562,802.2344360351562,814.3223266601562,814.7252807617188
878,815.93408203125,804.6520385742188,815.5311279296875,817.1428833007812
879,819.96337890625,805.054931640625,812.7106323242188,816.3369750976562
880,816.7399291992188,800.6226806640625,810.6959838867188,811.5018310546875
881,814.7252807617188,801.8314819335938,809.89013671875,808.6813354492188
882,809.4871826171875,799.010986328125,805.4578857421875,805.4578857421875
883,812.7106323242188,794.1758422851562,803.8461303710938,801.8314819335938
884,809.084228515625,796.5933837890625,807.069580078125,803.4432373046875
885,798.2051391601562,796.996337890625,807.87548828125,808.2783813476562
886,794.5787353515625,798.6080322265625,806.2637329101562,803.040283203125
887,796.1904907226562,798.2051391601562,808.6813354492188,802.2344360351562
888,788.937744140625,794.1758422851562,809.084228515625,804.2490844726562
889,784.1025390625,791.3552856445312,807.4725341796875,800.6226806640625
890,787.7289428710938,788.5347900390625,806.2637329101562,802.6373901367188
891,784.908447265625,788.1318969726562,804.6520385742188,807.87548828125
892,789.3406372070312,792.967041015625,807.069580078125,804.6520385742188
893,798.2051391601562,794.1758422851562,808.2783813476562,809.89013671875
894,801.025634765625,788.1318969726562,805.8607788085938,811.098876953125
895,800.6226806640625,787.7289428710938,802.6373901367188,807.4725341796875
896,801.4285888671875,791.3552856445312,802.2344360351562,811.90478515625
897,803.8461303710938,790.5494384765625,806.2637329101562,810.2930297851562
898,811.90478515625,790.952392578125,808.2783813476562,817.1428833007812
899,813.113525390625,794.1758422851562,807.87548828125,819.96337890625
900,807.87548828125,796.996337890625,809.084228515625,811.098876953125
901,803.040283203125,795.3846435546875,807.87548828125,801.8314819335938
902,803.8461303710938,791.3552856445312,806.2637329101562,798.2051391601562
903,802.6373901367188,792.1611938476562,802.6373901367188,794.5787353515625
904,796.996337890625,793.3699340820312,801.4285888671875,790.1465454101562
905,792.967041015625,795.3846435546875,803.040283203125,789.3406372070312
906,790.1465454101562,797.8021850585938,803.040283203125,790.5494384765625
907,792.967041015625,801.4285888671875,806.2637329101562,796.5933837890625
908,796.5933837890625,798.6080322265625,805.4578857421875,796.996337890625
909,796.996337890625,799.4139404296875,806.2637329101562,799.010986328125
910,797.8021850585938,801.8314819335938,805.054931640625,799.4139404296875
911,799.4139404296875,801.025634765625,805.4578857421875,797.8021850585938
912,799.4139404296875,803.8461303710938,813.113525390625,803.8461303710938
913,804.6520385742188,800.2197875976562,814.3223266601562,809.4871826171875
914,807.069580078125,799.010986328125,809.89013671875,812.3076782226562
915,798.2051391601562,804.6520385742188,809.4871826171875,808.2783813476562
916,790.5494384765625,802.2344360351562,807.069580078125,795.7875366210938
917,790.5494384765625,799.010986328125,805.8607788085938,788.1318969726562
918,790.5494384765625,796.996337890625,809.084228515625,794.1758422851562
919,796.5933837890625,793.7728881835938,805.8607788085938,802.6373901367188
920,804.2490844726562,795.3846435546875,808.2783813476562,809.4871826171875
921,797.3992919921875,791.7582397460938,813.5164794921875,810.2930297851562
922,794.5787353515625,794.1758422851562,813.5164794921875,805.054931640625
923,799.4139404296875,801.8314819335938,813.5164794921875,800.2197875976562
924,803.4432373046875,798.6080322265625,808.2783813476562,799.010986328125
925,804.6520385742188,796.996337890625,808.6813354492188,801.4285888671875
926,802.2344360351562,800.6226806640625,806.2637329101562,800.6226806640625
927,804.2490844726562,801.4285888671875,809.084228515625,801.4285888671875
928,805.054931640625,800.6226806640625,815.5311279296875,802.2344360351562
929,807.069580078125,800.6226806640625,812.3076782226562,795.7875366210938
930,805.054931640625,799.010986328125,812.7106323242188,794.981689453125
931,797.3992919921875,795.7875366210938,812.7106323242188,801.8314819335938
932,800.6226806640625,799.4139404296875,811.098876953125,810.2930297851562
933,805.054931640625,801.8314819335938,814.3223266601562,816.3369750976562
934,804.6520385742188,802.6373901367188,814.7252807617188,815.1282348632812
935,805.8607788085938,805.4578857421875,813.113525390625,813.91943359375
936,805.054931640625,799.010986328125,811.098876953125,813.91943359375
937,797.3992919921875,799.4139404296875,805.8607788085938,809.084228515625
938,797.8021850585938,801.8314819335938,805.4578857421875,801.8314819335938
939,801.025634765625,799.8168334960938,811.098876953125,803.040283203125
940,798.2051391601562,796.996337890625,809.89013671875,805.4578857421875
941,793.3699340820312,793.7728881835938,804.6520385742188,803.040283203125
942,791.7582397460938,794.981689453125,804.6520385742188,800.2197875976562
943,792.1611938476562,795.7875366210938,805.4578857421875,795.7875366210938
944,792.5640869140625,790.5494384765625,802.2344360351562,802.6373901367188
945,798.2051391601562,793.7728881835938,801.4285888671875,808.6813354492188
946,800.6226806640625,801.025634765625,804.6520385742188,805.054931640625
947,797.3992919921875,797.8021850585938,806.6666870117188,801.8314819335938
948,803.8461303710938,795.7875366210938,801.8314819335938,804.2490844726562
949,803.8461303710938,799.4139404296875,800.2197875976562,800.2197875976562
950,800.6226806640625,797.3992919921875,801.4285888671875,797.3992919921875
951,803.8461303710938,794.981689453125,795.3846435546875,794.981689453125
952,803.8461303710938,793.3699340820312,795.7875366210938,792.1611938476562
953,795.3846435546875,791.3552856445312,796.1904907226562,792.5640869140625
954,793.7728881835938,791.3552856445312,791.3552856445312,792.967041015625
955,798.2051391601562,790.1465454101562,793.7728881835938,792.1611938476562
956,796.5933837890625,793.7728881835938,797.3992919921875,794.981689453125
957,799.010986328125,794.1758422851562,800.2197875976562,805.8607788085938
958,805.054931640625,794.5787353515625,807.069580078125,815.5311279296875
959,807.4725341796875,798.6080322265625,808.2783813476562,815.93408203125
960,813.113525390625,794.5787353515625,806.6666870117188,818.3516235351562
961,813.5164794921875,793.7728881835938,805.8607788085938,810.2930297851562
962,812.7106323242188,793.7728881835938,805.4578857421875,801.4285888671875
963,809.084228515625,794.981689453125,805.8607788085938,807.4725341796875
964,805.8607788085938,799.8168334960938,811.5018310546875,809.89013671875
965,809.084228515625,799.4139404296875,810.6959838867188,806.6666870117188
966,803.4432373046875,794.5787353515625,807.87548828125,812.3076782226562
967,803.4432373046875,794.981689453125,806.2637329101562,818.7545776367188
968,809.89013671875,798.2051391601562,803.8461303710938,816.3369750976562
969,814.7252807617188,801.4285888671875,807.4725341796875,812.7106323242188
970,816.7399291992188,796.1904907226562,801.025634765625,809.4871826171875
971,818.3516235351562,792.5640869140625,795.7875366210938,821.97802734375
972,818.3516235351562,798.2051391601562,801.4285888671875,824.3956298828125
973,808.6813354492188,799.4139404296875,801.4285888671875,801.4285888671875
974,800.2197875976562,801.8314819335938,802.6373901367188,792.967041015625
975,802.6373901367188,805.4578857421875,804.6520385742188,799.010986328125
976,803.8461303710938,803.8461303710938,806.6666870117188,804.6520385742188
977,799.4139404296875,801.4285888671875,807.4725341796875,799.4139404296875
978,804.6520385742188,802.6373901367188,803.8461303710938,804.2490844726562
979,802.2344360351562,799.010986328125,800.2197875976562,803.8461303710938
980,790.952392578125,795.3846435546875,798.2051391601562,793.3699340820312
981,797.8021850585938,798.6080322265625,798.6080322265625,799.4139404296875
982,802.6373901367188,796.996337890625,804.6520385742188,805.054931640625
983,796.5933837890625,795.7875366210938,805.054931640625,806.6666870117188
984,791.7582397460938,799.010986328125,803.040283203125,794.1758422851562
985,796.1904907226562,796.996337890625,808.6813354492188,788.5347900390625
986,796.996337890625,794.5787353515625,814.7252807617188,795.7875366210938
987,786.923095703125,798.2051391601562,816.7399291992188,792.5640869140625
988,788.5347900390625,797.8021850585938,813.91943359375,783.6996459960938
989,787.7289428710938,790.952392578125,811.098876953125,786.1171875
990,786.5201416015625,790.1465454101562,809.89013671875,792.967041015625
991,797.8021850585938,794.5787353515625,807.069580078125,797.3992919921875
992,794.981689453125,795.3846435546875,804.2490844726562,799.010986328125
993,790.952392578125,793.7728881835938,807.069580078125,801.025634765625
994,792.1611938476562,795.3846435546875,805.8607788085938,813.113525390625
995,793.7728881835938,796.996337890625,803.040283203125,804.6520385742188
996,800.6226806640625,797.3992919921875,807.4725341796875,796.5933837890625
997,804.2490844726562,796.5933837890625,807.069580078125,798.2051391601562
998,801.4285888671875,795.3846435546875,802.2344360351562,798.6080322265625
999,799.8168334960938,794.1758422851562,807.069580078125,802.6373901367188
1000,805.4578857421875,793.3699340820312,803.040283203125,801.4285888671875
1001,805.054931640625,795.3846435546875,804.6520385742188,809.4871826171875
1002,803.8461303710938,796.1904907226562,810.2930297851562,814.7252807617188
1003,797.8021850585938,794.5787353515625,809.084228515625,799.4139404296875
1004,791.7582397460938,788.1318969726562,803.040283203125,790.952392578125
1005,792.5640869140625,790.5494384765625,799.010986328125,796.996337890625
1006,798.2051391601562,798.2051391601562,804.2490844726562,801.8314819335938
1007,801.025634765625,796.1904907226562,809.4871826171875,805.054931640625
1008,798.2051391601562,792.5640869140625,810.6959838867188,806.6666870117188
1009,799.8168334960938,792.5640869140625,807.4725341796875,809.89013671875
1010,804.2490844726562,796.5933837890625,807.4725341796875,818.7545776367188
1011,806.2637329101562,800.6226806640625,809.4871826171875,814.3223266601562
1012,803.4432373046875,797.3992919921875,810.2930297851562,808.6813354492188
1013,802.2344360351562,796.1904907226562,810.6959838867188,818.3516235351562
1014,801.4285888671875,794.981689453125,809.4871826171875,813.91943359375
1015,798.6080322265625,791.7582397460938,808.6813354492188,799.8168334960938
1016,801.8314819335938,790.1465454101562,811.90478515625,805.4578857421875
1017,806.6666870117188,790.1465454101562,813.5164794921875,815.5311279296875
1018,802.6373901367188,793.7728881835938,813.91943359375,811.90478515625
1019,801.025634765625,794.5787353515625,813.91943359375,810.6959838867188
1020,805.8607788085938,792.967041015625,809.89013671875,813.5164794921875
1021,806.2637329101562,792.1611938476562,807.4725341796875,810.6959838867188
1022,803.4432373046875,794.1758422851562,809.4871826171875,806.6666870117188
1023,804.6520385742188,792.5640869140625,809.084228515625,804.6520385742188
1024,804.6520385742188,792.5640869140625,809.4871826171875,805.8607788085938
1025,806.6666870117188,794.1758422851562,813.113525390625,804.6520385742188
1026,811.098876953125,797.3992919921875,810.2930297851562,807.87548828125
1027,811.098876953125,797.8021850585938,806.2637329101562,809.084228515625
1028,818.3516235351562,797.8021850585938,803.8461303710938,813.5164794921875
1029,813.91943359375,798.2051391601562,804.6520385742188,813.113525390625
1030,790.952392578125,794.981689453125,805.054931640625,792.967041015625
1031,786.923095703125,798.6080322265625,806.6666870117188,788.1318969726562
1032,794.981689453125,799.010986328125,804.2490844726562,799.4139404296875
1033,790.1465454101562,794.5787353515625,798.2051391601562,802.2344360351562
1034,780.4761962890625,794.5787353515625,796.996337890625,795.7875366210938
1035,781.2820434570312,793.7728881835938,796.996337890625,792.5640869140625
1036,784.1025390625,789.3406372070312,794.1758422851562,790.952392578125
1037,786.1171875,790.1465454101562,795.3846435546875,787.3259887695312
1038,786.5201416015625,790.5494384765625,799.8168334960938,786.1171875
1039,790.1465454101562,787.7289428710938,799.010986328125,790.1465454101562
1040,795.3846435546875,786.923095703125,795.7875366210938,798.2051391601562
1041,794.981689453125,787.7289428710938,797.8021850585938,802.6373901367188
1042,800.6226806640625,788.1318969726562,802.6373901367188,805.054931640625
1043,805.4578857421875,786.1171875,804.6520385742188,807.4725341796875
1044,799.4139404296875,784.908447265625,806.6666870117188,815.1282348632812
1045,799.010986328125,786.1171875,811.098876953125,811.90478515625
1046,804.6520385742188,789.3406372070312,811.098876953125,806.2637329101562
1047,806.2637329101562,788.937744140625,807.4725341796875,805.054931640625
1048,800.2197875976562,785.7142944335938,804.2490844726562,805.054931640625
1049,799.010986328125,786.923095703125,807.069580078125,807.4725341796875
1050,806.2637329101562,796.5933837890625,807.069580078125,809.084228515625
1051,806.2637329101562,799.4139404296875,807.069580078125,813.5164794921875
1052,800.6226806640625,794.1758422851562,807.4725341796875,811.5018310546875
1053,804.6520385742188,792.5640869140625,808.2783813476562,809.89013671875
1054,801.025634765625,794.981689453125,806.2637329101562,806.6666870117188
1055,790.1465454101562,792.1611938476562,803.4432373046875,806.6666870117188
1056,788.1318969726562,791.3552856445312,803.040283203125,802.6373901367188
1057,791.3552856445312,796.996337890625,802.2344360351562,795.3846435546875
1058,792.1611938476562,802.2344360351562,804.2490844726562,797.8021850585938
1059,796.5933837890625,804.2490844726562,807.87548828125,802.2344360351562
1060,795.7875366210938,799.4139404296875,803.040283203125,797.8021850585938
1061,788.5347900390625,797.8021850585938,802.2344360351562,788.937744140625
1062,786.923095703125,796.1904907226562,800.2197875976562,785.3113403320312
1063,792.1611938476562,794.5787353515625,800.6226806640625,795.7875366210938
1064,794.981689453125,794.5787353515625,805.4578857421875,802.6373901367188
1065,794.5787353515625,794.1758422851562,803.8461303710938,790.5494384765625
1066,789.3406372070312,792.967041015625,800.6226806640625,785.7142944335938
1067,792.967041015625,793.7728881835938,796.5933837890625,793.3699340820312
1068,798.2051391601562,796.1904907226562,796.1904907226562,794.1758422851562
1069,796.996337890625,793.7728881835938,797.8021850585938,791.3552856445312
1070,798.6080322265625,788.5347900390625,802.6373901367188,796.5933837890625
1071,801.025634765625,793.3699340820312,810.2930297851562,804.2490844726562
1072,804.6520385742188,798.2051391601562,811.098876953125,809.4871826171875
1073,808.2783813476562,796.996337890625,809.4871826171875,812.3076782226562
1074,809.89013671875,795.3846435546875,810.2930297851562,813.5164794921875
1075,801.8314819335938,793.3699340820312,809.084228515625,810.2930297851562
1076,800.2197875976562,793.3699340820312,809.084228515625,808.6813354492188
1077,805.8607788085938,796.1904907226562,808.2783813476562,806.2637329101562
1078,805.054931640625,797.3992919921875,808.2783813476562,807.87548828125
1079,804.6520385742188,802.2344360351562,813.113525390625,810.2930297851562
1080,802.6373901367188,807.4725341796875,813.91943359375,797.8021850585938
1081,803.4432373046875,805.4578857421875,813.5164794921875,801.025634765625
1082,810.6959838867188,802.6373901367188,812.7106323242188,819.5604248046875
1083,818.3516235351562,807.069580078125,805.4578857421875,824.3956298828125
1084,807.87548828125,808.2783813476562,802.2344360351562,810.2930297851562
1085,788.5347900390625,804.2490844726562,806.2637329101562,791.3552856445312
1086,788.5347900390625,803.040283203125,804.2490844726562,792.967041015625
1087,791.3552856445312,803.040283203125,806.2637329101562,798.6080322265625
1088,794.981689453125,801.8314819335938,805.8607788085938,798.2051391601562
1089,802.2344360351562,805.4578857421875,800.2197875976562,801.4285888671875
1090,803.8461303710938,810.6959838867188,803.4432373046875,805.4578857421875
1091,795.3846435546875,810.2930297851562,809.084228515625,803.040283203125
1092,790.1465454101562,803.8461303710938,809.4871826171875,802.2344360351562
1093,792.1611938476562,801.4285888671875,810.6959838867188,800.2197875976562
1094,795.7875366210938,800.6226806640625,804.6520385742188,795.7875366210938
1095,797.8021850585938,797.8021850585938,802.2344360351562,791.3552856445312
1096,795.3846435546875,796.1904907226562,805.4578857421875,790.1465454101562
1097,797.3992919921875,794.1758422851562,805.4578857421875,796.996337890625
1098,794.5787353515625,791.7582397460938,807.069580078125,800.2197875976562
1099,792.5640869140625,790.952392578125,808.2783813476562,804.6520385742188
1100,795.7875366210938,793.3699340820312,811.90478515625,809.89013671875
1101,796.5933837890625,794.981689453125,816.3369750976562,810.6959838867188
1102,796.996337890625,794.5787353515625,817.94873046875,813.91943359375
1103,795.3846435546875,796.1904907226562,818.7545776367188,807.87548828125
1104,800.6226806640625,792.967041015625,814.3223266601562,800.6226806640625
1105,803.040283203125,795.7875366210938,809.084228515625,800.6226806640625
1106,801.025634765625,799.4139404296875,807.87548828125,798.6080322265625
1107,799.8168334960938,799.4139404296875,807.4725341796875,800.2197875976562
1108,803.4432373046875,799.8168334960938,806.2637329101562,809.89013671875
1109,810.6959838867188,803.4432373046875,805.4578857421875,817.5457763671875
1110,805.8607788085938,803.4432373046875,805.4578857421875,804.6520385742188
1111,803.040283203125,800.2197875976562,803.040283203125,799.010986328125
1112,808.6813354492188,801.8314819335938,805.8607788085938,806.6666870117188
1113,812.3076782226562,803.8461303710938,807.4725341796875,812.7106323242188
1114,811.90478515625,805.4578857421875,808.2783813476562,813.91943359375
1115,809.4871826171875,805.4578857421875,811.5018310546875,809.084228515625
1116,806.2637329101562,807.069580078125,808.2783813476562,807.4725341796875
1117,798.2051391601562,806.2637329101562,804.2490844726562,806.6666870117188
1118,798.2051391601562,801.025634765625,803.8461303710938,801.4285888671875
1119,808.2783813476562,801.8314819335938,808.6813354492188,806.2637329101562
1120,809.4871826171875,800.6226806640625,805.8607788085938,810.2930297851562
1121,808.6813354492188,797.3992919921875,803.8461303710938,808.2783813476562
1122,804.2490844726562,803.040283203125,810.2930297851562,807.4725341796875
1123,801.4285888671875,801.8314819335938,806.2637329101562,810.2930297851562
1124,797.8021850585938,794.1758422851562,803.4432373046875,811.098876953125
1125,798.2051391601562,793.7728881835938,801.4285888671875,811.5018310546875
1126,798.2051391601562,794.5787353515625,800.2197875976562,806.6666870117188
1127,800.2197875976562,794.981689453125,804.2490844726562,801.4285888671875
1128,803.8461303710938,795.3846435546875,804.2490844726562,805.054931640625
1129,801.8314819335938,794.1758422851562,801.025634765625,806.2637329101562
1130,803.8461303710938,796.5933837890625,803.4432373046875,802.2344360351562
1131,800.6226806640625,797.3992919921875,803.4432373046875,799.010986328125
1132,796.1904907226562,796.1904907226562,802.6373901367188,801.025634765625
1133,794.981689453125,798.2051391601562,806.2637329101562,805.8607788085938
1134,790.952392578125,797.8021850585938,803.040283203125,800.2197875976562
1135,792.1611938476562,795.3846435546875,802.6373901367188,796.5933837890625
1136,795.3846435546875,799.010986328125,806.6666870117188,802.2344360351562
1137,793.7728881835938,799.4139404296875,805.8607788085938,803.8461303710938
1138,794.981689453125,794.981689453125,807.4725341796875,802.6373901367188
1139,797.8021850585938,796.996337890625,810.2930297851562,801.025634765625
1140,800.2197875976562,797.8021850585938,807.4725341796875,804.2490844726562
1141,794.5787353515625,793.3699340820312,808.2783813476562,799.010986328125
1142,791.7582397460938,796.1904907226562,807.4725341796875,788.1318969726562
1143,794.5787353515625,796.996337890625,805.8607788085938,791.3552856445312
1144,794.981689453125,792.5640869140625,807.87548828125,796.996337890625
1145,792.1611938476562,792.5640869140625,810.6959838867188,797.3992919921875
1146,791.7582397460938,794.981689453125,811.5018310546875,798.2051391601562
1147,797.3992919921875,793.7728881835938,807.4725341796875,799.010986328125
1148,799.8168334960938,794.5787353515625,809.084228515625,800.2197875976562
1149,802.2344360351562,799.010986328125,812.7106323242188,801.025634765625
1150,808.6813354492188,800.6226806640625,812.3076782226562,799.8168334960938
1151,809.084228515625,799.010986328125,809.89013671875,805.4578857421875
1152,804.2490844726562,795.3846435546875,811.098876953125,808.6813354492188
1153,803.4432373046875,799.8168334960938,812.7106323242188,798.6080322265625
1154,801.025634765625,798.2051391601562,810.6959838867188,796.1904907226562
1155,808.6813354492188,788.937744140625,807.4725341796875,805.054931640625
1156,814.3223266601562,787.3259887695312,801.8314819335938,815.1282348632812
1157,803.4432373046875,791.7582397460938,800.2197875976562,803.4432373046875
1158,789.7435913085938,793.3699340820312,802.2344360351562,782.4908447265625
1159,795.7875366210938,792.1611938476562,805.4578857421875,792.1611938476562
1160,803.040283203125,790.1465454101562,805.4578857421875,804.6520385742188
1161,800.6226806640625,789.3406372070312,807.87548828125,801.8314819335938
1162,808.6813354492188,792.5640869140625,808.6813354492188,803.8461303710938
1163,814.7252807617188,790.1465454101562,802.2344360351562,813.5164794921875
1164,807.87548828125,793.3699340820312,804.6520385742188,815.5311279296875
1165,808.2783813476562,800.6226806640625,806.6666870117188,804.6520385742188
1166,809.4871826171875,802.2344360351562,803.8461303710938,805.054931640625
1167,808.6813354492188,804.6520385742188,803.040283203125,807.4725341796875
1168,806.6666870117188,802.2344360351562,805.054931640625,803.8461303710938
1169,799.4139404296875,799.4139404296875,801.4285888671875,808.2783813476562
1170,801.8314819335938,799.4139404296875,799.8168334960938,815.1282348632812
1171,806.6666870117188,801.8314819335938,807.069580078125,815.5311279296875
1172,809.89013671875,803.4432373046875,811.5018310546875,815.93408203125
1173,804.6520385742188,800.2197875976562,810.2930297851562,808.6813354492188
1174,804.6520385742188,799.010986328125,809.084228515625,804.2490844726562
1175,807.069580078125,798.6080322265625,808.2783813476562,812.7106323242188
1176,798.6080322265625,801.025634765625,810.6959838867188,807.87548828125
1177,800.2197875976562,800.2197875976562,809.89013671875,806.6666870117188
1178,803.4432373046875,796.5933837890625,802.2344360351562,805.054931640625
1179,804.2490844726562,797.3992919921875,802.6373901367188,804.6520385742188
1180,804.6520385742188,802.2344360351562,803.040283203125,808.2783813476562
1181,806.2637329101562,799.010986328125,801.025634765625,805.8607788085938
1182,806.6666870117188,795.7875366210938,801.8314819335938,809.084228515625
1183,809.4871826171875,799.010986328125,803.8461303710938,809.084228515625
1184,813.113525390625,801.025634765625,806.6666870117188,811.5018310546875
1185,807.87548828125,799.8168334960938,803.4432373046875,805.054931640625
1186,803.4432373046875,794.981689453125,796.5933837890625,807.4725341796875
1187,804.2490844726562,797.3992919921875,799.010986328125,815.5311279296875
1188,802.2344360351562,800.2197875976562,803.4432373046875,801.8314819335938
1189,799.4139404296875,794.981689453125,803.8461303710938,794.981689453125
1190,798.2051391601562,797.8021850585938,805.054931640625,801.8314819335938
1191,803.8461303710938,799.8168334960938,807.4725341796875,806.6666870117188
1192,805.054931640625,797.8021850585938,803.8461303710938,798.2051391601562
1193,796.1904907226562,792.1611938476562,802.6373901367188,790.952392578125
1194,801.025634765625,792.967041015625,804.6520385742188,795.3846435546875
1195,800.6226806640625,795.7875366210938,801.4285888671875,797.3992919921875
1196,794.5787353515625,790.952392578125,799.8168334960938,796.5933837890625
1197,800.6226806640625,792.967041015625,805.8607788085938,801.025634765625
1198,803.8461303710938,792.967041015625,804.6520385742188,800.2197875976562
1199,800.6226806640625,793.7728881835938,802.2344360351562,797.8021850585938
1200,804.6520385742188,793.7728881835938,805.8607788085938,797.8021850585938
1201,810.6959838867188,791.7582397460938,805.4578857421875,802.6373901367188
1202,801.8314819335938,789.7435913085938,804.6520385742188,811.098876953125
1203,795.7875366210938,792.967041015625,809.084228515625,807.4725341796875
1204,793.7728881835938,792.5640869140625,807.87548828125,801.4285888671875
1205,788.937744140625,786.5201416015625,803.8461303710938,795.3846435546875
1206,787.3259887695312,788.1318969726562,804.6520385742188,800.2197875976562
1207,790.5494384765625,791.3552856445312,806.2637329101562,806.6666870117188
1208,799.4139404296875,794.981689453125,803.4432373046875,805.054931640625
1209,800.6226806640625,794.1758422851562,799.4139404296875,803.4432373046875
1210,800.2197875976562,795.7875366210938,801.8314819335938,799.010986328125
1211,801.4285888671875,798.6080322265625,804.6520385742188,799.8168334960938
1212,797.8021850585938,794.981689453125,804.2490844726562,805.8607788085938
1213,797.8021850585938,793.3699340820312,809.084228515625,811.098876953125
1214,802.2344360351562,790.1465454101562,809.89013671875,810.6959838867188
1215,807.87548828125,788.5347900390625,808.2783813476562,813.5164794921875
1216,814.7252807617188,793.7728881835938,810.6959838867188,824.7985229492188
1217,815.1282348632812,792.5640869140625,807.87548828125,820.7692260742188
1218,809.4871826171875,790.952392578125,807.87548828125,811.5018310546875
1219,802.2344360351562,792.5640869140625,809.89013671875,809.084228515625
1220,799.8168334960938,794.981689453125,805.054931640625,814.7252807617188
1221,806.6666870117188,796.5933837890625,804.6520385742188,819.96337890625
1222,807.4725341796875,799.010986328125,810.2930297851562,817.94873046875
1223,811.90478515625,803.8461303710938,807.4725341796875,816.7399291992188
1224,810.6959838867188,801.025634765625,809.084228515625,819.96337890625
1225,803.040283203125,798.2051391601562,809.4871826171875,813.91943359375
1226,803.040283203125,800.2197875976562,805.8607788085938,810.2930297851562
1227,804.6520385742188,799.010986328125,807.4725341796875,815.1282348632812
1228,802.6373901367188,794.981689453125,803.040283203125,811.90478515625
1229,796.996337890625,797.3992919921875,801.025634765625,810.6959838867188
1230,795.7875366210938,798.2051391601562,806.6666870117188,807.4725341796875
1231,799.4139404296875,795.7875366210938,804.2490844726562,805.4578857421875
1232,803.040283203125,799.010986328125,804.2490844726562,804.2490844726562
1233,807.069580078125,797.3992919921875,811.90478515625,799.8168334960938
1234,805.054931640625,798.2051391601562,810.6959838867188,802.2344360351562
1235,806.2637329101562,801.4285888671875,807.069580078125,803.8461303710938
1236,806.2637329101562,797.3992919921875,810.6959838867188,813.91943359375
1237,804.2490844726562,796.996337890625,809.4871826171875,810.2930297851562
1238,803.4432373046875,798.6080322265625,804.2490844726562,796.996337890625
1239,796.1904907226562,799.8168334960938,807.4725341796875,801.025634765625
1240,792.1611938476562,801.8314819335938,810.2930297851562,803.040283203125
1241,796.1904907226562,797.3992919921875,806.6666870117188,796.996337890625
1242,796.1904907226562,794.981689453125,805.8607788085938,798.6080322265625
1243,797.8021850585938,797.8021850585938,805.8607788085938,804.6520385742188
1244,799.8168334960938,796.1904907226562,804.2490844726562,804.2490844726562
1245,799.4139404296875,798.6080322265625,805.8607788085938,804.2490844726562
1246,791.7582397460938,798.2051391601562,805.4578857421875,801.8314819335938
1247,796.1904907226562,794.1758422851562,805.8607788085938,803.8461303710938
1248,804.6520385742188,790.1465454101562,808.6813354492188,809.89013671875
1249,804.6520385742188,791.3552856445312,806.2637329101562,803.4432373046875
1250,810.2930297851562,795.7875366210938,805.054931640625,802.2344360351562
1251,808.6813354492188,796.1904907226562,806.2637329101562,806.2637329101562
1252,800.6226806640625,796.5933837890625,811.5018310546875,807.069580078125
1253,799.4139404296875,795.7875366210938,813.5164794921875,805.4578857421875
1254,801.8314819335938,795.7875366210938,812.7106323242188,803.8461303710938
1255,798.6080322265625,796.1904907226562,811.5018310546875,806.2637329101562
1256,798.6080322265625,796.996337890625,807.87548828125,803.4432373046875
1257,803.040283203125,795.7875366210938,806.6666870117188,799.4139404296875
1258,808.2783813476562,798.2051391601562,810.2930297851562,801.8314819335938
1259,812.7106323242188,797.8021850585938,811.90478515625,811.098876953125
1260,799.4139404296875,795.3846435546875,807.87548828125,804.2490844726562
1261,790.952392578125,791.7582397460938,803.4432373046875,795.7875366210938
1262,798.2051391601562,790.5494384765625,802.6373901367188,801.8314819335938
1263,800.6226806640625,793.3699340820312,804.6520385742188,801.8314819335938
1264,802.6373901367188,797.8021850585938,804.2490844726562,804.6520385742188
1265,802.2344360351562,799.010986328125,801.4285888671875,802.2344360351562
1266,801.8314819335938,798.6080322265625,806.2637329101562,803.4432373046875
1267,800.6226806640625,801.4285888671875,808.6813354492188,803.4432373046875
1268,797.8021850585938,799.8168334960938,804.6520385742188,796.1904907226562
1269,803.8461303710938,797.8021850585938,804.2490844726562,798.6080322265625
1270,806.6666870117188,793.7728881835938,801.4285888671875,798.6080322265625
1271,807.069580078125,794.981689453125,802.6373901367188,811.90478515625
1272,809.4871826171875,794.981689453125,807.87548828125,810.2930297851562
1273,805.054931640625,794.981689453125,809.4871826171875,802.2344360351562
1274,803.040283203125,796.1904907226562,805.8607788085938,803.8461303710938
1275,804.2490844726562,798.2051391601562,804.2490844726562,801.025634765625
1276,803.4432373046875,799.010986328125,803.8461303710938,800.2197875976562
1277,808.6813354492188,798.2051391601562,801.8314819335938,799.010986328125
1278,810.6959838867188,798.2051391601562,804.6520385742188,806.2637329101562
1279,805.8607788085938,801.8314819335938,801.025634765625,811.90478515625
1280,806.2637329101562,803.040283203125,802.2344360351562,809.4871826171875
1281,804.2490844726562,800.6226806640625,807.4725341796875,811.5018310546875
1282,806.6666870117188,800.2197875976562,808.2783813476562,819.96337890625
1283,807.87548828125,800.2197875976562,809.4871826171875,818.3516235351562
1284,805.054931640625,801.025634765625,808.2783813476562,807.87548828125
1285,801.8314819335938,799.010986328125,810.6959838867188,808.6813354492188
1286,799.010986328125,795.3846435546875,812.3076782226562,806.6666870117188
1287,799.8168334960938,796.5933837890625,802.6373901367188,803.4432373046875
1288,804.2490844726562,794.1758422851562,802.2344360351562,805.8607788085938
1289,803.8461303710938,791.7582397460938,803.8461303710938,805.4578857421875
1290,795.3846435546875,792.1611938476562,802.6373901367188,799.010986328125
1291,799.4139404296875,790.1465454101562,806.2637329101562,801.8314819335938
1292,804.6520385742188,792.967041015625,805.8607788085938,806.6666870117188
1293,805.8607788085938,795.7875366210938,805.4578857421875,805.054931640625
1294,802.2344360351562,794.1758422851562,806.6666870117188,804.6520385742188
1295,794.1758422851562,793.3699340820312,805.4578857421875,792.967041015625
1296,796.5933837890625,796.996337890625,801.8314819335938,790.1465454101562
1297,793.3699340820312,799.4139404296875,799.8168334960938,794.5787353515625
1298,793.3699340820312,796.5933837890625,799.010986328125,792.1611938476562
1299,795.7875366210938,796.996337890625,799.4139404296875,792.1611938476562
1300,797.3992919921875,799.4139404296875,801.8314819335938,799.8168334960938
1301,799.010986328125,797.3992919921875,799.010986328125,802.2344360351562
1302,799.8168334960938,797.3992919921875,797.8021850585938,794.1758422851562
1303,799.8168334960938,799.010986328125,801.025634765625,790.1465454101562
1304,796.996337890625,797.3992919921875,794.5787353515625,788.5347900390625
1305,803.040283203125,792.967041015625,796.996337890625,797.3992919921875
1306,801.4285888671875,793.3699340820312,801.4285888671875,799.4139404296875
1307,800.2197875976562,795.7875366210938,799.8168334960938,796.996337890625
1308,801.8314819335938,795.3846435546875,803.4432373046875,802.6373901367188
1309,796.996337890625,791.7582397460938,800.6226806640625,798.2051391601562
1310,800.6226806640625,789.3406372070312,799.010986328125,799.010986328125
1311,801.025634765625,794.981689453125,802.6373901367188,800.6226806640625
1312,797.8021850585938,794.981689453125,805.4578857421875,803.4432373046875
1313,802.6373901367188,790.1465454101562,808.2783813476562,809.084228515625
1314,800.2197875976562,790.5494384765625,806.2637329101562,805.4578857421875
1315,798.2051391601562,794.981689453125,803.8461303710938,799.8168334960938
1316,805.054931640625,796.5933837890625,802.2344360351562,804.2490844726562
1317,802.2344360351562,792.5640869140625,801.4285888671875,808.2783813476562
1318,794.5787353515625,788.937744140625,798.6080322265625,803.040283203125
1319,794.981689453125,790.5494384765625,798.6080322265625,801.025634765625
1320,803.040283203125,794.5787353515625,806.6666870117188,805.4578857421875
1321,802.2344360351562,793.7728881835938,805.4578857421875,804.2490844726562
1322,799.010986328125,792.967041015625,803.040283203125,796.5933837890625
1323,799.4139404296875,795.3846435546875,808.6813354492188,798.6080322265625
1324,798.2051391601562,792.5640869140625,809.084228515625,803.8461303710938
1325,796.996337890625,790.952392578125,807.87548828125,802.2344360351562
1326,797.3992919921875,791.3552856445312,811.90478515625,798.2051391601562
1327,796.996337890625,791.3552856445312,811.098876953125,799.4139404296875
1328,796.996337890625,788.937744140625,811.098876953125,807.4725341796875
1329,797.3992919921875,790.5494384765625,816.7399291992188,812.3076782226562
1330,795.3846435546875,793.3699340820312,814.7252807617188,807.069580078125
1331,797.8021850585938,792.1611938476562,813.113525390625,808.2783813476562
1332,796.996337890625,790.1465454101562,814.3223266601562,810.2930297851562
1333,794.981689453125,791.7582397460938,812.3076782226562,800.6226806640625
1334,794.1758422851562,797.8021850585938,814.7252807617188,796.5933837890625
1335,797.3992919921875,799.8168334960938,817.94873046875,799.8168334960938
1336,796.1904907226562,798.2051391601562,813.5164794921875,795.7875366210938
1337,790.952392578125,796.1904907226562,809.4871826171875,792.5640869140625
1338,796.5933837890625,793.3699340820312,810.2930297851562,794.1758422851562
1339,797.8021850585938,792.5640869140625,808.6813354492188,795.3846435546875
1340,796.1904907226562,792.5640869140625,809.4871826171875,796.996337890625
1341,797.8021850585938,796.5933837890625,809.4871826171875,799.4139404296875
1342,793.7728881835938,799.010986328125,809.89013671875,795.7875366210938
1343,794.5787353515625,795.7875366210938,809.89013671875,793.3699340820312
1344,797.3992919921875,795.7875366210938,804.2490844726562,799.4139404296875
1345,792.967041015625,802.2344360351562,807.069580078125,792.967041015625
1346,794.5787353515625,805.4578857421875,811.5018310546875,796.996337890625
1347,796.5933837890625,803.4432373046875,809.4871826171875,801.025634765625
1348,797.3992919921875,805.054931640625,806.6666870117188,790.5494384765625
1349,801.8314819335938,805.4578857421875,807.069580078125,783.6996459960938
1350,799.4139404296875,799.8168334960938,803.4432373046875,786.923095703125
1351,796.5933837890625,796.1904907226562,802.2344360351562,793.3699340820312
1352,794.981689453125,796.996337890625,800.2197875976562,792.1611938476562
1353,793.3699340820312,799.8168334960938,800.6226806640625,796.5933837890625
1354,799.010986328125,795.3846435546875,807.069580078125,805.4578857421875
1355,805.054931640625,791.3552856445312,805.8607788085938,810.6959838867188
1356,800.2197875976562,792.1611938476562,806.6666870117188,811.5018310546875
1357,795.3846435546875,792.1611938476562,810.6959838867188,807.87548828125
1358,793.7728881835938,790.952392578125,805.4578857421875,807.4725341796875
1359,792.5640869140625,787.7289428710938,800.2197875976562,807.069580078125
1360,798.6080322265625,788.5347900390625,801.8314819335938,808.2783813476562
1361,806.6666870117188,791.3552856445312,802.2344360351562,814.7252807617188
1362,805.4578857421875,790.952392578125,805.8607788085938,817.1428833007812
1363,801.025634765625,791.7582397460938,809.4871826171875,811.5018310546875
1364,799.010986328125,792.5640869140625,807.87548828125,809.4871826171875
1365,796.5933837890625,790.1465454101562,807.069580078125,808.2783813476562
1366,796.5933837890625,792.1611938476562,805.8607788085938,807.069580078125
1367,796.1904907226562,793.3699340820312,803.8461303710938,805.4578857421875
1368,799.010986328125,793.7728881835938,805.8607788085938,798.6080322265625
1369,801.4285888671875,796.1904907226562,808.2783813476562,796.5933837890625
1370,803.8461303710938,787.7289428710938,803.8461303710938,799.4139404296875
1371,807.87548828125,784.5054931640625,802.2344360351562,797.8021850585938
1372,800.2197875976562,793.3699340820312,803.4432373046875,789.7435913085938
1373,786.923095703125,791.7582397460938,798.6080322265625,787.3259887695312
1374,782.087890625,783.2966918945312,794.1758422851562,788.1318969726562
1375,783.6996459960938,785.7142944335938,796.5933837890625,785.7142944335938
1376,789.3406372070312,787.3259887695312,799.8168334960938,788.937744140625
1377,799.4139404296875,785.7142944335938,801.4285888671875,801.4285888671875
1378,803.4432373046875,785.7142944335938,802.2344360351562,808.2783813476562
1379,798.6080322265625,790.5494384765625,802.2344360351562,806.6666870117188
1380,794.981689453125,799.8168334960938,803.040283203125,799.010986328125
1381,799.4139404296875,799.8168334960938,809.4871826171875,799.8168334960938
1382,797.8021850585938,792.1611938476562,813.91943359375,802.6373901367188
1383,797.8021850585938,792.5640869140625,814.7252807617188,805.4578857421875
1384,805.4578857421875,796.5933837890625,818.7545776367188,815.1282348632812
1385,803.040283203125,794.5787353515625,817.1428833007812,814.7252807617188
1386,797.8021850585938,796.996337890625,812.7106323242188,806.6666870117188
1387,796.5933837890625,801.025634765625,813.113525390625,803.8461303710938
1388,799.8168334960938,799.010986328125,813.91943359375,805.8607788085938
1389,804.2490844726562,797.3992919921875,811.90478515625,809.4871826171875
1390,805.054931640625,801.4285888671875,810.2930297851562,812.7106323242188
1391,799.010986328125,802.2344360351562,809.89013671875,805.8607788085938
1392,796.1904907226562,797.8021850585938,808.6813354492188,802.6373901367188
1393,796.5933837890625,794.5787353515625,807.069580078125,801.8314819335938
1394,794.5787353515625,795.7875366210938,806.2637329101562,796.996337890625
1395,790.1465454101562,794.1758422851562,807.069580078125,794.1758422851562
1396,792.5640869140625,796.1904907226562,808.6813354492188,799.4139404296875
1397,800.6226806640625,799.4139404296875,806.2637329101562,802.6373901367188
1398,802.6373901367188,803.040283203125,809.4871826171875,802.2344360351562
1399,799.8168334960938,801.8314819335938,812.3076782226562,805.4578857421875
1400,798.6080322265625,798.6080322265625,810.6959838867188,797.3992919921875
1401,803.8461303710938,801.025634765625,811.098876953125,798.2051391601562
1402,796.5933837890625,800.6226806640625,811.90478515625,799.8168334960938
1403,794.981689453125,798.6080322265625,812.7106323242188,795.3846435546875
1404,799.8168334960938,796.1904907226562,811.098876953125,798.2051391601562
1405,798.2051391601562,793.3699340820312,807.069580078125,799.4139404296875
1406,804.6520385742188,799.8168334960938,809.4871826171875,804.6520385742188
1407,806.6666870117188,801.4285888671875,805.4578857421875,803.4432373046875
1408,804.2490844726562,795.7875366210938,800.6226806640625,805.4578857421875
1409,803.4432373046875,797.8021850585938,803.4432373046875,813.113525390625
1410,801.8314819335938,798.6080322265625,802.6373901367188,806.6666870117188
1411,805.8607788085938,801.025634765625,804.6520385742188,802.2344360351562
1412,808.2783813476562,801.025634765625,803.8461303710938,805.8607788085938
1413,809.4871826171875,796.996337890625,800.2197875976562,811.098876953125
1414,805.054931640625,798.6080322265625,796.1904907226562,801.8314819335938
1415,802.6373901367188,802.2344360351562,800.2197875976562,798.2051391601562
1416,807.87548828125,803.4432373046875,805.054931640625,803.8461303710938
1417,803.4432373046875,800.2197875976562,801.8314819335938,800.2197875976562
1418,797.8021850585938,801.025634765625,802.6373901367188,800.2197875976562
1419,796.1904907226562,802.2344360351562,804.2490844726562,802.6373901367188
1420,794.1758422851562,801.025634765625,801.025634765625,803.040283203125
1421,791.3552856445312,797.8021850585938,800.2197875976562,797.8021850585938
1422,790.952392578125,794.981689453125,797.8021850585938,794.1758422851562
1423,796.1904907226562,797.8021850585938,797.8021850585938,795.3846435546875
1424,801.025634765625,795.7875366210938,799.010986328125,794.1758422851562
1425,799.010986328125,794.5787353515625,803.040283203125,788.5347900390625
1426,796.996337890625,792.967041015625,805.054931640625,788.5347900390625
1427,800.2197875976562,791.3552856445312,803.8461303710938,796.996337890625
1428,801.4285888671875,790.5494384765625,804.6520385742188,804.2490844726562
1429,799.010986328125,790.5494384765625,804.6520385742188,797.3992919921875
1430,796.1904907226562,794.1758422851562,805.4578857421875,788.1318969726562
1431,798.2051391601562,793.3699340820312,801.8314819335938,792.1611938476562
1432,807.069580078125,790.5494384765625,805.054931640625,800.2197875976562
1433,803.4432373046875,792.5640869140625,810.6959838867188,797.3992919921875
1434,798.6080322265625,793.3699340820312,803.4432373046875,800.6226806640625
1435,799.4139404296875,792.1611938476562,803.040283203125,812.7106323242188
1436,798.2051391601562,790.1465454101562,805.054931640625,814.3223266601562
1437,793.3699340820312,787.3259887695312,801.4285888671875,815.5311279296875
1438,801.4285888671875,790.952392578125,808.2783813476562,823.99267578125
1439,811.90478515625,796.5933837890625,815.5311279296875,832.8571166992188
1440,807.4725341796875,797.8021850585938,811.90478515625,828.8278198242188
1441,806.6666870117188,796.5933837890625,810.2930297851562,823.5897216796875
1442,807.4725341796875,795.3846435546875,805.4578857421875,821.5750732421875
1443,801.4285888671875,792.1611938476562,806.2637329101562,817.1428833007812
1444,800.6226806640625,792.1611938476562,805.054931640625,811.098876953125
1445,797.8021850585938,796.5933837890625,803.040283203125,810.2930297851562
1446,793.7728881835938,796.1904907226562,803.4432373046875,810.2930297851562
1447,800.2197875976562,792.967041015625,799.010986328125,815.93408203125
1448,806.6666870117188,794.5787353515625,799.8168334960938,825.2014770507812
1449,799.8168334960938,794.1758422851562,802.2344360351562,811.5018310546875
1450,799.4139404296875,794.981689453125,807.069580078125,799.8168334960938
1451,804.2490844726562,796.5933837890625,804.6520385742188,804.2490844726562
1452,804.2490844726562,798.2051391601562,803.040283203125,798.6080322265625
1453,811.5018310546875,801.4285888671875,805.8607788085938,794.981689453125
1454,813.5164794921875,803.8461303710938,802.6373901367188,796.996337890625
1455,812.3076782226562,801.8314819335938,802.2344360351562,805.4578857421875
1456,811.90478515625,801.4285888671875,802.6373901367188,805.054931640625
1457,813.113525390625,801.4285888671875,805.8607788085938,809.4871826171875
1458,816.3369750976562,801.4285888671875,809.084228515625,819.96337890625
1459,817.94873046875,800.6226806640625,809.084228515625,823.5897216796875
1460,817.5457763671875,799.010986328125,808.2783813476562,825.6043701171875
1461,815.93408203125,797.3992919921875,808.6813354492188,823.99267578125
1462,817.94873046875,799.4139404296875,807.069580078125,823.99267578125
1463,817.1428833007812,797.8021850585938,808.2783813476562,829.2307739257812
1464,812.7106323242188,799.4139404296875,809.89013671875,822.7838745117188
1465,807.4725341796875,801.4285888671875,809.084228515625,821.97802734375
1466,805.054931640625,799.010986328125,811.5018310546875,827.2161254882812
1467,806.2637329101562,797.3992919921875,810.6959838867188,822.7838745117188
1468,807.069580078125,799.4139404296875,807.069580078125,819.1575317382812
1469,809.4871826171875,801.025634765625,809.084228515625,819.1575317382812
1470,807.87548828125,794.5787353515625,811.90478515625,815.93408203125
1471,796.1904907226562,794.981689453125,808.2783813476562,807.87548828125
1472,795.7875366210938,798.2051391601562,804.6520385742188,797.3992919921875
1473,799.010986328125,794.1758422851562,807.4725341796875,793.7728881835938
1474,796.996337890625,794.5787353515625,806.2637329101562,798.2051391601562
1475,794.1758422851562,797.8021850585938,802.6373901367188,792.967041015625
1476,794.981689453125,799.8168334960938,805.054931640625,787.7289428710938
1477,800.6226806640625,797.3992919921875,806.2637329101562,784.5054931640625
1478,801.4285888671875,797.8021850585938,801.4285888671875,782.4908447265625
1479,799.4139404296875,794.981689453125,799.4139404296875,784.1025390625
1480,802.6373901367188,794.1758422851562,800.2197875976562,786.1171875
1481,803.4432373046875,799.8168334960938,796.1904907226562,790.1465454101562
1482,801.025634765625,798.6080322265625,795.3846435546875,795.7875366210938
1483,800.2197875976562,796.996337890625,797.8021850585938,798.2051391601562
1484,804.6520385742188,799.010986328125,802.2344360351562,799.8168334960938
1485,810.6959838867188,801.025634765625,806.6666870117188,807.87548828125
1486,813.113525390625,800.2197875976562,807.4725341796875,819.1575317382812
1487,807.4725341796875,800.2197875976562,807.87548828125,812.3076782226562
1488,803.4432373046875,801.8314819335938,806.6666870117188,805.8607788085938
1489,812.7106323242188,802.2344360351562,807.87548828125,819.5604248046875
1490,809.4871826171875,801.4285888671875,812.3076782226562,821.97802734375
1491,801.4285888671875,798.2051391601562,811.90478515625,812.3076782226562
1492,798.6080322265625,795.3846435546875,808.6813354492188,808.2783813476562
1493,799.010986328125,796.5933837890625,807.4725341796875,808.2783813476562
1494,801.025634765625,798.6080322265625,809.89013671875,811.5018310546875
1495,799.8168334960938,796.996337890625,812.3076782226562,809.4871826171875
1496,799.4139404296875,797.3992919921875,809.4871826171875,805.8607788085938
1497,799.8168334960938,798.6080322265625,809.4871826171875,809.4871826171875
1498,799.4139404296875,797.3992919921875,806.6666870117188,807.069580078125
1499,804.2490844726562,799.8168334960938,805.4578857421875,795.3846435546875
1500,804.6520385742188,798.2051391601562,807.87548828125,793.7728881835938
1501,800.2197875976562,797.3992919921875,807.87548828125,795.7875366210938
1502,801.4285888671875,798.6080322265625,807.87548828125,799.4139404296875
1503,807.069580078125,797.3992919921875,811.098876953125,805.4578857421875
1504,808.6813354492188,798.2051391601562,810.6959838867188,812.7106323242188
1505,807.069580078125,801.8314819335938,799.8168334960938,803.040283203125
1506,796.996337890625,803.4432373046875,802.6373901367188,786.5201416015625
1507,789.7435913085938,796.1904907226562,809.89013671875,786.923095703125
1508,797.3992919921875,796.996337890625,808.6813354492188,796.996337890625
1509,803.040283203125,799.010986328125,806.6666870117188,807.87548828125
1510,803.040283203125,793.7728881835938,810.6959838867188,811.5018310546875
1511,798.2051391601562,795.3846435546875,811.90478515625,803.8461303710938
1512,800.2197875976562,794.1758422851562,808.6813354492188,812.7106323242188
1513,801.4285888671875,788.937744140625,805.8607788085938,821.97802734375
1514,796.5933837890625,794.1758422851562,805.4578857421875,807.069580078125
1515,801.025634765625,797.8021850585938,806.6666870117188,799.4139404296875
1516,800.2197875976562,794.5787353515625,807.069580078125,798.2051391601562
1517,796.5933837890625,796.1904907226562,807.069580078125,791.7582397460938
1518,797.8021850585938,799.4139404296875,807.069580078125,794.5787353515625
1519,797.8021850585938,797.8021850585938,811.098876953125,801.8314819335938
1520,798.2051391601562,792.967041015625,808.6813354492188,806.2637329101562
1521,799.4139404296875,791.7582397460938,806.2637329101562,805.4578857421875
1522,801.025634765625,797.8021850585938,804.2490844726562,805.054931640625
1523,800.6226806640625,799.4139404296875,802.6373901367188,804.2490844726562
1524,797.8021850585938,796.5933837890625,806.2637329101562,810.2930297851562
1525,796.5933837890625,799.010986328125,806.2637329101562,810.6959838867188
1526,795.7875366210938,800.6226806640625,804.6520385742188,798.6080322265625
1527,792.5640869140625,797.8021850585938,807.87548828125,796.5933837890625
1528,796.1904907226562,798.6080322265625,809.084228515625,799.8168334960938
1529,802.6373901367188,799.010986328125,809.4871826171875,801.4285888671875
1530,806.6666870117188,798.6080322265625,807.87548828125,802.2344360351562
1531,810.2930297851562,799.010986328125,809.4871826171875,804.6520385742188
1532,807.4725341796875,802.2344360351562,811.098876953125,808.2783813476562
1533,805.4578857421875,803.040283203125,811.5018310546875,814.3223266601562
1534,804.2490844726562,804.2490844726562,809.084228515625,815.1282348632812
1535,801.4285888671875,802.6373901367188,805.8607788085938,810.6959838867188
1536,800.6226806640625,800.6226806640625,804.2490844726562,817.5457763671875
1537,797.3992919921875,804.2490844726562,803.4432373046875,813.5164794921875
1538,801.025634765625,802.2344360351562,807.4725341796875,806.6666870117188
1539,803.040283203125,800.6226806640625,810.2930297851562,817.5457763671875
1540,805.4578857421875,802.6373901367188,810.6959838867188,825.2014770507812
1541,802.6373901367188,799.010986328125,808.2783813476562,812.3076782226562
1542,799.8168334960938,798.6080322265625,809.084228515625,805.8607788085938
1543,809.084228515625,800.6226806640625,810.2930297851562,808.6813354492188
1544,809.084228515625,798.6080322265625,805.8607788085938,814.3223266601562
1545,809.89013671875,798.6080322265625,804.2490844726562,817.1428833007812
1546,811.90478515625,799.010986328125,808.2783813476562,808.6813354492188
1547,810.2930297851562,796.996337890625,808.2783813476562,813.5164794921875
1548,807.4725341796875,799.010986328125,806.2637329101562,814.7252807617188
1549,807.4725341796875,802.6373901367188,807.069580078125,808.6813354492188
1550,810.6959838867188,802.6373901367188,807.4725341796875,813.91943359375
1551,805.054931640625,799.8168334960938,807.87548828125,817.94873046875
1552,798.2051391601562,797.8021850585938,807.87548828125,814.3223266601562
1553,798.2051391601562,796.5933837890625,805.4578857421875,806.6666870117188
1554,800.6226806640625,795.7875366210938,804.2490844726562,805.8607788085938
1555,799.4139404296875,792.967041015625,803.4432373046875,809.4871826171875
1556,800.6226806640625,796.5933837890625,805.054931640625,812.3076782226562
1557,803.040283203125,798.6080322265625,807.069580078125,805.8607788085938
1558,805.4578857421875,792.967041015625,809.084228515625,804.2490844726562
1559,799.8168334960938,791.3552856445312,805.054931640625,811.5018310546875
1560,788.5347900390625,794.1758422851562,805.4578857421875,804.2490844726562
1561,791.3552856445312,798.6080322265625,811.90478515625,799.010986328125
1562,795.7875366210938,801.025634765625,811.098876953125,804.2490844726562
1563,791.7582397460938,796.996337890625,807.87548828125,803.8461303710938
1564,790.952392578125,794.981689453125,806.2637329101562,799.4139404296875
1565,791.7582397460938,798.2051391601562,811.098876953125,796.5933837890625
1566,795.7875366210938,799.010986328125,812.7106323242188,800.6226806640625
1567,800.2197875976562,800.6226806640625,813.113525390625,799.8168334960938
1568,801.8314819335938,801.8314819335938,817.5457763671875,800.2197875976562
1569,800.6226806640625,795.3846435546875,812.7106323242188,804.2490844726562
1570,801.4285888671875,794.981689453125,810.6959838867188,812.3076782226562
1571,798.6080322265625,797.8021850585938,809.084228515625,807.4725341796875
1572,796.996337890625,796.5933837890625,809.4871826171875,797.3992919921875
1573,796.5933837890625,794.5787353515625,809.89013671875,800.6226806640625
1574,793.3699340820312,794.5787353515625,808.2783813476562,799.4139404296875
1575,790.1465454101562,790.1465454101562,803.8461303710938,795.3846435546875
1576,796.1904907226562,793.3699340820312,801.8314819335938,806.6666870117188
