timestamp,RAW_TP9,RAW_AF7,RAW_AF8,RAW_TP10
1,795.7875366210938,794.1758422851562,800.2197875976562,790.5494384765625
2,797.3992919921875,796.5933837890625,796.5933837890625,787.3259887695312
3,807.4725341796875,792.967041015625,794.5787353515625,800.6226806640625
4,807.4725341796875,794.1758422851562,794.1758422851562,805.4578857421875
5,799.010986328125,800.2197875976562,792.5640869140625,795.3846435546875
6,793.3699340820312,789.3406372070312,786.923095703125,788.5347900390625
7,792.967041015625,783.6996459960938,788.1318969726562,789.3406372070312
8,794.981689453125,797.8021850585938,794.981689453125,792.5640869140625
9,801.4285888671875,803.040283203125,797.8021850585938,792.967041015625
10,803.040283203125,797.8021850585938,797.3992919921875,795.3846435546875
11,808.2783813476562,796.996337890625,792.967041015625,802.2344360351562
12,812.3076782226562,799.8168334960938,795.3846435546875,802.6373901367188
13,809.4871826171875,798.6080322265625,800.2197875976562,795.3846435546875
14,812.7106323242188,795.7875366210938,800.6226806640625,803.040283203125
15,815.5311279296875,801.4285888671875,797.8021850585938,813.5164794921875
16,811.90478515625,798.6080322265625,801.8314819335938,814.7252807617188
17,805.8607788085938,791.3552856445312,807.4725341796875,808.2783813476562
18,799.4139404296875,792.5640869140625,801.025634765625,807.4725341796875
19,790.1465454101562,790.5494384765625,797.3992919921875,808.2783813476562
20,785.7142944335938,793.3699340820312,798.2051391601562,798.6080322265625
21,788.937744140625,792.1611938476562,794.5787353515625,793.3699340820312
22,788.937744140625,790.1465454101562,793.3699340820312,788.5347900390625
23,781.6849975585938,793.3699340820312,794.981689453125,785.7142944335938
24,780.879150390625,795.3846435546875,796.5933837890625,789.3406372070312
25,787.7289428710938,788.1318969726562,796.996337890625,791.3552856445312
26,788.5347900390625,785.7142944335938,794.1758422851562,790.952392578125
27,783.6996459960938,791.3552856445312,797.8021850585938,788.1318969726562
28,785.3113403320312,790.952392578125,801.025634765625,788.937744140625
29,785.3113403320312,790.952392578125,800.6226806640625,796.5933837890625
30,788.937744140625,790.952392578125,798.6080322265625,804.6520385742188
31,791.3552856445312,794.981689453125,796.996337890625,792.1611938476562
32,788.5347900390625,801.4285888671875,800.6226806640625,785.7142944335938
33,790.952392578125,797.3992919921875,802.2344360351562,795.3846435546875
34,796.1904907226562,790.952392578125,797.8021850585938,791.3552856445312
35,799.4139404296875,790.5494384765625,796.1904907226562,792.5640869140625
36,793.7728881835938,790.5494384765625,798.6080322265625,796.1904907226562
37,792.967041015625,788.5347900390625,794.1758422851562,796.1904907226562
38,794.1758422851562,788.5347900390625,793.7728881835938,794.981689453125
39,795.3846435546875,791.3552856445312,799.8168334960938,796.996337890625
40,795.3846435546875,794.1758422851562,797.8021850585938,793.7728881835938
41,791.7582397460938,789.7435913085938,796.996337890625,792.967041015625
42,795.3846435546875,782.4908447265625,798.2051391601562,794.1758422851562
43,805.054931640625,788.937744140625,797.8021850585938,791.3552856445312
44,802.2344360351562,795.3846435546875,800.2197875976562,791.7582397460938
45,794.5787353515625,790.5494384765625,804.6520385742188,793.7728881835938
46,792.1611938476562,790.5494384765625,800.6226806640625,788.1318969726562
47,791.7582397460938,796.5933837890625,795.7875366210938,778.8644409179688
48,792.5640869140625,797.3992919921875,796.5933837890625,786.923095703125
49,786.5201416015625,793.3699340820312,792.5640869140625,781.6849975585938
50,785.7142944335938,793.7728881835938,792.1611938476562,773.6264038085938
51,792.5640869140625,798.2051391601562,791.7582397460938,781.2820434570312
52,789.3406372070312,797.3992919921875,791.3552856445312,780.4761962890625
53,788.937744140625,793.7728881835938,793.3699340820312,783.6996459960938
54,791.7582397460938,793.3699340820312,800.6226806640625,790.1465454101562
55,789.3406372070312,796.1904907226562,799.8168334960938,792.1611938476562
56,794.5787353515625,790.1465454101562,794.981689453125,791.3552856445312
57,797.3992919921875,789.3406372070312,800.2197875976562,787.3259887695312
58,796.5933837890625,797.3992919921875,800.6226806640625,786.5201416015625
59,796.1904907226562,795.3846435546875,796.996337890625,786.5201416015625
60,794.1758422851562,794.5787353515625,791.3552856445312,790.1465454101562
61,795.3846435546875,794.1758422851562,790.952392578125,795.7875366210938
62,798.2051391601562,791.7582397460938,795.3846435546875,796.5933837890625
63,795.3846435546875,790.5494384765625,795.3846435546875,798.2051391601562
64,791.7582397460938,786.923095703125,792.5640869140625,799.8168334960938
65,793.3699340820312,783.2966918945312,794.5787353515625,800.2197875976562
66,794.5787353515625,787.7289428710938,797.3992919921875,798.6080322265625
67,792.967041015625,789.7435913085938,792.967041015625,800.6226806640625
68,794.981689453125,789.7435913085938,792.1611938476562,805.054931640625
69,787.7289428710938,788.937744140625,792.967041015625,798.6080322265625
70,780.879150390625,780.879150390625,785.3113403320312,794.1758422851562
71,782.4908447265625,780.4761962890625,783.6996459960938,792.1611938476562
72,785.7142944335938,787.7289428710938,783.6996459960938,791.7582397460938
73,785.7142944335938,788.1318969726562,782.4908447265625,790.952392578125
74,783.6996459960938,788.1318969726562,785.7142944335938,788.5347900390625
75,781.6849975585938,784.908447265625,787.7289428710938,793.3699340820312
76,786.923095703125,784.5054931640625,790.5494384765625,800.6226806640625
77,794.1758422851562,788.937744140625,792.1611938476562,800.6226806640625
78,792.1611938476562,791.7582397460938,791.7582397460938,794.5787353515625
79,790.5494384765625,790.5494384765625,792.5640869140625,788.5347900390625
80,788.937744140625,788.1318969726562,794.1758422851562,786.1171875
81,792.5640869140625,790.5494384765625,796.996337890625,788.937744140625
82,792.967041015625,791.7582397460938,800.2197875976562,788.5347900390625
83,792.1611938476562,786.923095703125,797.3992919921875,791.7582397460938
84,795.7875366210938,789.7435913085938,799.010986328125,797.8021850585938
85,797.3992919921875,798.2051391601562,800.6226806640625,799.010986328125
86,795.3846435546875,796.1904907226562,795.7875366210938,798.6080322265625
87,795.7875366210938,790.5494384765625,794.5787353515625,804.2490844726562
88,795.3846435546875,788.5347900390625,796.1904907226562,810.6959838867188
89,791.7582397460938,784.5054931640625,796.5933837890625,796.5933837890625
90,791.7582397460938,787.3259887695312,800.2197875976562,797.8021850585938
91,787.7289428710938,789.7435913085938,797.8021850585938,805.8607788085938
92,790.1465454101562,787.3259887695312,795.7875366210938,800.2197875976562
93,793.7728881835938,785.3113403320312,799.8168334960938,799.8168334960938
94,794.5787353515625,790.1465454101562,798.2051391601562,796.996337890625
95,794.5787353515625,794.981689453125,798.6080322265625,800.6226806640625
96,796.1904907226562,794.1758422851562,796.996337890625,800.6226806640625
97,796.5933837890625,794.5787353515625,797.3992919921875,797.8021850585938
98,795.3846435546875,796.996337890625,793.3699340820312,796.996337890625
99,796.1904907226562,793.3699340820312,786.923095703125,796.1904907226562
100,797.3992919921875,791.3552856445312,787.3259887695312,792.5640869140625
101,801.8314819335938,796.1904907226562,785.3113403320312,791.3552856445312
102,799.010986328125,796.996337890625,787.3259887695312,788.5347900390625
103,804.2490844726562,794.1758422851562,789.7435913085938,793.3699340820312
104,807.069580078125,794.1758422851562,785.3113403320312,789.7435913085938
105,796.996337890625,796.5933837890625,787.7289428710938,779.6703491210938
106,799.010986328125,790.5494384765625,790.1465454101562,787.3259887695312
107,798.6080322265625,783.6996459960938,788.937744140625,791.3552856445312
108,791.7582397460938,787.3259887695312,787.3259887695312,790.1465454101562
109,789.7435913085938,792.1611938476562,784.908447265625,788.1318969726562
110,789.3406372070312,793.7728881835938,784.908447265625,786.923095703125
111,794.1758422851562,791.7582397460938,789.3406372070312,788.1318969726562
112,800.6226806640625,790.1465454101562,794.5787353515625,797.3992919921875
113,792.1611938476562,791.3552856445312,793.3699340820312,802.6373901367188
114,786.923095703125,786.5201416015625,791.7582397460938,799.8168334960938
115,790.952392578125,785.3113403320312,792.5640869140625,807.069580078125
116,792.1611938476562,792.1611938476562,793.3699340820312,803.4432373046875
117,796.5933837890625,790.952392578125,795.3846435546875,800.6226806640625
118,804.2490844726562,793.7728881835938,800.2197875976562,801.025634765625
119,803.040283203125,798.2051391601562,796.1904907226562,791.7582397460938
120,796.996337890625,787.7289428710938,792.967041015625,788.1318969726562
121,796.5933837890625,786.923095703125,792.967041015625,793.3699340820312
122,799.4139404296875,796.1904907226562,791.7582397460938,795.7875366210938
123,792.5640869140625,795.7875366210938,794.981689453125,788.937744140625
124,790.952392578125,792.967041015625,792.1611938476562,788.937744140625
125,796.996337890625,796.996337890625,789.3406372070312,793.7728881835938
126,796.1904907226562,794.981689453125,794.1758422851562,792.967041015625
127,786.923095703125,790.952392578125,794.1758422851562,787.3259887695312
128,782.893798828125,791.7582397460938,794.5787353515625,788.1318969726562
129,789.3406372070312,794.5787353515625,796.5933837890625,793.7728881835938
130,798.2051391601562,800.6226806640625,801.025634765625,801.8314819335938
131,801.4285888671875,796.996337890625,804.2490844726562,805.8607788085938
132,796.1904907226562,793.7728881835938,800.6226806640625,793.3699340820312
133,796.1904907226562,802.2344360351562,794.981689453125,789.7435913085938
134,794.5787353515625,807.4725341796875,793.7728881835938,795.7875366210938
135,792.967041015625,805.8607788085938,792.1611938476562,790.5494384765625
136,795.3846435546875,804.6520385742188,792.1611938476562,790.5494384765625
137,795.7875366210938,803.4432373046875,794.981689453125,793.3699340820312
138,796.1904907226562,796.5933837890625,792.967041015625,793.3699340820312
139,793.3699340820312,795.3846435546875,794.5787353515625,791.7582397460938
140,796.5933837890625,796.5933837890625,796.996337890625,804.6520385742188
141,802.6373901367188,794.981689453125,794.981689453125,811.90478515625
142,799.8168334960938,797.3992919921875,796.5933837890625,799.4139404296875
143,794.5787353515625,794.5787353515625,797.8021850585938,791.3552856445312
144,793.7728881835938,789.7435913085938,794.981689453125,789.3406372070312
145,790.1465454101562,800.2197875976562,798.2051391601562,795.7875366210938
146,788.937744140625,805.4578857421875,800.2197875976562,800.2197875976562
147,790.5494384765625,799.010986328125,797.8021850585938,803.8461303710938
148,792.5640869140625,795.7875366210938,796.5933837890625,806.2637329101562
149,793.3699340820312,792.967041015625,791.3552856445312,804.6520385742188
150,788.5347900390625,792.5640869140625,789.3406372070312,800.2197875976562
151,792.1611938476562,796.996337890625,796.1904907226562,793.7728881835938
152,797.8021850585938,797.8021850585938,799.8168334960938,801.4285888671875
153,797.8021850585938,796.1904907226562,800.2197875976562,806.2637329101562
154,797.8021850585938,798.6080322265625,803.4432373046875,804.2490844726562
155,798.2051391601562,794.5787353515625,802.2344360351562,799.010986328125
156,800.6226806640625,794.1758422851562,798.6080322265625,800.6226806640625
157,800.2197875976562,802.2344360351562,795.7875366210938,799.4139404296875
158,802.6373901367188,797.8021850585938,793.3699340820312,793.7728881835938
159,807.4725341796875,798.6080322265625,792.967041015625,796.1904907226562
160,803.040283203125,799.010986328125,789.7435913085938,792.1611938476562
161,796.1904907226562,792.967041015625,785.3113403320312,796.1904907226562
162,801.4285888671875,793.3699340820312,789.3406372070312,796.996337890625
163,801.4285888671875,792.1611938476562,786.923095703125,793.3699340820312
164,795.3846435546875,788.937744140625,784.908447265625,788.5347900390625
165,793.7728881835938,788.1318969726562,792.5640869140625,790.952392578125
166,793.3699340820312,789.3406372070312,797.3992919921875,804.2490844726562
167,799.010986328125,788.937744140625,796.5933837890625,806.6666870117188
168,796.996337890625,786.5201416015625,795.7875366210938,798.6080322265625
169,795.7875366210938,787.3259887695312,796.1904907226562,797.3992919921875
170,795.3846435546875,795.3846435546875,794.5787353515625,801.4285888671875
171,789.3406372070312,796.1904907226562,796.1904907226562,800.6226806640625
172,789.7435913085938,791.7582397460938,798.6080322265625,799.4139404296875
173,787.3259887695312,789.7435913085938,793.3699340820312,796.1904907226562
174,786.1171875,788.5347900390625,794.5787353515625,792.967041015625
175,790.5494384765625,791.3552856445312,794.5787353515625,796.5933837890625
176,787.7289428710938,791.3552856445312,792.1611938476562,801.025634765625
177,786.1171875,792.5640869140625,792.5640869140625,792.1611938476562
178,794.1758422851562,799.010986328125,792.967041015625,792.5640869140625
179,803.4432373046875,799.010986328125,796.1904907226562,799.010986328125
180,803.8461303710938,790.952392578125,796.996337890625,801.8314819335938
181,802.6373901367188,789.7435913085938,796.996337890625,796.5933837890625
182,799.4139404296875,795.7875366210938,796.996337890625,782.893798828125
183,799.8168334960938,792.967041015625,793.3699340820312,786.5201416015625
184,797.8021850585938,790.952392578125,791.7582397460938,794.5787353515625
185,796.1904907226562,794.981689453125,793.3699340820312,788.5347900390625
186,794.5787353515625,792.5640869140625,791.7582397460938,781.6849975585938
187,792.1611938476562,792.1611938476562,789.3406372070312,787.3259887695312
188,794.1758422851562,791.3552856445312,790.1465454101562,799.4139404296875
189,786.923095703125,793.3699340820312,789.7435913085938,796.996337890625
190,780.0732421875,790.952392578125,788.5347900390625,789.3406372070312
191,779.2673950195312,784.1025390625,790.1465454101562,786.923095703125
192,782.087890625,785.3113403320312,790.952392578125,787.3259887695312
193,782.893798828125,788.937744140625,792.5640869140625,790.952392578125
194,784.5054931640625,790.952392578125,793.7728881835938,793.7728881835938
195,787.7289428710938,790.5494384765625,792.5640869140625,797.3992919921875
196,787.3259887695312,787.7289428710938,791.7582397460938,797.8021850585938
197,786.1171875,792.1611938476562,794.981689453125,791.7582397460938
198,787.7289428710938,795.3846435546875,794.5787353515625,789.3406372070312
199,787.3259887695312,790.952392578125,792.967041015625,792.5640869140625
200,783.2966918945312,788.937744140625,796.1904907226562,784.908447265625
201,778.4615478515625,791.3552856445312,796.1904907226562,778.8644409179688
202,778.4615478515625,791.3552856445312,792.1611938476562,787.7289428710938
203,783.2966918945312,792.967041015625,793.3699340820312,791.3552856445312
204,787.3259887695312,791.7582397460938,796.5933837890625,789.3406372070312
205,786.923095703125,790.5494384765625,794.981689453125,787.7289428710938
206,786.1171875,791.3552856445312,791.7582397460938,789.7435913085938
207,790.5494384765625,795.7875366210938,793.7728881835938,794.1758422851562
208,785.7142944335938,796.996337890625,795.7875366210938,788.937744140625
209,780.4761962890625,793.7728881835938,793.3699340820312,784.5054931640625
210,788.1318969726562,788.1318969726562,794.1758422851562,787.3259887695312
211,789.3406372070312,788.937744140625,794.5787353515625,792.5640869140625
212,784.908447265625,790.5494384765625,794.981689453125,796.1904907226562
213,785.7142944335938,785.7142944335938,794.981689453125,794.5787353515625
214,789.3406372070312,791.7582397460938,796.996337890625,798.6080322265625
215,787.7289428710938,797.3992919921875,799.010986328125,802.2344360351562
216,783.6996459960938,797.8021850585938,799.4139404296875,795.3846435546875
217,780.879150390625,796.5933837890625,794.981689453125,794.1758422851562
218,782.4908447265625,795.7875366210938,796.996337890625,796.1904907226562
219,785.7142944335938,793.3699340820312,798.6080322265625,796.1904907226562
220,781.6849975585938,792.967041015625,795.3846435546875,791.7582397460938
221,785.3113403320312,796.5933837890625,792.1611938476562,784.908447265625
222,790.952392578125,793.3699340820312,788.1318969726562,788.5347900390625
223,791.3552856445312,789.3406372070312,790.1465454101562,786.1171875
224,789.3406372070312,785.3113403320312,792.1611938476562,775.2380981445312
225,788.5347900390625,786.5201416015625,789.7435913085938,782.087890625
226,790.952392578125,790.5494384765625,789.7435913085938,792.1611938476562
227,797.3992919921875,793.3699340820312,793.7728881835938,791.7582397460938
228,798.2051391601562,796.1904907226562,794.981689453125,788.937744140625
229,797.8021850585938,796.5933837890625,794.5787353515625,795.7875366210938
230,800.6226806640625,795.7875366210938,792.967041015625,797.8021850585938
231,803.4432373046875,791.3552856445312,789.7435913085938,786.923095703125
232,798.2051391601562,787.3259887695312,788.5347900390625,782.087890625
233,798.6080322265625,785.7142944335938,786.1171875,787.3259887695312
234,803.4432373046875,792.1611938476562,785.3113403320312,791.7582397460938
235,794.981689453125,793.3699340820312,787.3259887695312,788.1318969726562
236,795.7875366210938,790.952392578125,788.1318969726562,784.5054931640625
237,795.7875366210938,787.7289428710938,789.7435913085938,784.908447265625
238,790.1465454101562,789.3406372070312,792.967041015625,796.5933837890625
239,794.981689453125,794.981689453125,795.3846435546875,802.2344360351562
240,799.8168334960938,791.7582397460938,793.7728881835938,801.025634765625
241,802.6373901367188,786.923095703125,789.3406372070312,800.2197875976562
242,803.4432373046875,789.3406372070312,791.7582397460938,799.010986328125
243,801.4285888671875,790.1465454101562,792.967041015625,802.2344360351562
244,795.7875366210938,787.7289428710938,795.7875366210938,802.2344360351562
245,795.3846435546875,786.923095703125,797.3992919921875,801.025634765625
246,794.5787353515625,788.5347900390625,796.1904907226562,803.040283203125
247,792.5640869140625,788.5347900390625,799.010986328125,801.8314819335938
248,794.5787353515625,783.2966918945312,793.3699340820312,801.8314819335938
249,786.923095703125,784.5054931640625,792.5640869140625,803.8461303710938
250,791.7582397460938,786.5201416015625,785.7142944335938,786.923095703125
251,793.7728881835938,791.7582397460938,789.3406372070312,783.6996459960938
252,793.7728881835938,788.937744140625,791.7582397460938,786.923095703125
253,789.7435913085938,782.087890625,791.3552856445312,792.5640869140625
254,790.1465454101562,779.6703491210938,792.967041015625,803.040283203125
255,789.3406372070312,784.908447265625,794.981689453125,796.5933837890625
256,786.5201416015625,787.7289428710938,793.3699340820312,788.937744140625
257,790.5494384765625,790.952392578125,793.3699340820312,796.5933837890625
258,794.5787353515625,795.7875366210938,794.1758422851562,799.010986328125
259,795.7875366210938,792.967041015625,794.1758422851562,797.8021850585938
260,796.5933837890625,787.3259887695312,792.967041015625,794.1758422851562
261,799.8168334960938,785.3113403320312,791.7582397460938,796.5933837890625
262,800.6226806640625,783.2966918945312,790.952392578125,805.054931640625
263,790.952392578125,785.3113403320312,791.7582397460938,798.2051391601562
264,791.3552856445312,793.7728881835938,789.3406372070312,784.908447265625
265,802.6373901367188,801.8314819335938,786.923095703125,788.937744140625
266,798.2051391601562,796.1904907226562,786.1171875,788.5347900390625
267,798.2051391601562,789.7435913085938,793.7728881835938,778.8644409179688
268,805.8607788085938,794.5787353515625,798.6080322265625,791.3552856445312
269,801.4285888671875,792.967041015625,794.981689453125,804.6520385742188
270,793.3699340820312,791.3552856445312,796.1904907226562,801.025634765625
271,792.967041015625,795.3846435546875,798.2051391601562,795.7875366210938
272,797.8021850585938,793.3699340820312,799.010986328125,797.3992919921875
273,803.4432373046875,793.7728881835938,798.2051391601562,803.4432373046875
274,801.025634765625,797.8021850585938,796.1904907226562,808.2783813476562
275,793.3699340820312,792.5640869140625,796.1904907226562,809.4871826171875
276,796.996337890625,792.5640869140625,789.3406372070312,806.2637329101562
277,796.996337890625,796.1904907226562,788.1318969726562,800.6226806640625
278,795.7875366210938,794.5787353515625,797.8021850585938,803.4432373046875
279,801.4285888671875,794.1758422851562,800.6226806640625,807.87548828125
280,806.2637329101562,797.3992919921875,799.4139404296875,807.87548828125
281,804.2490844726562,792.1611938476562,801.025634765625,808.2783813476562
282,808.2783813476562,790.952392578125,800.2197875976562,805.8607788085938
283,815.1282348632812,798.6080322265625,799.4139404296875,804.2490844726562
284,805.4578857421875,796.996337890625,799.8168334960938,805.054931640625
285,798.6080322265625,796.1904907226562,798.2051391601562,801.4285888671875
286,796.996337890625,793.3699340820312,797.8021850585938,794.1758422851562
287,792.1611938476562,788.937744140625,794.1758422851562,797.3992919921875
288,788.937744140625,792.1611938476562,792.967041015625,795.7875366210938
289,793.3699340820312,796.996337890625,793.3699340820312,793.3699340820312
290,795.7875366210938,799.8168334960938,788.5347900390625,798.2051391601562
291,796.1904907226562,795.3846435546875,788.1318969726562,797.3992919921875
292,792.967041015625,790.5494384765625,788.1318969726562,806.2637329101562
293,791.3552856445312,792.1611938476562,789.3406372070312,802.6373901367188
294,796.1904907226562,795.3846435546875,792.5640869140625,790.1465454101562
295,801.4285888671875,793.3699340820312,793.7728881835938,794.981689453125
296,796.5933837890625,789.7435913085938,793.3699340820312,797.8021850585938
297,793.3699340820312,792.5640869140625,797.8021850585938,793.7728881835938
298,792.967041015625,793.3699340820312,795.7875366210938,786.5201416015625
299,794.1758422851562,788.1318969726562,788.937744140625,786.5201416015625
300,804.2490844726562,785.3113403320312,787.3259887695312,788.5347900390625
301,808.6813354492188,791.3552856445312,790.952392578125,789.7435913085938
302,803.8461303710938,793.3699340820312,793.3699340820312,787.3259887695312
303,805.054931640625,789.7435913085938,792.5640869140625,787.3259887695312
304,811.5018310546875,786.5201416015625,791.7582397460938,794.1758422851562
305,802.2344360351562,786.5201416015625,790.1465454101562,790.952392578125
306,796.5933837890625,787.7289428710938,794.1758422851562,789.3406372070312
307,799.4139404296875,786.923095703125,799.8168334960938,796.996337890625
308,798.6080322265625,786.5201416015625,796.1904907226562,797.3992919921875
309,803.8461303710938,788.1318969726562,795.3846435546875,801.4285888671875
310,813.5164794921875,783.2966918945312,799.010986328125,812.7106323242188
311,808.6813354492188,782.893798828125,795.7875366210938,805.054931640625
312,790.952392578125,790.5494384765625,793.3699340820312,794.5787353515625
313,783.6996459960938,791.7582397460938,800.2197875976562,796.1904907226562
314,780.0732421875,786.923095703125,800.6226806640625,784.5054931640625
315,790.1465454101562,780.4761962890625,790.5494384765625,790.952392578125
316,800.2197875976562,783.2966918945312,788.5347900390625,803.8461303710938
317,793.7728881835938,786.1171875,792.967041015625,794.1758422851562
318,798.2051391601562,788.5347900390625,790.5494384765625,788.5347900390625
319,798.2051391601562,790.1465454101562,786.1171875,787.7289428710938
320,796.5933837890625,788.5347900390625,788.1318969726562,787.7289428710938
321,799.4139404296875,788.937744140625,788.1318969726562,783.6996459960938
322,800.2197875976562,784.908447265625,787.3259887695312,782.087890625
323,799.4139404296875,787.3259887695312,789.7435913085938,783.2966918945312
324,792.967041015625,791.3552856445312,793.3699340820312,781.6849975585938
325,791.7582397460938,786.1171875,794.5787353515625,783.2966918945312
326,794.981689453125,792.1611938476562,792.1611938476562,791.7582397460938
327,793.3699340820312,793.3699340820312,791.7582397460938,800.6226806640625
328,792.5640869140625,794.981689453125,794.5787353515625,795.3846435546875
329,791.7582397460938,792.5640869140625,794.5787353515625,796.996337890625
330,790.1465454101562,789.7435913085938,795.3846435546875,805.8607788085938
331,792.5640869140625,793.3699340820312,796.1904907226562,803.8461303710938
332,794.5787353515625,789.7435913085938,798.2051391601562,807.4725341796875
333,794.5787353515625,790.1465454101562,798.2051391601562,808.6813354492188
334,791.7582397460938,785.7142944335938,796.1904907226562,806.2637329101562
335,787.3259887695312,782.4908447265625,798.2051391601562,803.4432373046875
336,790.5494384765625,784.1025390625,799.4139404296875,801.025634765625
337,795.7875366210938,780.0732421875,797.8021850585938,801.025634765625
338,799.010986328125,779.2673950195312,799.4139404296875,802.2344360351562
339,797.8021850585938,783.2966918945312,797.8021850585938,802.2344360351562
340,796.5933837890625,785.3113403320312,799.8168334960938,798.2051391601562
341,799.8168334960938,788.1318969726562,801.025634765625,795.7875366210938
342,800.6226806640625,791.7582397460938,796.1904907226562,788.937744140625
343,801.4285888671875,792.967041015625,795.7875366210938,788.1318969726562
344,804.6520385742188,795.3846435546875,798.6080322265625,795.7875366210938
345,804.6520385742188,796.1904907226562,800.2197875976562,797.8021850585938
346,794.981689453125,796.5933837890625,800.2197875976562,792.967041015625
347,794.5787353515625,799.8168334960938,799.010986328125,788.1318969726562
348,801.025634765625,799.4139404296875,795.7875366210938,785.3113403320312
349,799.4139404296875,798.2051391601562,797.3992919921875,796.996337890625
350,796.5933837890625,794.981689453125,796.996337890625,803.8461303710938
351,798.2051391601562,797.3992919921875,797.8021850585938,796.1904907226562
352,800.6226806640625,794.1758422851562,802.2344360351562,800.2197875976562
353,803.8461303710938,791.7582397460938,798.6080322265625,805.054931640625
354,804.6520385742188,796.1904907226562,794.1758422851562,799.4139404296875
355,803.8461303710938,796.996337890625,795.7875366210938,797.8021850585938
356,799.8168334960938,792.967041015625,798.6080322265625,801.025634765625
357,791.3552856445312,790.1465454101562,795.7875366210938,799.8168334960938
358,787.7289428710938,790.1465454101562,791.3552856445312,791.3552856445312
359,787.7289428710938,788.937744140625,791.3552856445312,786.1171875
360,784.1025390625,788.937744140625,790.5494384765625,788.5347900390625
361,792.5640869140625,788.937744140625,795.7875366210938,800.6226806640625
362,793.7728881835938,785.7142944335938,801.025634765625,798.2051391601562
363,788.5347900390625,789.7435913085938,796.1904907226562,787.3259887695312
364,788.5347900390625,792.967041015625,791.3552856445312,784.908447265625
365,784.1025390625,791.7582397460938,791.3552856445312,784.5054931640625
366,789.7435913085938,796.5933837890625,794.981689453125,788.1318969726562
367,796.996337890625,799.4139404296875,794.981689453125,795.3846435546875
368,795.7875366210938,799.010986328125,792.5640869140625,796.1904907226562
369,793.7728881835938,792.967041015625,794.981689453125,795.7875366210938
370,796.5933837890625,790.1465454101562,793.3699340820312,796.996337890625
371,805.8607788085938,794.981689453125,791.3552856445312,798.2051391601562
372,803.4432373046875,787.7289428710938,794.981689453125,796.5933837890625
373,793.7728881835938,788.937744140625,794.1758422851562,792.5640869140625
374,785.3113403320312,799.010986328125,791.3552856445312,785.3113403320312
375,785.3113403320312,794.981689453125,790.952392578125,784.1025390625
376,786.1171875,793.3699340820312,791.7582397460938,789.3406372070312
377,781.6849975585938,792.967041015625,790.1465454101562,786.5201416015625
378,785.7142944335938,796.1904907226562,790.952392578125,790.1465454101562
379,790.1465454101562,796.996337890625,793.3699340820312,792.1611938476562
380,789.3406372070312,792.1611938476562,794.1758422851562,790.1465454101562
381,790.952392578125,796.1904907226562,795.7875366210938,795.7875366210938
382,796.1904907226562,794.981689453125,800.6226806640625,802.6373901367188
383,793.7728881835938,791.7582397460938,797.8021850585938,799.4139404296875
384,786.923095703125,793.7728881835938,793.7728881835938,801.025634765625
385,784.5054931640625,793.7728881835938,798.2051391601562,805.8607788085938
386,782.4908447265625,794.1758422851562,799.010986328125,799.010986328125
387,780.879150390625,794.1758422851562,796.1904907226562,795.3846435546875
388,784.1025390625,790.952392578125,795.3846435546875,793.7728881835938
389,791.7582397460938,791.7582397460938,799.4139404296875,794.1758422851562
390,794.1758422851562,794.981689453125,802.2344360351562,796.1904907226562
391,798.6080322265625,793.3699340820312,797.8021850585938,792.5640869140625
392,808.6813354492188,791.3552856445312,795.7875366210938,799.010986328125
393,809.4871826171875,790.5494384765625,793.7728881835938,804.2490844726562
394,805.4578857421875,788.5347900390625,793.7728881835938,803.040283203125
395,801.4285888671875,788.5347900390625,792.967041015625,807.87548828125
396,798.2051391601562,794.1758422851562,794.5787353515625,808.6813354492188
397,796.996337890625,793.3699340820312,797.8021850585938,803.8461303710938
398,796.1904907226562,794.1758422851562,798.6080322265625,799.8168334960938
399,800.2197875976562,794.1758422851562,798.6080322265625,800.2197875976562
400,797.3992919921875,791.3552856445312,796.996337890625,805.4578857421875
401,789.3406372070312,795.3846435546875,796.5933837890625,799.8168334960938
402,786.1171875,792.967041015625,792.967041015625,798.6080322265625
403,786.1171875,788.937744140625,790.1465454101562,792.1611938476562
404,788.937744140625,787.7289428710938,791.7582397460938,782.4908447265625
405,792.1611938476562,788.937744140625,797.3992919921875,787.3259887695312
406,793.7728881835938,790.5494384765625,799.010986328125,792.5640869140625
407,794.1758422851562,790.952392578125,795.3846435546875,790.5494384765625
408,796.5933837890625,789.7435913085938,794.1758422851562,785.7142944335938
409,798.2051391601562,791.3552856445312,797.8021850585938,791.3552856445312
410,796.1904907226562,796.996337890625,798.2051391601562,797.8021850585938
411,798.6080322265625,795.7875366210938,801.4285888671875,800.2197875976562
412,801.8314819335938,796.996337890625,802.6373901367188,799.4139404296875
413,801.025634765625,799.010986328125,796.996337890625,796.5933837890625
414,801.025634765625,796.996337890625,792.967041015625,795.7875366210938
415,799.4139404296875,795.7875366210938,793.3699340820312,804.6520385742188
416,802.2344360351562,792.5640869140625,793.3699340820312,809.084228515625
417,802.2344360351562,792.1611938476562,795.3846435546875,799.4139404296875
418,804.6520385742188,794.1758422851562,792.5640869140625,802.2344360351562
419,810.2930297851562,792.967041015625,788.937744140625,806.2637329101562
420,802.2344360351562,791.7582397460938,795.3846435546875,803.040283203125
421,793.7728881835938,784.5054931640625,795.7875366210938,796.5933837890625
422,793.7728881835938,781.6849975585938,789.3406372070312,792.1611938476562
423,795.7875366210938,787.3259887695312,787.7289428710938,803.040283203125
424,794.1758422851562,788.5347900390625,795.3846435546875,799.4139404296875
425,789.7435913085938,791.7582397460938,796.1904907226562,788.1318969726562
426,786.5201416015625,791.3552856445312,789.3406372070312,790.1465454101562
427,780.4761962890625,787.3259887695312,792.5640869140625,789.7435913085938
428,785.3113403320312,786.5201416015625,790.1465454101562,786.1171875
429,794.1758422851562,786.1171875,788.5347900390625,783.6996459960938
430,792.967041015625,792.5640869140625,792.1611938476562,783.6996459960938
431,792.5640869140625,795.7875366210938,791.7582397460938,787.7289428710938
432,796.1904907226562,797.8021850585938,795.7875366210938,797.3992919921875
433,797.8021850585938,794.981689453125,798.6080322265625,794.5787353515625
434,796.996337890625,790.952392578125,794.5787353515625,798.6080322265625
435,799.8168334960938,803.8461303710938,794.981689453125,806.2637329101562
436,800.2197875976562,805.4578857421875,801.025634765625,803.8461303710938
437,799.010986328125,798.6080322265625,799.010986328125,799.4139404296875
438,796.996337890625,802.2344360351562,796.1904907226562,791.7582397460938
439,792.1611938476562,805.4578857421875,796.996337890625,793.3699340820312
440,799.010986328125,800.2197875976562,797.8021850585938,801.8314819335938
441,801.4285888671875,793.3699340820312,799.8168334960938,802.6373901367188
442,794.981689453125,794.5787353515625,796.5933837890625,794.981689453125
443,788.5347900390625,797.3992919921875,796.5933837890625,792.5640869140625
444,789.3406372070312,794.1758422851562,798.2051391601562,791.7582397460938
445,794.981689453125,786.923095703125,792.1611938476562,794.5787353515625
446,790.952392578125,791.3552856445312,786.1171875,798.2051391601562
447,795.7875366210938,791.3552856445312,792.967041015625,797.3992919921875
448,798.2051391601562,786.1171875,792.967041015625,794.1758422851562
449,793.3699340820312,791.7582397460938,790.5494384765625,791.3552856445312
450,791.7582397460938,792.5640869140625,791.3552856445312,789.7435913085938
451,784.908447265625,792.967041015625,786.923095703125,786.1171875
452,782.4908447265625,789.7435913085938,785.7142944335938,780.4761962890625
453,785.3113403320312,784.908447265625,784.1025390625,782.087890625
454,784.908447265625,788.1318969726562,781.6849975585938,789.3406372070312
455,785.7142944335938,789.7435913085938,787.3259887695312,788.937744140625
456,790.1465454101562,788.5347900390625,792.1611938476562,783.2966918945312
457,790.1465454101562,785.3113403320312,789.3406372070312,782.893798828125
458,788.1318969726562,788.1318969726562,790.5494384765625,782.087890625
459,790.952392578125,794.981689453125,796.996337890625,780.4761962890625
460,796.996337890625,791.7582397460938,798.6080322265625,786.5201416015625
461,796.1904907226562,794.1758422851562,797.3992919921875,783.6996459960938
462,796.996337890625,799.8168334960938,796.1904907226562,786.923095703125
463,797.8021850585938,794.981689453125,793.7728881835938,788.5347900390625
464,791.7582397460938,791.3552856445312,793.3699340820312,788.5347900390625
465,788.5347900390625,792.1611938476562,794.1758422851562,794.5787353515625
466,795.7875366210938,795.7875366210938,791.3552856445312,790.1465454101562
467,800.2197875976562,800.2197875976562,792.5640869140625,791.3552856445312
468,800.2197875976562,794.5787353515625,798.2051391601562,798.6080322265625
469,801.8314819335938,789.7435913085938,792.5640869140625,799.010986328125
470,796.996337890625,794.5787353515625,789.7435913085938,790.5494384765625
471,788.5347900390625,792.5640869140625,793.7728881835938,787.3259887695312
472,787.3259887695312,786.1171875,792.5640869140625,782.087890625
473,785.7142944335938,787.7289428710938,791.3552856445312,779.6703491210938
474,787.3259887695312,794.1758422851562,786.1171875,782.087890625
475,792.967041015625,795.7875366210938,786.1171875,781.6849975585938
476,795.7875366210938,797.3992919921875,790.1465454101562,788.1318969726562
477,790.1465454101562,799.4139404296875,791.7582397460938,790.1465454101562
478,784.5054931640625,797.8021850585938,794.1758422851562,788.1318969726562
479,786.1171875,794.981689453125,795.7875366210938,790.1465454101562
480,792.5640869140625,794.5787353515625,797.8021850585938,798.6080322265625
481,791.3552856445312,793.3699340820312,800.2197875976562,799.8168334960938
482,788.1318969726562,793.7728881835938,799.010986328125,798.2051391601562
483,791.7582397460938,794.5787353515625,799.4139404296875,799.4139404296875
484,790.1465454101562,787.7289428710938,801.8314819335938,799.8168334960938
485,783.2966918945312,781.6849975585938,799.4139404296875,792.1611938476562
486,783.6996459960938,785.3113403320312,794.5787353515625,792.5640869140625
487,786.1171875,788.1318969726562,791.7582397460938,800.6226806640625
488,786.5201416015625,788.937744140625,795.3846435546875,797.3992919921875
489,784.1025390625,792.967041015625,796.1904907226562,789.3406372070312
490,784.5054931640625,792.967041015625,792.1611938476562,786.1171875
491,791.3552856445312,788.5347900390625,797.3992919921875,792.967041015625
492,790.1465454101562,788.937744140625,802.6373901367188,794.1758422851562
493,788.1318969726562,794.1758422851562,803.040283203125,787.7289428710938
494,794.1758422851562,796.996337890625,802.2344360351562,786.1171875
495,801.025634765625,796.996337890625,799.8168334960938,788.937744140625
496,801.4285888671875,792.5640869140625,797.3992919921875,795.3846435546875
497,796.5933837890625,795.7875366210938,798.6080322265625,792.5640869140625
498,796.1904907226562,799.010986328125,800.6226806640625,785.7142944335938
499,796.1904907226562,793.3699340820312,799.4139404296875,779.6703491210938
500,789.7435913085938,792.967041015625,797.8021850585938,778.05859375
501,786.1171875,792.5640869140625,798.6080322265625,786.923095703125
502,788.5347900390625,794.5787353515625,799.8168334960938,794.5787353515625
503,790.952392578125,796.1904907226562,801.4285888671875,792.967041015625
504,798.2051391601562,794.1758422851562,801.8314819335938,794.1758422851562
505,803.4432373046875,792.967041015625,799.8168334960938,799.010986328125
506,802.2344360351562,785.7142944335938,798.6080322265625,797.8021850585938
507,796.996337890625,786.923095703125,796.1904907226562,803.8461303710938
508,795.7875366210938,792.5640869140625,795.7875366210938,803.040283203125
509,789.7435913085938,787.7289428710938,797.3992919921875,788.5347900390625
510,793.7728881835938,786.5201416015625,799.4139404296875,793.7728881835938
511,804.6520385742188,785.3113403320312,802.6373901367188,800.6226806640625
512,797.8021850585938,788.1318969726562,801.4285888671875,794.1758422851562
513,789.7435913085938,793.7728881835938,794.5787353515625,792.5640869140625
514,796.1904907226562,793.3699340820312,796.1904907226562,800.6226806640625
515,801.4285888671875,793.7728881835938,801.025634765625,803.040283203125
516,802.6373901367188,795.7875366210938,801.4285888671875,794.5787353515625
517,802.6373901367188,797.8021850585938,798.6080322265625,795.7875366210938
518,800.2197875976562,797.8021850585938,798.2051391601562,801.025634765625
519,795.3846435546875,793.3699340820312,795.7875366210938,794.1758422851562
520,795.7875366210938,792.967041015625,796.5933837890625,785.3113403320312
521,801.4285888671875,794.5787353515625,801.025634765625,790.1465454101562
522,800.2197875976562,788.937744140625,795.3846435546875,796.1904907226562
523,807.87548828125,791.7582397460938,799.010986328125,796.996337890625
524,811.098876953125,802.2344360351562,798.2051391601562,796.5933837890625
525,800.6226806640625,799.8168334960938,791.7582397460938,794.1758422851562
526,796.996337890625,798.2051391601562,796.1904907226562,795.3846435546875
527,799.4139404296875,798.2051391601562,796.996337890625,793.7728881835938
528,796.996337890625,793.3699340820312,794.5787353515625,790.952392578125
529,795.7875366210938,792.5640869140625,792.5640869140625,793.3699340820312
530,799.8168334960938,790.952392578125,792.5640869140625,794.1758422851562
531,794.981689453125,793.7728881835938,791.7582397460938,789.3406372070312
532,787.3259887695312,794.1758422851562,792.5640869140625,785.3113403320312
533,786.923095703125,790.5494384765625,791.3552856445312,784.1025390625
534,787.3259887695312,795.3846435546875,788.1318969726562,785.7142944335938
535,787.3259887695312,794.1758422851562,790.5494384765625,786.923095703125
536,791.7582397460938,784.908447265625,792.5640869140625,780.0732421875
537,791.3552856445312,784.5054931640625,792.1611938476562,781.2820434570312
538,788.1318969726562,788.1318969726562,796.5933837890625,792.967041015625
539,791.3552856445312,795.3846435546875,796.5933837890625,791.7582397460938
540,791.3552856445312,799.010986328125,795.3846435546875,788.937744140625
541,790.952392578125,792.967041015625,797.3992919921875,790.952392578125
542,792.1611938476562,792.1611938476562,795.7875366210938,789.7435913085938
543,791.7582397460938,792.5640869140625,798.6080322265625,791.3552856445312
544,796.5933837890625,789.7435913085938,801.4285888671875,796.5933837890625
545,803.4432373046875,791.3552856445312,797.8021850585938,799.8168334960938
546,802.6373901367188,791.7582397460938,791.7582397460938,796.1904907226562
547,799.8168334960938,793.7728881835938,792.5640869140625,788.937744140625
548,801.025634765625,797.8021850585938,794.5787353515625,791.3552856445312
549,803.8461303710938,791.7582397460938,794.1758422851562,796.1904907226562
550,808.6813354492188,789.7435913085938,792.5640869140625,789.7435913085938
551,804.6520385742188,798.2051391601562,790.952392578125,784.1025390625
552,801.4285888671875,800.6226806640625,790.1465454101562,779.6703491210938
553,803.040283203125,796.1904907226562,789.7435913085938,781.6849975585938
554,801.4285888671875,798.6080322265625,792.5640869140625,786.5201416015625
555,798.2051391601562,793.7728881835938,794.5787353515625,788.1318969726562
556,794.981689453125,786.923095703125,788.1318969726562,785.3113403320312
557,792.1611938476562,792.1611938476562,786.923095703125,784.1025390625
558,790.1465454101562,796.1904907226562,792.5640869140625,788.1318969726562
559,787.7289428710938,793.3699340820312,790.952392578125,792.1611938476562
560,782.4908447265625,790.1465454101562,792.1611938476562,794.5787353515625
561,788.1318969726562,785.3113403320312,789.7435913085938,798.6080322265625
562,795.3846435546875,786.923095703125,786.5201416015625,791.7582397460938
563,785.7142944335938,794.981689453125,789.7435913085938,776.8497924804688
564,782.087890625,790.5494384765625,784.5054931640625,782.893798828125
565,788.937744140625,790.952392578125,782.4908447265625,793.7728881835938
566,792.5640869140625,793.7728881835938,788.1318969726562,792.5640869140625
567,795.7875366210938,792.967041015625,790.5494384765625,790.1465454101562
568,795.7875366210938,794.981689453125,791.3552856445312,799.010986328125
569,792.967041015625,796.996337890625,792.1611938476562,805.4578857421875
570,792.1611938476562,799.010986328125,793.7728881835938,796.1904907226562
571,796.5933837890625,798.6080322265625,790.5494384765625,796.996337890625
572,797.8021850585938,796.1904907226562,789.3406372070312,803.4432373046875
573,797.3992919921875,794.5787353515625,787.7289428710938,802.6373901367188
574,799.4139404296875,792.5640869140625,788.5347900390625,802.6373901367188
575,795.7875366210938,791.7582397460938,789.3406372070312,792.967041015625
576,794.5787353515625,790.952392578125,792.1611938476562,788.937744140625
577,797.3992919921875,788.937744140625,792.5640869140625,792.1611938476562
578,799.4139404296875,790.5494384765625,790.5494384765625,793.7728881835938
579,802.6373901367188,792.5640869140625,793.7728881835938,798.6080322265625
580,796.5933837890625,788.937744140625,794.5787353515625,803.4432373046875
581,787.3259887695312,785.3113403320312,795.7875366210938,800.6226806640625
582,787.7289428710938,786.923095703125,794.981689453125,796.5933837890625
583,787.7289428710938,789.7435913085938,794.981689453125,804.6520385742188
584,790.5494384765625,790.952392578125,797.3992919921875,805.8607788085938
585,790.5494384765625,789.3406372070312,794.5787353515625,799.4139404296875
586,785.7142944335938,791.3552856445312,789.3406372070312,796.5933837890625
587,790.5494384765625,787.3259887695312,789.3406372070312,798.2051391601562
588,794.1758422851562,785.7142944335938,794.1758422851562,797.8021850585938
589,791.3552856445312,790.952392578125,794.1758422851562,792.5640869140625
590,791.3552856445312,788.1318969726562,784.908447265625,786.5201416015625
591,796.1904907226562,790.5494384765625,784.908447265625,791.7582397460938
592,794.5787353515625,789.7435913085938,787.3259887695312,796.996337890625
593,789.3406372070312,790.952392578125,787.7289428710938,794.1758422851562
594,794.5787353515625,795.3846435546875,790.1465454101562,796.996337890625
595,799.4139404296875,789.7435913085938,790.952392578125,808.2783813476562
596,796.996337890625,788.5347900390625,791.3552856445312,807.87548828125
597,797.3992919921875,794.5787353515625,790.952392578125,802.2344360351562
598,798.6080322265625,790.5494384765625,787.7289428710938,797.3992919921875
599,796.1904907226562,790.5494384765625,788.937744140625,791.3552856445312
600,794.1758422851562,788.5347900390625,793.7728881835938,790.5494384765625
601,796.996337890625,779.2673950195312,796.1904907226562,792.5640869140625
602,793.3699340820312,777.2527465820312,795.7875366210938,790.952392578125
603,794.1758422851562,783.6996459960938,798.2051391601562,800.6226806640625
604,795.3846435546875,790.952392578125,798.6080322265625,810.6959838867188
605,789.7435913085938,792.967041015625,794.5787353515625,797.8021850585938
606,790.5494384765625,791.7582397460938,796.996337890625,799.8168334960938
607,791.7582397460938,788.1318969726562,799.8168334960938,805.054931640625
608,794.5787353515625,791.3552856445312,796.996337890625,796.1904907226562
609,796.5933837890625,798.2051391601562,792.1611938476562,791.7582397460938
610,799.4139404296875,793.7728881835938,790.952392578125,793.7728881835938
611,799.4139404296875,789.7435913085938,795.3846435546875,796.5933837890625
612,798.6080322265625,785.3113403320312,793.7728881835938,792.5640869140625
613,797.8021850585938,785.3113403320312,794.981689453125,792.5640869140625
614,795.7875366210938,793.7728881835938,799.010986328125,797.8021850585938
615,795.7875366210938,795.3846435546875,797.8021850585938,805.4578857421875
616,794.1758422851562,794.5787353515625,799.4139404296875,805.8607788085938
617,792.1611938476562,793.3699340820312,798.2051391601562,799.4139404296875
618,796.5933837890625,790.952392578125,796.996337890625,801.8314819335938
619,803.040283203125,792.967041015625,800.6226806640625,808.6813354492188
620,803.4432373046875,796.1904907226562,796.5933837890625,804.2490844726562
621,799.010986328125,796.5933837890625,792.967041015625,793.3699340820312
622,795.3846435546875,798.2051391601562,792.1611938476562,790.5494384765625
623,798.2051391601562,798.6080322265625,793.3699340820312,792.967041015625
624,805.8607788085938,800.6226806640625,797.3992919921875,795.3846435546875
625,806.2637329101562,803.8461303710938,798.6080322265625,794.5787353515625
626,798.2051391601562,798.6080322265625,796.1904907226562,793.7728881835938
627,792.1611938476562,794.981689453125,795.7875366210938,796.1904907226562
628,790.5494384765625,789.3406372070312,798.6080322265625,791.7582397460938
629,797.3992919921875,788.937744140625,795.7875366210938,786.1171875
630,799.4139404296875,791.7582397460938,790.1465454101562,787.3259887695312
631,792.967041015625,790.1465454101562,788.1318969726562,788.937744140625
632,787.7289428710938,789.7435913085938,787.7289428710938,791.3552856445312
633,784.1025390625,787.3259887695312,784.908447265625,794.981689453125
634,789.7435913085938,793.7728881835938,790.952392578125,797.3992919921875
635,795.7875366210938,795.3846435546875,796.5933837890625,793.7728881835938
636,794.981689453125,796.5933837890625,791.7582397460938,791.7582397460938
637,792.967041015625,800.2197875976562,787.3259887695312,796.996337890625
638,788.1318969726562,796.5933837890625,788.937744140625,804.2490844726562
639,779.6703491210938,789.7435913085938,787.3259887695312,798.6080322265625
640,782.4908447265625,786.5201416015625,786.5201416015625,792.5640869140625
641,792.967041015625,790.1465454101562,791.3552856445312,797.8021850585938
642,787.3259887695312,792.1611938476562,791.7582397460938,794.5787353515625
643,783.6996459960938,791.7582397460938,792.5640869140625,783.6996459960938
644,793.7728881835938,794.1758422851562,796.1904907226562,790.1465454101562
645,797.3992919921875,796.1904907226562,794.981689453125,797.3992919921875
646,789.7435913085938,790.1465454101562,791.3552856445312,791.7582397460938
647,787.3259887695312,788.5347900390625,791.7582397460938,788.937744140625
648,790.1465454101562,790.952392578125,786.923095703125,790.5494384765625
649,790.952392578125,792.1611938476562,785.3113403320312,797.3992919921875
650,796.5933837890625,792.5640869140625,786.923095703125,798.2051391601562
651,798.6080322265625,793.3699340820312,789.7435913085938,793.7728881835938
652,788.937744140625,786.923095703125,790.1465454101562,788.5347900390625
653,785.7142944335938,783.2966918945312,788.937744140625,786.1171875
654,786.1171875,786.5201416015625,792.5640869140625,784.5054931640625
655,789.3406372070312,789.3406372070312,792.1611938476562,786.923095703125
656,794.5787353515625,789.3406372070312,795.3846435546875,793.3699340820312
657,787.7289428710938,790.1465454101562,796.1904907226562,794.981689453125
658,781.6849975585938,789.3406372070312,798.2051391601562,792.967041015625
659,784.5054931640625,784.1025390625,799.8168334960938,785.7142944335938
660,794.1758422851562,787.3259887695312,799.4139404296875,794.5787353515625
661,794.1758422851562,792.967041015625,800.6226806640625,798.6080322265625
662,786.5201416015625,793.7728881835938,799.010986328125,793.7728881835938
663,788.5347900390625,782.4908447265625,794.5787353515625,792.967041015625
664,792.1611938476562,776.4468994140625,792.5640869140625,794.1758422851562
665,791.3552856445312,790.1465454101562,788.1318969726562,796.5933837890625
666,790.1465454101562,792.967041015625,788.937744140625,790.1465454101562
667,789.7435913085938,784.908447265625,791.3552856445312,788.937744140625
668,789.3406372070312,783.2966918945312,791.7582397460938,797.3992919921875
669,789.7435913085938,781.2820434570312,792.1611938476562,799.4139404296875
670,794.981689453125,784.1025390625,794.1758422851562,796.1904907226562
671,795.7875366210938,786.923095703125,799.010986328125,796.5933837890625
672,796.5933837890625,786.923095703125,796.996337890625,801.025634765625
673,794.981689453125,786.1171875,795.7875366210938,795.7875366210938
674,791.3552856445312,784.5054931640625,800.6226806640625,791.3552856445312
675,792.1611938476562,786.1171875,797.8021850585938,792.1611938476562
676,797.3992919921875,784.5054931640625,793.3699340820312,799.8168334960938
677,796.996337890625,787.3259887695312,793.7728881835938,799.8168334960938
678,788.5347900390625,790.1465454101562,793.7728881835938,795.7875366210938
679,787.3259887695312,786.5201416015625,791.7582397460938,801.025634765625
680,792.967041015625,789.3406372070312,794.981689453125,809.4871826171875
681,796.1904907226562,792.1611938476562,796.996337890625,806.6666870117188
682,799.010986328125,790.1465454101562,791.7582397460938,801.025634765625
683,806.2637329101562,790.1465454101562,791.7582397460938,801.025634765625
684,809.4871826171875,785.7142944335938,793.3699340820312,791.3552856445312
685,811.90478515625,780.0732421875,792.5640869140625,793.7728881835938
686,819.5604248046875,786.5201416015625,791.3552856445312,795.3846435546875
687,810.6959838867188,793.3699340820312,787.7289428710938,790.952392578125
688,809.084228515625,796.5933837890625,787.7289428710938,796.996337890625
689,810.6959838867188,798.2051391601562,792.5640869140625,794.981689453125
690,806.6666870117188,796.5933837890625,794.1758422851562,792.5640869140625
691,806.2637329101562,800.6226806640625,793.3699340820312,792.5640869140625
692,803.4432373046875,795.7875366210938,793.3699340820312,787.3259887695312
693,795.3846435546875,789.7435913085938,789.3406372070312,791.3552856445312
694,792.1611938476562,793.3699340820312,789.7435913085938,797.8021850585938
695,795.3846435546875,790.952392578125,794.5787353515625,797.8021850585938
696,792.5640869140625,789.3406372070312,796.996337890625,794.981689453125
697,789.3406372070312,791.3552856445312,794.5787353515625,790.1465454101562
698,789.3406372070312,791.7582397460938,793.3699340820312,787.3259887695312
699,787.7289428710938,788.937744140625,796.1904907226562,795.3846435546875
700,780.4761962890625,788.1318969726562,799.4139404296875,791.3552856445312
701,780.879150390625,791.3552856445312,800.6226806640625,781.6849975585938
702,790.1465454101562,793.3699340820312,797.8021850585938,789.3406372070312
703,786.5201416015625,791.7582397460938,795.3846435546875,788.1318969726562
704,782.893798828125,784.5054931640625,794.981689453125,788.937744140625
705,789.3406372070312,782.4908447265625,798.6080322265625,795.3846435546875
706,794.1758422851562,782.4908447265625,800.2197875976562,798.2051391601562
707,797.8021850585938,785.3113403320312,795.3846435546875,793.7728881835938
708,796.5933837890625,789.3406372070312,792.5640869140625,784.5054931640625
709,789.3406372070312,790.5494384765625,792.1611938476562,784.908447265625
710,783.2966918945312,789.3406372070312,797.8021850585938,784.1025390625
711,787.3259887695312,789.7435913085938,800.2197875976562,800.2197875976562
712,796.996337890625,790.952392578125,800.6226806640625,810.6959838867188
713,796.5933837890625,790.1465454101562,803.8461303710938,802.2344360351562
714,793.7728881835938,794.5787353515625,801.025634765625,800.2197875976562
715,796.5933837890625,800.2197875976562,799.010986328125,799.4139404296875
716,800.2197875976562,805.054931640625,798.6080322265625,796.5933837890625
717,804.2490844726562,802.6373901367188,799.8168334960938,796.5933837890625
718,801.8314819335938,803.040283203125,799.010986328125,799.010986328125
719,807.4725341796875,803.4432373046875,798.2051391601562,801.8314819335938
720,804.6520385742188,802.6373901367188,801.8314819335938,800.2197875976562
721,796.5933837890625,804.6520385742188,801.8314819335938,794.981689453125
722,803.8461303710938,802.2344360351562,799.4139404296875,802.2344360351562
723,801.8314819335938,797.8021850585938,799.010986328125,806.2637329101562
724,791.7582397460938,799.010986328125,799.8168334960938,794.5787353515625
725,790.5494384765625,796.5933837890625,797.8021850585938,788.1318969726562
726,790.5494384765625,792.5640869140625,797.3992919921875,785.3113403320312
727,788.937744140625,799.4139404296875,799.010986328125,783.6996459960938
728,791.3552856445312,805.4578857421875,800.6226806640625,789.7435913085938
729,787.7289428710938,801.025634765625,800.6226806640625,791.7582397460938
730,786.1171875,796.1904907226562,796.996337890625,792.1611938476562
731,790.5494384765625,793.3699340820312,795.7875366210938,790.952392578125
732,787.3259887695312,793.7728881835938,799.010986328125,786.5201416015625
733,794.5787353515625,795.3846435546875,802.6373901367188,792.967041015625
734,801.025634765625,796.5933837890625,803.8461303710938,800.2197875976562
735,797.8021850585938,799.4139404296875,802.2344360351562,795.7875366210938
736,797.3992919921875,797.3992919921875,800.6226806640625,790.5494384765625
737,798.2051391601562,790.952392578125,800.2197875976562,799.4139404296875
738,796.5933837890625,786.923095703125,799.4139404296875,805.054931640625
739,793.3699340820312,792.967041015625,799.010986328125,799.8168334960938
740,792.967041015625,794.1758422851562,796.996337890625,796.996337890625
741,793.3699340820312,792.5640869140625,797.8021850585938,792.5640869140625
742,790.952392578125,792.5640869140625,802.2344360351562,792.1611938476562
743,793.3699340820312,788.5347900390625,802.2344360351562,792.967041015625
744,792.967041015625,782.893798828125,797.8021850585938,790.1465454101562
745,789.3406372070312,784.1025390625,794.981689453125,795.3846435546875
746,786.923095703125,793.7728881835938,797.8021850585938,803.8461303710938
747,789.7435913085938,796.996337890625,801.025634765625,795.3846435546875
748,790.952392578125,788.5347900390625,796.5933837890625,791.7582397460938
749,789.7435913085938,791.7582397460938,793.3699340820312,796.1904907226562
750,793.3699340820312,791.7582397460938,794.981689453125,797.3992919921875
751,798.6080322265625,786.1171875,796.996337890625,801.025634765625
752,801.4285888671875,793.3699340820312,797.3992919921875,801.8314819335938
753,802.6373901367188,799.8168334960938,797.3992919921875,801.4285888671875
754,801.4285888671875,800.2197875976562,799.010986328125,801.8314819335938
755,801.025634765625,796.996337890625,794.981689453125,796.1904907226562
756,808.2783813476562,794.5787353515625,793.7728881835938,801.4285888671875
757,803.8461303710938,794.5787353515625,796.1904907226562,810.2930297851562
758,792.5640869140625,799.010986328125,793.3699340820312,798.6080322265625
759,795.3846435546875,801.025634765625,794.1758422851562,794.981689453125
760,801.8314819335938,790.952392578125,794.981689453125,807.069580078125
761,808.6813354492188,788.5347900390625,792.967041015625,807.069580078125
762,811.90478515625,798.2051391601562,791.3552856445312,800.2197875976562
763,799.010986328125,796.1904907226562,794.1758422851562,786.923095703125
764,788.1318969726562,792.5640869140625,795.7875366210938,784.1025390625
765,788.5347900390625,792.1611938476562,787.3259887695312,790.5494384765625
766,792.1611938476562,792.967041015625,785.3113403320312,788.937744140625
767,792.5640869140625,797.3992919921875,791.7582397460938,790.1465454101562
768,789.7435913085938,794.1758422851562,795.7875366210938,796.5933837890625
769,790.5494384765625,787.7289428710938,792.1611938476562,793.3699340820312
770,788.5347900390625,791.7582397460938,789.3406372070312,784.1025390625
771,790.952392578125,797.3992919921875,791.3552856445312,777.2527465820312
772,797.8021850585938,794.981689453125,792.967041015625,787.3259887695312
773,799.010986328125,791.7582397460938,797.3992919921875,793.3699340820312
774,796.1904907226562,786.923095703125,799.4139404296875,786.5201416015625
775,796.5933837890625,789.3406372070312,796.5933837890625,795.3846435546875
776,793.3699340820312,795.7875366210938,798.2051391601562,800.6226806640625
777,788.937744140625,796.996337890625,794.5787353515625,794.5787353515625
778,792.5640869140625,795.3846435546875,790.1465454101562,794.5787353515625
779,794.981689453125,788.937744140625,790.5494384765625,797.3992919921875
780,794.981689453125,790.5494384765625,792.1611938476562,803.8461303710938
781,796.1904907226562,792.5640869140625,795.7875366210938,805.8607788085938
782,798.2051391601562,787.3259887695312,794.981689453125,801.4285888671875
783,808.6813354492188,788.937744140625,794.981689453125,802.6373901367188
784,809.084228515625,792.1611938476562,792.967041015625,805.4578857421875
785,803.040283203125,790.1465454101562,792.967041015625,804.6520385742188
786,799.8168334960938,792.967041015625,792.5640869140625,797.8021850585938
787,794.5787353515625,796.1904907226562,794.5787353515625,794.5787353515625
788,802.2344360351562,793.7728881835938,797.3992919921875,804.6520385742188
789,804.2490844726562,795.3846435546875,798.2051391601562,807.069580078125
790,794.981689453125,795.7875366210938,799.010986328125,799.4139404296875
791,794.981689453125,794.981689453125,796.5933837890625,796.5933837890625
792,799.8168334960938,798.6080322265625,797.8021850585938,797.8021850585938
793,796.996337890625,798.2051391601562,799.8168334960938,794.1758422851562
794,796.5933837890625,794.1758422851562,799.4139404296875,788.937744140625
795,803.4432373046875,791.3552856445312,796.5933837890625,800.6226806640625
796,805.054931640625,792.5640869140625,799.4139404296875,803.8461303710938
797,795.3846435546875,796.996337890625,801.025634765625,787.7289428710938
798,792.967041015625,795.7875366210938,798.2051391601562,782.087890625
799,794.5787353515625,793.7728881835938,798.6080322265625,785.7142944335938
800,789.3406372070312,794.5787353515625,795.3846435546875,786.5201416015625
801,792.967041015625,796.996337890625,792.1611938476562,788.937744140625
802,794.1758422851562,793.7728881835938,795.7875366210938,789.3406372070312
803,791.7582397460938,792.967041015625,796.5933837890625,792.967041015625
804,795.7875366210938,793.7728881835938,794.981689453125,799.010986328125
805,797.8021850585938,790.5494384765625,792.967041015625,791.3552856445312
806,796.1904907226562,789.7435913085938,791.3552856445312,792.5640869140625
807,794.1758422851562,791.3552856445312,792.1611938476562,801.4285888671875
808,788.937744140625,792.1611938476562,791.7582397460938,792.1611938476562
809,785.7142944335938,784.5054931640625,796.996337890625,783.6996459960938
810,788.937744140625,785.7142944335938,798.2051391601562,789.7435913085938
811,784.908447265625,795.7875366210938,791.7582397460938,786.923095703125
812,784.5054931640625,799.8168334960938,790.952392578125,782.087890625
813,792.967041015625,797.3992919921875,798.2051391601562,793.7728881835938
814,799.8168334960938,795.3846435546875,801.025634765625,796.1904907226562
815,804.2490844726562,798.6080322265625,799.4139404296875,793.7728881835938
816,806.6666870117188,800.6226806640625,802.2344360351562,796.996337890625
817,799.4139404296875,796.5933837890625,798.6080322265625,795.3846435546875
818,793.7728881835938,789.3406372070312,794.1758422851562,793.7728881835938
819,794.5787353515625,790.1465454101562,795.3846435546875,792.5640869140625
820,790.1465454101562,795.3846435546875,793.7728881835938,788.937744140625
821,790.952392578125,797.8021850585938,792.1611938476562,792.1611938476562
822,794.1758422851562,796.5933837890625,794.1758422851562,794.1758422851562
823,797.8021850585938,792.967041015625,792.1611938476562,792.967041015625
824,798.6080322265625,798.6080322265625,793.7728881835938,792.967041015625
825,801.4285888671875,799.4139404296875,798.6080322265625,797.8021850585938
826,799.010986328125,794.981689453125,795.7875366210938,799.8168334960938
827,791.3552856445312,795.3846435546875,792.967041015625,797.3992919921875
828,789.3406372070312,791.3552856445312,790.5494384765625,795.7875366210938
829,792.967041015625,786.5201416015625,792.5640869140625,801.025634765625
830,798.2051391601562,788.5347900390625,792.967041015625,808.6813354492188
831,804.6520385742188,792.967041015625,797.8021850585938,811.098876953125
832,809.084228515625,794.5787353515625,796.996337890625,807.87548828125
833,802.6373901367188,788.937744140625,792.967041015625,806.6666870117188
834,802.6373901367188,786.1171875,794.5787353515625,810.6959838867188
835,809.4871826171875,796.5933837890625,791.7582397460938,808.2783813476562
836,813.91943359375,800.6226806640625,788.5347900390625,802.2344360351562
837,810.2930297851562,798.6080322265625,792.1611938476562,800.6226806640625
838,804.2490844726562,791.7582397460938,790.1465454101562,793.7728881835938
839,794.981689453125,788.937744140625,786.1171875,788.1318969726562
840,788.937744140625,787.3259887695312,791.7582397460938,790.1465454101562
841,791.3552856445312,780.4761962890625,794.981689453125,800.6226806640625
842,793.7728881835938,782.4908447265625,799.4139404296875,801.8314819335938
843,787.3259887695312,793.3699340820312,801.4285888671875,793.3699340820312
844,786.5201416015625,789.7435913085938,799.010986328125,792.5640869140625
845,788.1318969726562,779.6703491210938,801.8314819335938,790.1465454101562
846,789.7435913085938,788.5347900390625,802.2344360351562,797.3992919921875
847,792.5640869140625,793.7728881835938,798.2051391601562,802.6373901367188
848,792.1611938476562,789.7435913085938,797.3992919921875,802.6373901367188
849,787.7289428710938,791.3552856445312,795.3846435546875,796.1904907226562
850,785.3113403320312,792.5640869140625,792.967041015625,789.3406372070312
851,782.4908447265625,790.1465454101562,792.1611938476562,787.7289428710938
852,782.893798828125,786.5201416015625,787.7289428710938,785.3113403320312
853,786.5201416015625,788.1318969726562,789.7435913085938,788.1318969726562
854,781.2820434570312,792.1611938476562,793.7728881835938,784.908447265625
855,783.6996459960938,788.1318969726562,791.3552856445312,775.6410522460938
856,795.7875366210938,786.1171875,794.5787353515625,780.879150390625
857,794.1758422851562,791.3552856445312,795.7875366210938,788.937744140625
858,788.5347900390625,796.5933837890625,798.6080322265625,788.5347900390625
859,787.7289428710938,799.4139404296875,799.010986328125,790.5494384765625
860,789.7435913085938,796.1904907226562,793.7728881835938,790.5494384765625
861,787.7289428710938,791.3552856445312,790.1465454101562,781.6849975585938
862,780.4761962890625,790.1465454101562,790.5494384765625,776.4468994140625
863,781.6849975585938,787.3259887695312,791.3552856445312,775.6410522460938
864,782.893798828125,786.923095703125,792.1611938476562,783.2966918945312
865,778.4615478515625,786.923095703125,794.5787353515625,794.5787353515625
866,778.4615478515625,790.952392578125,796.5933837890625,788.5347900390625
867,784.5054931640625,791.3552856445312,798.6080322265625,786.1171875
868,787.3259887695312,791.3552856445312,794.1758422851562,790.5494384765625
869,786.923095703125,790.5494384765625,793.7728881835938,788.1318969726562
870,783.2966918945312,787.7289428710938,794.5787353515625,786.1171875
871,786.923095703125,786.923095703125,790.1465454101562,789.7435913085938
872,783.6996459960938,784.1025390625,792.5640869140625,785.3113403320312
873,788.1318969726562,785.7142944335938,798.6080322265625,786.1171875
874,798.6080322265625,793.7728881835938,796.996337890625,792.5640869140625
875,796.996337890625,796.5933837890625,795.7875366210938,796.5933837890625
876,793.7728881835938,793.3699340820312,794.5787353515625,794.981689453125
877,792.967041015625,794.5787353515625,796.1904907226562,789.7435913085938
878,798.2051391601562,802.2344360351562,797.8021850585938,791.3552856445312
879,801.4285888671875,800.2197875976562,792.967041015625,791.7582397460938
880,802.2344360351562,790.5494384765625,792.1611938476562,797.3992919921875
881,800.2197875976562,794.981689453125,797.8021850585938,801.8314819335938
882,795.3846435546875,800.6226806640625,804.2490844726562,796.996337890625
883,797.3992919921875,798.6080322265625,804.2490844726562,792.5640869140625
884,797.8021850585938,794.981689453125,803.4432373046875,787.7289428710938
885,796.1904907226562,795.7875366210938,801.4285888671875,784.908447265625
886,796.5933837890625,798.6080322265625,802.2344360351562,786.1171875
887,794.5787353515625,796.996337890625,799.8168334960938,786.5201416015625
888,791.7582397460938,793.3699340820312,797.8021850585938,786.923095703125
889,792.5640869140625,790.5494384765625,795.3846435546875,789.3406372070312
890,792.5640869140625,788.5347900390625,794.1758422851562,790.952392578125
891,799.010986328125,784.5054931640625,795.7875366210938,796.996337890625
892,807.4725341796875,786.1171875,797.3992919921875,796.5933837890625
893,802.6373901367188,786.5201416015625,798.6080322265625,788.5347900390625
894,802.6373901367188,779.6703491210938,797.3992919921875,788.1318969726562
895,799.8168334960938,780.0732421875,795.3846435546875,790.1465454101562
896,796.1904907226562,789.7435913085938,795.3846435546875,795.3846435546875
897,791.3552856445312,792.5640869140625,798.6080322265625,795.3846435546875
898,786.923095703125,788.5347900390625,796.996337890625,794.981689453125
899,790.1465454101562,790.952392578125,794.5787353515625,799.010986328125
900,791.7582397460938,793.3699340820312,797.8021850585938,796.5933837890625
901,793.3699340820312,793.7728881835938,797.8021850585938,790.5494384765625
902,794.1758422851562,786.5201416015625,794.1758422851562,790.5494384765625
903,793.7728881835938,785.3113403320312,794.1758422851562,796.5933837890625
904,793.3699340820312,794.5787353515625,799.010986328125,793.7728881835938
905,796.5933837890625,787.3259887695312,800.2197875976562,796.996337890625
906,800.6226806640625,780.4761962890625,801.8314819335938,806.2637329101562
907,802.6373901367188,786.923095703125,803.4432373046875,800.6226806640625
908,793.3699340820312,790.5494384765625,799.4139404296875,789.7435913085938
909,784.908447265625,789.7435913085938,798.6080322265625,788.1318969726562
910,784.1025390625,787.3259887695312,794.1758422851562,785.7142944335938
911,785.7142944335938,786.5201416015625,791.7582397460938,784.5054931640625
912,789.7435913085938,789.7435913085938,795.7875366210938,788.1318969726562
913,790.952392578125,791.7582397460938,794.5787353515625,786.923095703125
914,789.7435913085938,790.5494384765625,791.7582397460938,792.967041015625
915,780.0732421875,788.1318969726562,789.7435913085938,794.5787353515625
916,784.1025390625,784.5054931640625,791.7582397460938,790.5494384765625
917,794.981689453125,786.923095703125,795.3846435546875,791.3552856445312
918,791.7582397460938,793.7728881835938,793.3699340820312,790.1465454101562
919,788.5347900390625,792.5640869140625,788.937744140625,789.7435913085938
920,786.5201416015625,789.7435913085938,791.3552856445312,782.4908447265625
921,786.923095703125,789.7435913085938,789.7435913085938,781.6849975585938
922,787.7289428710938,794.981689453125,787.3259887695312,786.1171875
923,789.3406372070312,801.8314819335938,792.967041015625,785.7142944335938
924,789.7435913085938,798.2051391601562,793.7728881835938,785.7142944335938
925,792.1611938476562,792.967041015625,786.923095703125,786.923095703125
926,790.5494384765625,793.3699340820312,784.908447265625,794.1758422851562
927,785.7142944335938,794.981689453125,790.5494384765625,786.923095703125
928,789.3406372070312,794.5787353515625,791.3552856445312,786.5201416015625
929,796.1904907226562,793.7728881835938,792.5640869140625,792.967041015625
930,793.7728881835938,790.5494384765625,793.3699340820312,790.5494384765625
931,786.5201416015625,790.1465454101562,790.5494384765625,786.1171875
932,786.5201416015625,795.3846435546875,786.923095703125,788.5347900390625
933,792.5640869140625,797.8021850585938,790.5494384765625,794.981689453125
934,787.7289428710938,797.8021850585938,791.3552856445312,788.1318969726562
935,786.923095703125,792.967041015625,789.7435913085938,789.7435913085938
936,795.3846435546875,788.937744140625,794.1758422851562,794.1758422851562
937,799.4139404296875,790.1465454101562,794.981689453125,794.981689453125
938,794.981689453125,792.1611938476562,793.3699340820312,796.996337890625
939,798.2051391601562,793.7728881835938,790.5494384765625,790.952392578125
940,806.6666870117188,791.3552856445312,792.1611938476562,794.5787353515625
941,801.8314819335938,789.3406372070312,794.981689453125,801.4285888671875
942,795.3846435546875,783.2966918945312,794.5787353515625,800.2197875976562
943,792.5640869140625,786.1171875,798.2051391601562,794.981689453125
944,798.6080322265625,792.5640869140625,798.6080322265625,795.3846435546875
945,803.040283203125,792.1611938476562,796.1904907226562,799.010986328125
946,797.3992919921875,793.7728881835938,800.2197875976562,798.6080322265625
947,793.7728881835938,794.981689453125,798.2051391601562,801.025634765625
948,795.3846435546875,796.996337890625,793.7728881835938,801.4285888671875
949,796.1904907226562,801.025634765625,791.7582397460938,796.996337890625
950,790.952392578125,797.3992919921875,793.3699340820312,787.7289428710938
951,793.3699340820312,792.5640869140625,793.7728881835938,792.1611938476562
952,796.996337890625,788.5347900390625,795.3846435546875,801.8314819335938
953,798.2051391601562,789.7435913085938,795.7875366210938,797.3992919921875
954,799.8168334960938,794.1758422851562,793.7728881835938,791.3552856445312
955,794.5787353515625,792.1611938476562,793.7728881835938,791.7582397460938
956,794.981689453125,787.7289428710938,792.967041015625,801.4285888671875
957,797.3992919921875,790.952392578125,793.3699340820312,805.8607788085938
958,799.4139404296875,799.010986328125,795.7875366210938,795.3846435546875
959,796.996337890625,794.981689453125,794.981689453125,796.5933837890625
960,789.7435913085938,788.5347900390625,794.5787353515625,798.6080322265625
961,788.5347900390625,789.7435913085938,798.2051391601562,796.1904907226562
962,792.1611938476562,790.1465454101562,797.3992919921875,796.1904907226562
963,798.2051391601562,792.1611938476562,799.010986328125,794.5787353515625
964,796.996337890625,792.5640869140625,802.2344360351562,803.040283203125
965,794.1758422851562,785.7142944335938,800.2197875976562,806.6666870117188
966,792.967041015625,784.5054931640625,796.5933837890625,793.3699340820312
967,790.1465454101562,792.967041015625,793.7728881835938,789.7435913085938
968,789.7435913085938,796.996337890625,793.7728881835938,793.3699340820312
969,789.7435913085938,796.996337890625,794.1758422851562,796.1904907226562
970,792.5640869140625,795.3846435546875,794.1758422851562,799.4139404296875
971,797.3992919921875,792.5640869140625,794.981689453125,800.6226806640625
972,794.1758422851562,789.3406372070312,794.981689453125,795.7875366210938
973,792.967041015625,789.7435913085938,791.3552856445312,795.3846435546875
974,793.3699340820312,788.5347900390625,796.5933837890625,795.7875366210938
975,789.7435913085938,782.087890625,799.4139404296875,796.1904907226562
976,790.5494384765625,780.0732421875,796.5933837890625,801.025634765625
977,791.7582397460938,780.4761962890625,799.4139404296875,796.1904907226562
978,788.5347900390625,780.4761962890625,796.1904907226562,790.5494384765625
979,789.3406372070312,790.952392578125,792.967041015625,795.3846435546875
980,792.1611938476562,796.996337890625,793.3699340820312,800.2197875976562
981,791.7582397460938,794.5787353515625,794.1758422851562,799.4139404296875
982,796.996337890625,792.967041015625,794.5787353515625,795.7875366210938
983,794.1758422851562,791.7582397460938,793.3699340820312,790.5494384765625
984,794.1758422851562,793.3699340820312,791.3552856445312,791.7582397460938
985,793.7728881835938,790.5494384765625,793.3699340820312,799.8168334960938
986,790.1465454101562,792.967041015625,795.7875366210938,797.8021850585938
987,794.981689453125,793.7728881835938,790.952392578125,806.2637329101562
988,799.010986328125,792.1611938476562,794.1758422851562,809.4871826171875
989,797.3992919921875,795.3846435546875,798.6080322265625,792.967041015625
990,794.981689453125,788.937744140625,798.2051391601562,791.3552856445312
991,794.981689453125,785.7142944335938,799.010986328125,801.025634765625
992,793.7728881835938,793.7728881835938,799.4139404296875,803.8461303710938
993,791.7582397460938,793.3699340820312,798.2051391601562,793.7728881835938
994,799.010986328125,790.952392578125,803.4432373046875,793.7728881835938
995,803.8461303710938,797.3992919921875,803.4432373046875,790.952392578125
996,796.996337890625,797.8021850585938,792.5640869140625,791.3552856445312
997,791.3552856445312,796.5933837890625,793.7728881835938,793.3699340820312
998,791.7582397460938,796.1904907226562,798.6080322265625,793.3699340820312
999,793.3699340820312,793.7728881835938,793.7728881835938,799.8168334960938
1000,791.7582397460938,798.6080322265625,794.1758422851562,795.7875366210938
1001,793.3699340820312,798.2051391601562,796.1904907226562,793.7728881835938
1002,792.1611938476562,788.937744140625,795.7875366210938,790.952392578125
1003,788.1318969726562,792.967041015625,796.5933837890625,792.5640869140625
1004,785.7142944335938,799.4139404296875,796.5933837890625,794.5787353515625
1005,783.2966918945312,790.1465454101562,794.981689453125,790.5494384765625
1006,784.908447265625,786.1171875,795.3846435546875,790.952392578125
1007,790.952392578125,795.7875366210938,794.1758422851562,789.7435913085938
1008,790.952392578125,794.981689453125,790.5494384765625,786.1171875
1009,790.1465454101562,791.7582397460938,792.5640869140625,787.3259887695312
1010,795.3846435546875,790.1465454101562,790.952392578125,800.2197875976562
1011,800.6226806640625,791.3552856445312,788.1318969726562,812.3076782226562
1012,803.040283203125,792.1611938476562,794.1758422851562,809.4871826171875
1013,803.4432373046875,790.5494384765625,793.7728881835938,803.040283203125
1014,798.6080322265625,791.7582397460938,790.952392578125,795.3846435546875
1015,796.5933837890625,792.1611938476562,790.5494384765625,791.3552856445312
1016,787.3259887695312,789.3406372070312,788.1318969726562,787.3259887695312
1017,781.2820434570312,786.5201416015625,784.1025390625,784.5054931640625
1018,781.6849975585938,790.952392578125,783.6996459960938,785.3113403320312
1019,778.05859375,790.5494384765625,788.937744140625,786.1171875
1020,784.1025390625,790.5494384765625,790.952392578125,790.5494384765625
1021,789.3406372070312,792.5640869140625,790.952392578125,790.1465454101562
1022,785.7142944335938,788.937744140625,788.937744140625,789.3406372070312
1023,778.8644409179688,789.3406372070312,785.7142944335938,780.0732421875
1024,780.4761962890625,793.7728881835938,786.923095703125,769.1941528320312
1025,788.937744140625,791.7582397460938,787.3259887695312,775.6410522460938
1026,790.952392578125,787.3259887695312,789.3406372070312,785.7142944335938
1027,785.7142944335938,790.952392578125,789.3406372070312,788.1318969726562
1028,782.893798828125,794.1758422851562,787.3259887695312,781.2820434570312
1029,784.1025390625,794.1758422851562,788.937744140625,780.879150390625
1030,787.3259887695312,788.937744140625,792.967041015625,782.893798828125
1031,790.1465454101562,786.923095703125,794.981689453125,789.3406372070312
1032,791.7582397460938,788.5347900390625,795.7875366210938,792.967041015625
1033,794.981689453125,789.3406372070312,799.010986328125,802.6373901367188
1034,799.4139404296875,791.7582397460938,801.025634765625,805.4578857421875
1035,794.1758422851562,786.923095703125,801.025634765625,789.7435913085938
1036,794.5787353515625,784.5054931640625,797.3992919921875,792.967041015625
1037,798.2051391601562,794.5787353515625,796.996337890625,797.8021850585938
1038,795.3846435546875,799.010986328125,801.025634765625,795.7875366210938
1039,799.8168334960938,797.3992919921875,801.025634765625,794.5787353515625
1040,797.3992919921875,789.3406372070312,798.2051391601562,786.1171875
1041,792.967041015625,788.5347900390625,794.1758422851562,781.6849975585938
1042,794.5787353515625,797.8021850585938,795.7875366210938,789.3406372070312
1043,783.2966918945312,794.5787353515625,796.1904907226562,788.1318969726562
1044,780.4761962890625,787.7289428710938,795.3846435546875,784.5054931640625
1045,786.923095703125,787.7289428710938,797.3992919921875,794.981689453125
1046,781.2820434570312,788.937744140625,797.8021850585938,796.5933837890625
1047,782.4908447265625,790.1465454101562,798.6080322265625,788.1318969726562
1048,783.6996459960938,784.908447265625,799.010986328125,793.3699340820312
1049,787.7289428710938,785.3113403320312,800.2197875976562,804.2490844726562
1050,788.5347900390625,790.5494384765625,798.6080322265625,791.3552856445312
1051,786.5201416015625,793.7728881835938,796.5933837890625,785.3113403320312
1052,792.5640869140625,790.1465454101562,797.3992919921875,794.5787353515625
1053,795.3846435546875,786.923095703125,797.3992919921875,793.7728881835938
1054,794.1758422851562,799.8168334960938,792.5640869140625,790.5494384765625
1055,790.1465454101562,800.6226806640625,791.7582397460938,791.3552856445312
1056,793.7728881835938,797.8021850585938,796.5933837890625,800.2197875976562
1057,795.3846435546875,801.025634765625,794.981689453125,800.2197875976562
1058,796.996337890625,798.6080322265625,794.981689453125,796.996337890625
1059,803.8461303710938,799.8168334960938,798.6080322265625,800.2197875976562
1060,806.6666870117188,794.981689453125,794.1758422851562,807.87548828125
1061,805.8607788085938,789.7435913085938,790.1465454101562,812.7106323242188
1062,803.8461303710938,798.6080322265625,794.1758422851562,807.87548828125
1063,802.2344360351562,803.8461303710938,794.5787353515625,807.4725341796875
1064,803.4432373046875,799.8168334960938,792.967041015625,807.87548828125
1065,797.8021850585938,796.1904907226562,795.3846435546875,801.4285888671875
1066,791.3552856445312,799.010986328125,792.1611938476562,795.7875366210938
1067,795.3846435546875,803.8461303710938,786.923095703125,796.1904907226562
1068,793.7728881835938,794.1758422851562,786.5201416015625,794.981689453125
1069,792.1611938476562,793.3699340820312,793.7728881835938,793.3699340820312
1070,795.7875366210938,801.025634765625,797.8021850585938,795.7875366210938
1071,799.010986328125,801.4285888671875,795.7875366210938,793.3699340820312
1072,796.1904907226562,801.025634765625,796.5933837890625,796.996337890625
1073,792.5640869140625,798.2051391601562,794.981689453125,792.967041015625
1074,791.7582397460938,796.5933837890625,792.967041015625,784.5054931640625
1075,793.7728881835938,796.5933837890625,791.7582397460938,789.7435913085938
1076,794.981689453125,798.6080322265625,791.7582397460938,791.3552856445312
1077,794.1758422851562,803.8461303710938,794.981689453125,788.1318969726562
1078,788.1318969726562,805.4578857421875,794.5787353515625,786.1171875
1079,790.1465454101562,801.4285888671875,791.7582397460938,787.3259887695312
1080,790.5494384765625,797.8021850585938,790.1465454101562,793.7728881835938
1081,785.3113403320312,801.4285888671875,790.952392578125,794.5787353515625
1082,789.3406372070312,804.6520385742188,793.7728881835938,789.7435913085938
1083,790.952392578125,798.2051391601562,790.952392578125,792.967041015625
1084,786.5201416015625,794.1758422851562,790.5494384765625,792.967041015625
1085,782.893798828125,794.5787353515625,794.981689453125,788.5347900390625
1086,792.1611938476562,792.1611938476562,793.7728881835938,788.5347900390625
1087,792.967041015625,790.1465454101562,789.7435913085938,785.3113403320312
1088,789.3406372070312,789.3406372070312,791.7582397460938,789.7435913085938
1089,797.3992919921875,792.5640869140625,796.5933837890625,799.010986328125
1090,795.3846435546875,794.1758422851562,796.5933837890625,800.2197875976562
1091,790.1465454101562,796.1904907226562,797.8021850585938,804.2490844726562
1092,789.7435913085938,793.7728881835938,799.010986328125,802.6373901367188
1093,789.7435913085938,792.1611938476562,800.2197875976562,799.8168334960938
1094,788.1318969726562,796.996337890625,799.010986328125,808.6813354492188
1095,787.3259887695312,799.010986328125,798.2051391601562,810.2930297851562
1096,791.3552856445312,795.3846435546875,801.8314819335938,803.4432373046875
1097,792.967041015625,790.952392578125,799.4139404296875,797.8021850585938
1098,799.010986328125,786.923095703125,792.5640869140625,797.3992919921875
1099,798.6080322265625,786.1171875,792.1611938476562,798.6080322265625
1100,794.1758422851562,790.952392578125,795.3846435546875,794.981689453125
1101,797.3992919921875,794.981689453125,794.1758422851562,794.981689453125
1102,800.2197875976562,797.8021850585938,787.3259887695312,796.996337890625
1103,804.6520385742188,796.1904907226562,788.5347900390625,796.1904907226562
1104,801.8314819335938,790.1465454101562,793.7728881835938,792.967041015625
1105,795.3846435546875,792.967041015625,794.1758422851562,791.7582397460938
1106,796.996337890625,803.040283203125,791.3552856445312,801.8314819335938
1107,798.2051391601562,802.2344360351562,793.7728881835938,803.4432373046875
1108,797.8021850585938,799.010986328125,798.6080322265625,792.5640869140625
1109,795.7875366210938,796.1904907226562,794.981689453125,793.7728881835938
1110,796.996337890625,797.8021850585938,794.5787353515625,799.010986328125
1111,799.8168334960938,800.6226806640625,798.6080322265625,799.4139404296875
1112,803.8461303710938,801.025634765625,798.2051391601562,793.3699340820312
1113,804.2490844726562,801.8314819335938,795.7875366210938,794.981689453125
1114,799.4139404296875,799.8168334960938,794.1758422851562,798.2051391601562
1115,800.6226806640625,796.1904907226562,790.1465454101562,797.3992919921875
1116,808.2783813476562,793.7728881835938,792.967041015625,803.4432373046875
1117,809.89013671875,788.937744140625,797.8021850585938,799.4139404296875
1118,805.4578857421875,791.3552856445312,796.996337890625,792.5640869140625
1119,805.4578857421875,793.7728881835938,796.996337890625,795.7875366210938
1120,805.4578857421875,789.3406372070312,794.5787353515625,797.8021850585938
1121,801.4285888671875,789.7435913085938,792.5640869140625,797.3992919921875
1122,796.1904907226562,791.7582397460938,792.5640869140625,792.5640869140625
1123,792.967041015625,787.3259887695312,795.3846435546875,791.3552856445312
1124,793.7728881835938,788.937744140625,797.3992919921875,794.5787353515625
1125,791.7582397460938,792.967041015625,795.7875366210938,798.2051391601562
1126,794.5787353515625,791.7582397460938,793.7728881835938,805.4578857421875
1127,797.3992919921875,791.3552856445312,795.7875366210938,804.2490844726562
1128,796.5933837890625,790.1465454101562,794.981689453125,797.3992919921875
1129,799.4139404296875,790.5494384765625,797.8021850585938,802.2344360351562
1130,794.981689453125,787.3259887695312,799.010986328125,802.2344360351562
1131,798.2051391601562,789.7435913085938,792.5640869140625,788.1318969726562
1132,803.040283203125,784.5054931640625,796.5933837890625,784.1025390625
1133,798.6080322265625,780.4761962890625,797.8021850585938,789.7435913085938
1134,799.4139404296875,790.1465454101562,797.3992919921875,792.1611938476562
1135,802.2344360351562,796.5933837890625,797.8021850585938,788.937744140625
1136,801.4285888671875,794.5787353515625,793.7728881835938,799.8168334960938
1137,798.2051391601562,786.5201416015625,796.1904907226562,803.8461303710938
1138,795.3846435546875,787.7289428710938,798.2051391601562,797.3992919921875
1139,795.7875366210938,791.7582397460938,796.1904907226562,795.7875366210938
1140,796.996337890625,789.3406372070312,795.3846435546875,792.967041015625
1141,796.5933837890625,785.3113403320312,795.3846435546875,796.996337890625
1142,800.2197875976562,791.7582397460938,796.996337890625,795.3846435546875
1143,803.040283203125,792.1611938476562,794.5787353515625,792.5640869140625
1144,801.8314819335938,791.3552856445312,788.5347900390625,801.4285888671875
1145,798.6080322265625,798.2051391601562,792.1611938476562,804.6520385742188
1146,791.3552856445312,799.8168334960938,794.981689453125,794.1758422851562
1147,794.981689453125,799.010986328125,794.1758422851562,786.5201416015625
1148,803.040283203125,799.010986328125,796.5933837890625,794.1758422851562
1149,795.7875366210938,796.1904907226562,791.3552856445312,792.967041015625
1150,789.3406372070312,793.7728881835938,793.3699340820312,788.5347900390625
1151,792.5640869140625,796.5933837890625,797.3992919921875,795.7875366210938
1152,793.3699340820312,794.1758422851562,796.5933837890625,799.8168334960938
1153,795.7875366210938,785.7142944335938,796.1904907226562,794.1758422851562
1154,795.3846435546875,782.4908447265625,796.5933837890625,787.3259887695312
1155,799.010986328125,785.3113403320312,795.3846435546875,788.1318969726562
1156,806.6666870117188,795.7875366210938,790.1465454101562,790.952392578125
1157,802.2344360351562,796.1904907226562,790.5494384765625,788.1318969726562
1158,797.3992919921875,792.1611938476562,796.996337890625,783.2966918945312
1159,799.010986328125,793.7728881835938,798.2051391601562,792.1611938476562
1160,796.1904907226562,793.7728881835938,796.5933837890625,792.5640869140625
1161,793.7728881835938,791.7582397460938,796.1904907226562,787.7289428710938
1162,790.1465454101562,788.937744140625,792.967041015625,787.7289428710938
1163,790.1465454101562,790.1465454101562,794.1758422851562,793.3699340820312
1164,802.2344360351562,791.7582397460938,796.5933837890625,801.8314819335938
1165,800.6226806640625,790.5494384765625,791.7582397460938,796.996337890625
1166,801.025634765625,792.1611938476562,794.1758422851562,793.7728881835938
1167,805.4578857421875,796.1904907226562,797.3992919921875,800.2197875976562
1168,801.025634765625,795.7875366210938,796.5933837890625,805.054931640625
1169,796.1904907226562,794.1758422851562,797.8021850585938,803.8461303710938
1170,798.2051391601562,794.981689453125,794.1758422851562,800.2197875976562
1171,798.6080322265625,797.3992919921875,791.3552856445312,802.6373901367188
1172,792.5640869140625,797.3992919921875,796.1904907226562,801.025634765625
1173,788.937744140625,794.5787353515625,795.7875366210938,795.7875366210938
1174,791.7582397460938,792.5640869140625,793.3699340820312,802.2344360351562
1175,788.1318969726562,791.7582397460938,793.7728881835938,807.069580078125
1176,783.2966918945312,792.967041015625,794.1758422851562,803.040283203125
1177,788.937744140625,794.1758422851562,794.981689453125,801.025634765625
1178,800.6226806640625,791.7582397460938,792.967041015625,798.2051391601562
1179,801.8314819335938,792.1611938476562,792.967041015625,809.4871826171875
1180,794.981689453125,798.6080322265625,798.2051391601562,801.8314819335938
1181,785.7142944335938,801.4285888671875,796.5933837890625,781.2820434570312
1182,779.6703491210938,795.7875366210938,791.7582397460938,782.4908447265625
1183,786.5201416015625,793.7728881835938,793.3699340820312,796.996337890625
1184,789.3406372070312,794.5787353515625,798.6080322265625,799.010986328125
1185,789.3406372070312,792.967041015625,801.4285888671875,793.7728881835938
1186,791.7582397460938,792.1611938476562,797.3992919921875,794.5787353515625
1187,799.010986328125,793.3699340820312,794.5787353515625,801.8314819335938
1188,799.010986328125,796.1904907226562,792.5640869140625,802.6373901367188
1189,794.5787353515625,790.1465454101562,792.5640869140625,794.1758422851562
1190,794.5787353515625,786.1171875,791.7582397460938,794.1758422851562
1191,790.5494384765625,784.908447265625,789.7435913085938,790.1465454101562
1192,788.5347900390625,784.5054931640625,788.937744140625,785.7142944335938
1193,788.937744140625,785.7142944335938,788.1318969726562,788.5347900390625
1194,792.1611938476562,782.4908447265625,786.923095703125,794.981689453125
1195,796.5933837890625,783.2966918945312,782.893798828125,795.7875366210938
1196,792.5640869140625,789.3406372070312,786.1171875,786.923095703125
1197,784.908447265625,792.967041015625,789.3406372070312,786.923095703125
1198,784.5054931640625,788.1318969726562,786.1171875,790.952392578125
1199,781.6849975585938,783.6996459960938,788.5347900390625,791.3552856445312
1200,781.6849975585938,785.3113403320312,792.5640869140625,793.7728881835938
1201,787.3259887695312,785.7142944335938,793.3699340820312,792.1611938476562
1202,790.5494384765625,784.5054931640625,791.3552856445312,794.981689453125
1203,789.3406372070312,784.1025390625,789.3406372070312,794.5787353515625
1204,787.3259887695312,788.5347900390625,788.1318969726562,786.1171875
1205,792.967041015625,791.7582397460938,792.967041015625,787.7289428710938
1206,795.7875366210938,787.7289428710938,792.967041015625,800.6226806640625
1207,798.2051391601562,787.3259887695312,789.7435913085938,807.87548828125
1208,797.8021850585938,789.7435913085938,791.3552856445312,795.3846435546875
1209,797.8021850585938,788.5347900390625,792.967041015625,792.1611938476562
1210,798.6080322265625,792.967041015625,794.1758422851562,798.6080322265625
1211,799.4139404296875,797.3992919921875,796.5933837890625,797.3992919921875
1212,801.8314819335938,796.996337890625,796.1904907226562,793.7728881835938
1213,795.3846435546875,790.1465454101562,795.3846435546875,799.010986328125
1214,793.3699340820312,788.937744140625,797.8021850585938,801.8314819335938
1215,795.7875366210938,797.8021850585938,801.025634765625,794.1758422851562
1216,800.2197875976562,802.2344360351562,805.054931640625,799.4139404296875
1217,805.054931640625,801.4285888671875,806.6666870117188,805.4578857421875
1218,796.1904907226562,792.5640869140625,800.6226806640625,796.1904907226562
1219,784.1025390625,784.908447265625,797.3992919921875,794.1758422851562
1220,788.937744140625,792.1611938476562,799.8168334960938,800.2197875976562
1221,795.3846435546875,795.3846435546875,800.6226806640625,799.4139404296875
1222,789.3406372070312,789.7435913085938,801.8314819335938,800.6226806640625
1223,788.937744140625,792.967041015625,800.2197875976562,800.6226806640625
1224,794.5787353515625,792.967041015625,797.3992919921875,794.981689453125
1225,797.3992919921875,789.3406372070312,796.1904907226562,799.010986328125
1226,796.5933837890625,790.952392578125,796.1904907226562,803.8461303710938
1227,791.7582397460938,793.7728881835938,798.2051391601562,794.981689453125
1228,788.5347900390625,796.1904907226562,797.8021850585938,787.3259887695312
1229,789.3406372070312,803.040283203125,798.2051391601562,792.5640869140625
1230,789.7435913085938,798.6080322265625,797.3992919921875,795.3846435546875
1231,796.996337890625,789.7435913085938,795.7875366210938,794.5787353515625
1232,800.2197875976562,793.3699340820312,796.996337890625,791.7582397460938
1233,796.5933837890625,796.1904907226562,797.8021850585938,790.952392578125
1234,795.7875366210938,797.8021850585938,799.4139404296875,790.1465454101562
1235,794.1758422851562,796.5933837890625,798.2051391601562,786.923095703125
1236,794.1758422851562,790.1465454101562,792.5640869140625,787.7289428710938
1237,795.3846435546875,789.3406372070312,788.5347900390625,792.1611938476562
1238,791.3552856445312,789.7435913085938,792.5640869140625,788.5347900390625
1239,789.3406372070312,782.4908447265625,796.1904907226562,786.923095703125
1240,791.3552856445312,786.5201416015625,794.1758422851562,790.952392578125
1241,790.1465454101562,794.981689453125,793.3699340820312,787.7289428710938
1242,783.6996459960938,786.5201416015625,794.1758422851562,785.7142944335938
1243,782.893798828125,784.908447265625,797.3992919921875,796.5933837890625
1244,782.087890625,792.5640869140625,795.3846435546875,794.981689453125
1245,780.0732421875,793.3699340820312,791.7582397460938,787.3259887695312
1246,781.2820434570312,789.3406372070312,793.7728881835938,792.5640869140625
1247,783.2966918945312,788.1318969726562,790.5494384765625,788.5347900390625
1248,789.3406372070312,788.5347900390625,787.7289428710938,788.5347900390625
1249,789.7435913085938,786.923095703125,791.3552856445312,784.908447265625
1250,780.879150390625,783.2966918945312,792.1611938476562,776.8497924804688
1251,781.2820434570312,786.923095703125,793.7728881835938,782.4908447265625
1252,782.087890625,789.3406372070312,793.7728881835938,788.5347900390625
1253,784.5054931640625,789.7435913085938,791.3552856445312,794.981689453125
1254,792.1611938476562,791.7582397460938,794.1758422851562,794.5787353515625
1255,796.5933837890625,791.3552856445312,794.1758422851562,792.5640869140625
1256,793.3699340820312,792.1611938476562,793.7728881835938,790.1465454101562
1257,792.5640869140625,792.5640869140625,791.3552856445312,784.5054931640625
1258,798.2051391601562,794.5787353515625,792.1611938476562,789.7435913085938
1259,803.8461303710938,792.1611938476562,795.7875366210938,797.8021850585938
1260,806.6666870117188,790.1465454101562,797.3992919921875,799.010986328125
1261,805.8607788085938,794.1758422851562,797.8021850585938,796.1904907226562
1262,805.8607788085938,795.7875366210938,794.1758422851562,799.8168334960938
1263,799.4139404296875,792.5640869140625,790.952392578125,800.6226806640625
1264,801.4285888671875,793.7728881835938,798.2051391601562,813.113525390625
1265,802.2344360351562,791.3552856445312,801.4285888671875,812.7106323242188
1266,796.5933837890625,792.967041015625,798.2051391601562,792.967041015625
1267,797.3992919921875,794.5787353515625,796.1904907226562,791.7582397460938
1268,796.996337890625,790.5494384765625,796.5933837890625,798.6080322265625
1269,794.981689453125,788.5347900390625,794.1758422851562,796.1904907226562
1270,795.3846435546875,790.1465454101562,790.1465454101562,796.996337890625
1271,798.2051391601562,786.923095703125,792.1611938476562,797.3992919921875
1272,796.996337890625,780.879150390625,797.3992919921875,794.981689453125
1273,792.5640869140625,781.6849975585938,803.8461303710938,801.025634765625
1274,790.952392578125,786.5201416015625,805.4578857421875,803.8461303710938
1275,794.1758422851562,789.3406372070312,802.2344360351562,804.6520385742188
1276,788.1318969726562,786.1171875,797.3992919921875,794.5787353515625
1277,785.3113403320312,786.1171875,798.2051391601562,782.4908447265625
1278,790.1465454101562,789.7435913085938,801.025634765625,785.3113403320312
1279,790.952392578125,791.3552856445312,795.7875366210938,786.1171875
1280,794.5787353515625,790.5494384765625,798.2051391601562,789.3406372070312
1281,794.1758422851562,786.923095703125,801.4285888671875,790.5494384765625
1282,793.7728881835938,790.1465454101562,799.4139404296875,788.937744140625
1283,801.8314819335938,792.5640869140625,798.6080322265625,792.967041015625
1284,801.8314819335938,788.1318969726562,799.010986328125,792.967041015625
1285,793.3699340820312,790.952392578125,799.010986328125,793.3699340820312
1286,789.3406372070312,793.7728881835938,795.7875366210938,796.5933837890625
1287,786.923095703125,794.1758422851562,797.8021850585938,793.3699340820312
1288,790.952392578125,797.3992919921875,804.2490844726562,790.5494384765625
1289,792.967041015625,794.981689453125,803.8461303710938,799.010986328125
1290,790.5494384765625,793.7728881835938,801.8314819335938,799.4139404296875
1291,786.5201416015625,792.5640869140625,797.8021850585938,794.5787353515625
1292,788.5347900390625,793.3699340820312,797.8021850585938,794.5787353515625
1293,788.5347900390625,790.952392578125,796.1904907226562,790.5494384765625
1294,788.937744140625,790.1465454101562,791.7582397460938,794.5787353515625
1295,792.967041015625,795.7875366210938,794.1758422851562,800.2197875976562
1296,789.7435913085938,796.5933837890625,794.981689453125,792.967041015625
1297,789.3406372070312,792.967041015625,794.981689453125,793.7728881835938
1298,800.6226806640625,790.1465454101562,796.996337890625,803.4432373046875
1299,801.4285888671875,790.5494384765625,792.5640869140625,799.010986328125
1300,792.1611938476562,790.952392578125,795.7875366210938,785.3113403320312
1301,796.1904907226562,789.7435913085938,799.4139404296875,790.952392578125
1302,796.5933837890625,792.1611938476562,796.5933837890625,794.1758422851562
1303,798.2051391601562,793.3699340820312,796.996337890625,791.3552856445312
1304,801.4285888671875,791.3552856445312,793.7728881835938,789.7435913085938
1305,803.8461303710938,789.7435913085938,791.7582397460938,790.5494384765625
1306,803.4432373046875,791.3552856445312,792.967041015625,791.7582397460938
1307,799.8168334960938,792.967041015625,792.1611938476562,790.952392578125
1308,801.8314819335938,787.7289428710938,790.5494384765625,795.7875366210938
1309,805.4578857421875,785.3113403320312,784.908447265625,796.996337890625
1310,801.8314819335938,788.937744140625,779.6703491210938,792.1611938476562
1311,790.1465454101562,790.5494384765625,787.3259887695312,780.4761962890625
1312,776.8497924804688,785.3113403320312,790.1465454101562,774.8351440429688
1313,776.8497924804688,783.2966918945312,788.937744140625,787.7289428710938
1314,782.087890625,783.6996459960938,791.3552856445312,796.5933837890625
1315,778.8644409179688,781.2820434570312,790.952392578125,794.5787353515625
1316,780.0732421875,781.6849975585938,790.952392578125,790.5494384765625
1317,781.6849975585938,787.7289428710938,791.7582397460938,792.1611938476562
1318,782.893798828125,792.967041015625,789.7435913085938,796.1904907226562
1319,787.3259887695312,794.981689453125,793.7728881835938,792.5640869140625
1320,788.1318969726562,793.7728881835938,794.981689453125,791.3552856445312
1321,789.3406372070312,788.1318969726562,790.5494384765625,795.3846435546875
1322,786.923095703125,790.952392578125,790.5494384765625,799.4139404296875
1323,788.1318969726562,798.6080322265625,791.3552856445312,796.1904907226562
1324,793.3699340820312,793.3699340820312,790.952392578125,801.4285888671875
1325,791.7582397460938,790.952392578125,792.967041015625,800.2197875976562
1326,789.7435913085938,796.5933837890625,793.3699340820312,794.1758422851562
1327,796.5933837890625,793.7728881835938,792.1611938476562,793.3699340820312
1328,799.010986328125,791.3552856445312,790.952392578125,791.3552856445312
1329,795.3846435546875,796.5933837890625,791.7582397460938,789.3406372070312
1330,789.3406372070312,796.996337890625,790.952392578125,788.1318969726562
1331,783.6996459960938,793.3699340820312,789.3406372070312,786.5201416015625
1332,780.879150390625,792.5640869140625,792.967041015625,790.952392578125
1333,784.908447265625,789.7435913085938,797.3992919921875,805.4578857421875
1334,790.1465454101562,788.5347900390625,793.7728881835938,805.4578857421875
1335,788.1318969726562,788.937744140625,792.1611938476562,795.3846435546875
1336,790.952392578125,790.5494384765625,793.7728881835938,795.7875366210938
1337,792.1611938476562,790.952392578125,792.1611938476562,794.1758422851562
1338,793.3699340820312,788.5347900390625,794.5787353515625,788.1318969726562
1339,797.3992919921875,783.6996459960938,795.7875366210938,790.1465454101562
1340,794.981689453125,790.952392578125,794.1758422851562,796.5933837890625
1341,793.7728881835938,802.2344360351562,793.7728881835938,795.3846435546875
1342,790.5494384765625,799.010986328125,792.5640869140625,794.5787353515625
1343,788.5347900390625,796.1904907226562,791.7582397460938,791.3552856445312
1344,794.5787353515625,797.8021850585938,791.7582397460938,788.1318969726562
1345,799.010986328125,799.4139404296875,790.1465454101562,792.1611938476562
1346,796.1904907226562,796.5933837890625,790.5494384765625,795.7875366210938
1347,797.3992919921875,795.3846435546875,792.1611938476562,796.1904907226562
1348,801.8314819335938,797.3992919921875,791.3552856445312,800.6226806640625
1349,803.4432373046875,796.996337890625,794.981689453125,802.2344360351562
1350,800.6226806640625,797.3992919921875,796.5933837890625,790.1465454101562
1351,797.3992919921875,792.1611938476562,792.967041015625,784.1025390625
1352,794.981689453125,787.7289428710938,791.7582397460938,781.2820434570312
1353,797.3992919921875,791.3552856445312,790.952392578125,780.879150390625
1354,801.4285888671875,794.981689453125,793.3699340820312,780.4761962890625
1355,805.054931640625,796.1904907226562,793.3699340820312,790.1465454101562
1356,802.2344360351562,794.1758422851562,793.3699340820312,801.4285888671875
1357,798.6080322265625,794.1758422851562,793.3699340820312,793.3699340820312
1358,798.6080322265625,794.1758422851562,791.7582397460938,789.7435913085938
1359,800.6226806640625,793.7728881835938,792.967041015625,799.8168334960938
1360,801.8314819335938,792.1611938476562,790.952392578125,796.996337890625
1361,799.4139404296875,788.5347900390625,790.952392578125,790.952392578125
1362,797.3992919921875,787.7289428710938,791.3552856445312,794.1758422851562
1363,799.4139404296875,788.5347900390625,791.7582397460938,793.7728881835938
1364,794.5787353515625,786.1171875,792.967041015625,789.7435913085938
1365,793.3699340820312,790.1465454101562,788.937744140625,787.7289428710938
1366,794.1758422851562,798.2051391601562,789.7435913085938,789.7435913085938
1367,790.1465454101562,795.7875366210938,792.1611938476562,792.5640869140625
1368,789.3406372070312,794.5787353515625,788.5347900390625,787.7289428710938
1369,794.5787353515625,794.981689453125,788.937744140625,786.1171875
1370,798.6080322265625,791.3552856445312,794.5787353515625,791.7582397460938
1371,797.8021850585938,791.7582397460938,795.3846435546875,798.2051391601562
1372,794.981689453125,794.1758422851562,795.7875366210938,799.8168334960938
1373,792.967041015625,794.1758422851562,795.3846435546875,788.937744140625
1374,800.6226806640625,796.1904907226562,792.967041015625,784.908447265625
1375,799.8168334960938,794.5787353515625,792.5640869140625,789.7435913085938
1376,796.1904907226562,793.7728881835938,791.3552856445312,793.3699340820312
1377,800.6226806640625,793.7728881835938,789.3406372070312,796.1904907226562
1378,795.7875366210938,792.1611938476562,790.5494384765625,792.967041015625
1379,791.7582397460938,792.1611938476562,791.3552856445312,792.967041015625
1380,796.5933837890625,792.967041015625,792.1611938476562,799.8168334960938
1381,794.5787353515625,794.981689453125,792.5640869140625,799.4139404296875
1382,789.7435913085938,794.981689453125,786.923095703125,801.025634765625
1383,792.1611938476562,796.1904907226562,786.1171875,801.025634765625
1384,792.967041015625,796.5933837890625,792.967041015625,794.1758422851562
1385,795.7875366210938,795.7875366210938,797.8021850585938,799.8168334960938
1386,796.1904907226562,790.1465454101562,794.1758422851562,798.2051391601562
1387,793.3699340820312,789.7435913085938,789.3406372070312,791.7582397460938
1388,798.6080322265625,795.3846435546875,793.3699340820312,793.7728881835938
1389,795.7875366210938,797.3992919921875,795.7875366210938,794.5787353515625
1390,793.7728881835938,796.1904907226562,793.3699340820312,801.025634765625
1391,797.8021850585938,789.3406372070312,794.1758422851562,804.2490844726562
1392,796.996337890625,791.7582397460938,797.3992919921875,803.4432373046875
1393,795.3846435546875,791.7582397460938,794.981689453125,803.4432373046875
1394,799.8168334960938,786.923095703125,794.1758422851562,807.069580078125
1395,797.3992919921875,796.5933837890625,796.1904907226562,809.89013671875
1396,794.1758422851562,799.8168334960938,795.7875366210938,807.069580078125
1397,798.6080322265625,793.7728881835938,796.1904907226562,800.2197875976562
1398,800.2197875976562,790.5494384765625,795.7875366210938,796.1904907226562
1399,803.4432373046875,794.5787353515625,796.5933837890625,799.8168334960938
1400,803.8461303710938,794.1758422851562,799.4139404296875,800.6226806640625
1401,797.3992919921875,793.3699340820312,799.4139404296875,801.8314819335938
1402,796.1904907226562,795.7875366210938,801.8314819335938,802.6373901367188
1403,796.1904907226562,793.3699340820312,801.8314819335938,802.2344360351562
1404,790.5494384765625,791.3552856445312,800.2197875976562,799.4139404296875
1405,788.937744140625,790.952392578125,799.8168334960938,794.981689453125
1406,790.952392578125,786.923095703125,797.3992919921875,792.967041015625
1407,789.7435913085938,788.5347900390625,797.8021850585938,787.3259887695312
1408,790.1465454101562,787.7289428710938,797.3992919921875,784.1025390625
1409,791.7582397460938,788.1318969726562,798.6080322265625,787.3259887695312
1410,792.967041015625,786.1171875,797.3992919921875,788.5347900390625
1411,792.967041015625,786.1171875,793.3699340820312,786.5201416015625
1412,792.5640869140625,789.7435913085938,789.3406372070312,784.908447265625
1413,789.7435913085938,782.4908447265625,788.937744140625,788.1318969726562
1414,793.3699340820312,782.893798828125,788.5347900390625,793.7728881835938
1415,789.3406372070312,788.937744140625,788.937744140625,796.1904907226562
1416,784.908447265625,790.952392578125,790.952392578125,794.981689453125
1417,793.3699340820312,789.7435913085938,792.1611938476562,802.6373901367188
1418,794.1758422851562,788.5347900390625,794.981689453125,812.7106323242188
1419,791.7582397460938,791.3552856445312,797.3992919921875,806.2637329101562
1420,797.3992919921875,796.996337890625,790.952392578125,803.4432373046875
1421,801.8314819335938,789.7435913085938,789.3406372070312,805.054931640625
1422,799.010986328125,790.1465454101562,793.7728881835938,803.8461303710938
1423,801.025634765625,803.4432373046875,794.1758422851562,799.4139404296875
1424,804.2490844726562,799.8168334960938,794.981689453125,794.1758422851562
1425,799.4139404296875,797.8021850585938,792.5640869140625,794.981689453125
1426,795.7875366210938,803.4432373046875,792.5640869140625,799.8168334960938
1427,799.8168334960938,802.6373901367188,795.7875366210938,801.4285888671875
1428,799.8168334960938,797.3992919921875,791.3552856445312,798.6080322265625
1429,794.5787353515625,796.996337890625,785.7142944335938,795.7875366210938
1430,788.937744140625,790.5494384765625,782.893798828125,784.5054931640625
1431,792.1611938476562,782.087890625,790.5494384765625,784.1025390625
1432,796.5933837890625,786.5201416015625,794.1758422851562,792.967041015625
1433,793.3699340820312,786.5201416015625,791.7582397460938,793.3699340820312
1434,789.7435913085938,789.3406372070312,793.3699340820312,790.1465454101562
1435,793.3699340820312,795.7875366210938,792.1611938476562,786.923095703125
1436,800.2197875976562,793.7728881835938,797.3992919921875,786.5201416015625
1437,798.6080322265625,792.1611938476562,794.5787353515625,788.5347900390625
1438,799.8168334960938,794.5787353515625,789.3406372070312,792.5640869140625
1439,802.6373901367188,796.1904907226562,792.967041015625,797.8021850585938
1440,799.8168334960938,793.7728881835938,795.7875366210938,798.2051391601562
1441,793.7728881835938,789.7435913085938,792.5640869140625,796.996337890625
1442,792.1611938476562,789.3406372070312,790.952392578125,796.996337890625
1443,795.3846435546875,790.1465454101562,794.5787353515625,794.5787353515625
1444,798.2051391601562,787.7289428710938,790.952392578125,794.5787353515625
1445,799.010986328125,784.908447265625,792.967041015625,802.2344360351562
1446,797.8021850585938,786.5201416015625,799.4139404296875,803.040283203125
1447,794.1758422851562,790.1465454101562,798.2051391601562,798.6080322265625
1448,794.5787353515625,799.8168334960938,798.2051391601562,796.1904907226562
1449,795.3846435546875,798.6080322265625,798.2051391601562,792.967041015625
1450,794.1758422851562,793.7728881835938,795.7875366210938,792.1611938476562
1451,794.1758422851562,792.967041015625,798.6080322265625,791.3552856445312
1452,791.7582397460938,792.967041015625,800.2197875976562,790.952392578125
1453,793.7728881835938,792.1611938476562,799.8168334960938,791.3552856445312
1454,794.5787353515625,792.967041015625,802.2344360351562,787.3259887695312
1455,792.967041015625,792.967041015625,802.2344360351562,790.1465454101562
1456,794.981689453125,784.1025390625,799.4139404296875,795.3846435546875
1457,791.7582397460938,787.7289428710938,802.6373901367188,795.7875366210938
1458,789.7435913085938,792.5640869140625,802.2344360351562,790.952392578125
1459,794.1758422851562,796.1904907226562,797.8021850585938,788.1318969726562
1460,792.5640869140625,796.5933837890625,799.4139404296875,792.1611938476562
1461,790.5494384765625,797.8021850585938,799.8168334960938,788.5347900390625
1462,796.996337890625,799.010986328125,797.3992919921875,784.1025390625
1463,799.4139404296875,792.5640869140625,796.1904907226562,790.5494384765625
1464,792.967041015625,786.5201416015625,796.996337890625,792.5640869140625
1465,792.1611938476562,787.3259887695312,793.3699340820312,786.1171875
1466,795.7875366210938,792.5640869140625,793.7728881835938,787.3259887695312
1467,801.025634765625,792.1611938476562,794.981689453125,796.996337890625
1468,799.010986328125,788.937744140625,795.7875366210938,797.3992919921875
1469,790.1465454101562,789.3406372070312,795.7875366210938,792.5640869140625
1470,794.981689453125,792.967041015625,795.3846435546875,799.4139404296875
1471,801.4285888671875,795.3846435546875,794.5787353515625,805.054931640625
1472,801.4285888671875,796.1904907226562,794.1758422851562,802.6373901367188
1473,799.8168334960938,794.1758422851562,797.3992919921875,805.054931640625
1474,792.967041015625,791.7582397460938,797.3992919921875,806.2637329101562
1475,794.1758422851562,794.1758422851562,792.967041015625,804.2490844726562
1476,794.981689453125,795.3846435546875,794.5787353515625,799.8168334960938
1477,791.3552856445312,795.3846435546875,801.025634765625,794.1758422851562
1478,792.967041015625,794.981689453125,796.996337890625,791.3552856445312
1479,795.3846435546875,793.3699340820312,793.3699340820312,801.4285888671875
1480,798.2051391601562,792.5640869140625,798.2051391601562,801.8314819335938
1481,797.3992919921875,789.7435913085938,800.2197875976562,789.3406372070312
1482,796.1904907226562,789.7435913085938,797.8021850585938,790.5494384765625
1483,796.996337890625,791.3552856445312,798.6080322265625,796.996337890625
1484,793.3699340820312,793.3699340820312,799.4139404296875,796.5933837890625
1485,790.5494384765625,794.1758422851562,799.8168334960938,794.981689453125
1486,794.1758422851562,798.2051391601562,797.8021850585938,798.2051391601562
1487,796.996337890625,803.8461303710938,796.5933837890625,800.6226806640625
1488,799.010986328125,801.8314819335938,801.025634765625,796.5933837890625
1489,799.010986328125,801.4285888671875,797.8021850585938,788.5347900390625
1490,795.7875366210938,796.1904907226562,793.7728881835938,790.952392578125
1491,791.7582397460938,790.5494384765625,795.3846435546875,796.996337890625
1492,794.1758422851562,788.1318969726562,795.7875366210938,796.5933837890625
1493,795.3846435546875,785.3113403320312,798.6080322265625,801.4285888671875
1494,789.3406372070312,785.7142944335938,799.4139404296875,796.1904907226562
1495,789.3406372070312,782.4908447265625,793.7728881835938,790.1465454101562
1496,790.5494384765625,784.5054931640625,795.7875366210938,792.1611938476562
1497,788.937744140625,797.3992919921875,794.981689453125,791.7582397460938
1498,789.7435913085938,794.5787353515625,789.3406372070312,796.5933837890625
1499,791.3552856445312,786.923095703125,795.3846435546875,797.3992919921875
1500,789.7435913085938,792.1611938476562,792.5640869140625,792.5640869140625
1501,788.1318969726562,794.5787353515625,783.6996459960938,794.5787353515625
1502,793.7728881835938,792.1611938476562,785.7142944335938,794.981689453125
1503,802.6373901367188,796.1904907226562,789.7435913085938,794.1758422851562
1504,804.2490844726562,796.5933837890625,793.7728881835938,798.2051391601562
1505,802.6373901367188,791.3552856445312,795.7875366210938,800.2197875976562
1506,797.3992919921875,789.3406372070312,794.1758422851562,791.3552856445312
1507,792.5640869140625,792.1611938476562,794.981689453125,782.087890625
1508,792.967041015625,793.3699340820312,796.5933837890625,790.1465454101562
1509,794.981689453125,793.3699340820312,795.3846435546875,799.8168334960938
1510,794.1758422851562,792.1611938476562,792.5640869140625,800.6226806640625
1511,794.5787353515625,791.7582397460938,796.5933837890625,796.1904907226562
1512,798.2051391601562,788.937744140625,797.8021850585938,794.5787353515625
1513,802.6373901367188,789.3406372070312,796.1904907226562,796.996337890625
1514,797.8021850585938,790.1465454101562,795.3846435546875,794.981689453125
1515,789.7435913085938,787.7289428710938,797.8021850585938,781.6849975585938
1516,793.7728881835938,789.7435913085938,797.3992919921875,784.908447265625
1517,797.3992919921875,791.7582397460938,792.967041015625,794.5787353515625
1518,796.996337890625,790.1465454101562,791.3552856445312,787.3259887695312
1519,799.8168334960938,788.937744140625,791.7582397460938,787.3259887695312
1520,799.010986328125,788.1318969726562,792.5640869140625,789.3406372070312
1521,795.3846435546875,794.981689453125,790.1465454101562,779.6703491210938
1522,790.1465454101562,796.5933837890625,791.7582397460938,770.8058471679688
1523,787.3259887695312,793.7728881835938,794.1758422851562,772.0146484375
1524,791.7582397460938,791.7582397460938,792.967041015625,783.2966918945312
1525,787.7289428710938,781.2820434570312,793.3699340820312,789.7435913085938
1526,784.908447265625,785.3113403320312,797.3992919921875,792.967041015625
1527,790.1465454101562,795.7875366210938,802.2344360351562,794.1758422851562
1528,796.1904907226562,792.5640869140625,799.4139404296875,796.5933837890625
1529,792.5640869140625,794.1758422851562,794.981689453125,796.5933837890625
1530,782.4908447265625,798.2051391601562,794.981689453125,782.4908447265625
1531,783.6996459960938,795.7875366210938,793.3699340820312,783.2966918945312
1532,788.1318969726562,786.923095703125,791.3552856445312,792.5640869140625
1533,789.7435913085938,787.7289428710938,792.967041015625,789.7435913085938
1534,796.1904907226562,794.981689453125,788.937744140625,786.5201416015625
1535,798.2051391601562,797.3992919921875,785.7142944335938,790.5494384765625
1536,794.1758422851562,799.4139404296875,788.1318969726562,793.7728881835938
1537,794.1758422851562,794.5787353515625,789.7435913085938,791.7582397460938
1538,794.981689453125,787.7289428710938,791.7582397460938,791.3552856445312
1539,793.7728881835938,789.3406372070312,790.5494384765625,787.7289428710938
1540,798.6080322265625,791.7582397460938,789.7435913085938,794.1758422851562
1541,795.7875366210938,794.1758422851562,792.967041015625,796.5933837890625
1542,794.1758422851562,793.7728881835938,792.967041015625,791.3552856445312
1543,796.996337890625,791.3552856445312,794.1758422851562,793.7728881835938
1544,799.010986328125,791.3552856445312,796.5933837890625,790.1465454101562
1545,799.4139404296875,796.5933837890625,798.2051391601562,792.967041015625
1546,793.3699340820312,798.6080322265625,795.3846435546875,788.5347900390625
1547,792.5640869140625,793.3699340820312,791.7582397460938,788.1318969726562
1548,789.7435913085938,789.7435913085938,796.996337890625,793.7728881835938
1549,786.5201416015625,790.1465454101562,798.2051391601562,794.981689453125
1550,785.7142944335938,792.1611938476562,795.7875366210938,797.8021850585938
1551,789.3406372070312,788.937744140625,799.8168334960938,800.6226806640625
1552,796.5933837890625,782.893798828125,805.054931640625,803.040283203125
1553,794.5787353515625,789.3406372070312,809.084228515625,792.967041015625
1554,794.5787353515625,796.5933837890625,799.4139404296875,785.7142944335938
1555,793.7728881835938,791.3552856445312,794.5787353515625,788.937744140625
1556,791.3552856445312,789.7435913085938,801.4285888671875,792.967041015625
1557,789.3406372070312,794.981689453125,797.3992919921875,790.952392578125
1558,787.3259887695312,797.3992919921875,792.5640869140625,787.3259887695312
1559,794.981689453125,798.6080322265625,794.1758422851562,788.937744140625
1560,798.6080322265625,795.3846435546875,794.1758422851562,793.7728881835938
1561,790.952392578125,793.7728881835938,790.1465454101562,790.952392578125
1562,788.5347900390625,791.7582397460938,789.7435913085938,786.1171875
1563,792.967041015625,791.7582397460938,791.3552856445312,787.7289428710938
1564,794.1758422851562,790.952392578125,790.5494384765625,787.3259887695312
1565,791.7582397460938,792.967041015625,788.5347900390625,779.6703491210938
1566,788.5347900390625,790.952392578125,788.1318969726562,779.2673950195312
1567,790.5494384765625,789.3406372070312,791.3552856445312,782.893798828125
1568,797.8021850585938,793.7728881835938,791.7582397460938,780.0732421875
1569,800.2197875976562,799.010986328125,787.3259887695312,782.4908447265625
1570,799.8168334960938,801.4285888671875,784.5054931640625,788.5347900390625
1571,799.8168334960938,794.981689453125,790.1465454101562,789.7435913085938
1572,794.981689453125,793.3699340820312,791.3552856445312,787.3259887695312
1573,790.5494384765625,792.1611938476562,789.7435913085938,789.7435913085938
1574,792.967041015625,787.7289428710938,794.981689453125,793.3699340820312
1575,796.1904907226562,787.3259887695312,796.996337890625,799.8168334960938
