timestamp,RAW_TP9,RAW_AF7,RAW_AF8,RAW_TP10
1,787.7289428710938,790.5494384765625,796.1904907226562,791.7582397460938
2,790.952392578125,789.7435913085938,791.7582397460938,782.4908447265625
3,797.8021850585938,792.5640869140625,788.937744140625,790.1465454101562
4,799.4139404296875,795.7875366210938,795.3846435546875,800.6226806640625
5,800.2197875976562,793.3699340820312,796.5933837890625,804.6520385742188
6,801.8314819335938,786.923095703125,790.952392578125,801.025634765625
7,798.6080322265625,786.1171875,792.5640869140625,790.952392578125
8,792.1611938476562,789.7435913085938,790.952392578125,793.7728881835938
9,790.1465454101562,792.5640869140625,789.7435913085938,799.8168334960938
10,784.5054931640625,786.923095703125,791.3552856445312,796.5933837890625
11,780.0732421875,778.4615478515625,788.937744140625,793.7728881835938
12,783.6996459960938,780.4761962890625,789.7435913085938,799.010986328125
13,788.937744140625,789.7435913085938,793.3699340820312,796.996337890625
14,790.952392578125,792.967041015625,792.1611938476562,791.3552856445312
15,790.1465454101562,793.7728881835938,791.7582397460938,793.3699340820312
16,793.7728881835938,790.1465454101562,793.3699340820312,796.1904907226562
17,794.981689453125,786.923095703125,793.7728881835938,794.5787353515625
18,793.7728881835938,791.7582397460938,794.5787353515625,792.1611938476562
19,792.5640869140625,791.3552856445312,795.7875366210938,795.3846435546875
20,792.1611938476562,790.5494384765625,799.8168334960938,800.6226806640625
21,801.8314819335938,793.3699340820312,803.8461303710938,802.6373901367188
22,802.6373901367188,785.3113403320312,801.025634765625,798.6080322265625
23,790.952392578125,784.5054931640625,798.6080322265625,790.5494384765625
24,788.937744140625,791.7582397460938,796.1904907226562,790.1465454101562
25,790.1465454101562,796.5933837890625,799.010986328125,787.7289428710938
26,784.908447265625,799.8168334960938,802.6373901367188,791.3552856445312
27,785.7142944335938,796.996337890625,802.2344360351562,795.7875366210938
28,788.937744140625,788.5347900390625,799.4139404296875,794.981689453125
29,793.7728881835938,789.3406372070312,797.3992919921875,798.6080322265625
30,799.4139404296875,794.1758422851562,799.4139404296875,801.025634765625
31,799.8168334960938,793.3699340820312,798.6080322265625,802.2344360351562
32,798.6080322265625,793.3699340820312,797.8021850585938,794.981689453125
33,798.2051391601562,797.3992919921875,799.8168334960938,788.937744140625
34,798.6080322265625,797.8021850585938,798.6080322265625,786.5201416015625
35,794.1758422851562,793.7728881835938,796.996337890625,789.7435913085938
36,790.5494384765625,792.967041015625,794.981689453125,791.7582397460938
37,793.7728881835938,797.3992919921875,794.5787353515625,788.937744140625
38,797.8021850585938,798.6080322265625,794.981689453125,794.1758422851562
39,798.2051391601562,795.3846435546875,792.5640869140625,791.7582397460938
40,796.5933837890625,797.3992919921875,788.937744140625,783.2966918945312
41,799.4139404296875,800.2197875976562,787.7289428710938,793.3699340820312
42,799.4139404296875,791.7582397460938,792.1611938476562,806.2637329101562
43,801.025634765625,794.5787353515625,794.981689453125,801.8314819335938
44,806.6666870117188,803.4432373046875,797.3992919921875,791.7582397460938
45,799.8168334960938,793.7728881835938,797.8021850585938,792.967041015625
46,794.1758422851562,788.937744140625,795.7875366210938,790.952392578125
47,794.5787353515625,790.952392578125,796.1904907226562,786.923095703125
48,793.3699340820312,785.7142944335938,796.5933837890625,788.1318969726562
49,794.1758422851562,790.952392578125,796.1904907226562,791.7582397460938
50,788.937744140625,797.3992919921875,794.1758422851562,792.1611938476562
51,788.937744140625,795.3846435546875,797.8021850585938,791.7582397460938
52,799.8168334960938,794.5787353515625,799.8168334960938,796.5933837890625
53,797.8021850585938,792.967041015625,797.8021850585938,796.1904907226562
54,793.3699340820312,788.937744140625,793.3699340820312,795.7875366210938
55,796.996337890625,788.937744140625,791.3552856445312,804.2490844726562
56,796.1904907226562,788.5347900390625,792.5640869140625,798.2051391601562
57,792.967041015625,788.1318969726562,790.952392578125,789.3406372070312
58,791.3552856445312,788.1318969726562,790.1465454101562,787.3259887695312
59,787.7289428710938,784.5054931640625,788.5347900390625,780.879150390625
60,790.5494384765625,786.1171875,786.923095703125,781.2820434570312
61,795.7875366210938,784.908447265625,790.1465454101562,793.7728881835938
62,794.1758422851562,788.1318969726562,792.967041015625,799.8168334960938
63,793.3699340820312,792.5640869140625,788.937744140625,793.3699340820312
64,799.010986328125,788.937744140625,788.1318969726562,791.3552856445312
65,805.054931640625,788.5347900390625,792.5640869140625,794.5787353515625
66,806.2637329101562,790.5494384765625,792.1611938476562,799.010986328125
67,801.4285888671875,790.952392578125,794.5787353515625,790.952392578125
68,799.010986328125,792.1611938476562,791.3552856445312,785.7142944335938
69,803.040283203125,793.3699340820312,784.1025390625,797.3992919921875
70,807.4725341796875,795.3846435546875,786.5201416015625,798.2051391601562
71,808.6813354492188,793.3699340820312,788.937744140625,786.923095703125
72,808.6813354492188,795.7875366210938,788.5347900390625,786.5201416015625
73,799.8168334960938,796.996337890625,787.7289428710938,784.908447265625
74,789.3406372070312,795.3846435546875,788.937744140625,785.7142944335938
75,795.3846435546875,795.7875366210938,790.5494384765625,796.5933837890625
76,803.4432373046875,794.1758422851562,787.3259887695312,807.069580078125
77,795.7875366210938,791.7582397460938,786.923095703125,805.8607788085938
78,780.0732421875,789.7435913085938,795.7875366210938,798.2051391601562
79,783.6996459960938,793.7728881835938,795.3846435546875,794.981689453125
80,796.5933837890625,799.4139404296875,789.3406372070312,799.4139404296875
81,794.1758422851562,799.010986328125,794.1758422851562,801.025634765625
82,788.5347900390625,793.3699340820312,796.1904907226562,793.3699340820312
83,790.1465454101562,789.3406372070312,794.5787353515625,788.5347900390625
84,789.3406372070312,790.5494384765625,791.3552856445312,784.5054931640625
85,788.1318969726562,785.7142944335938,789.3406372070312,788.5347900390625
86,792.1611938476562,782.893798828125,793.3699340820312,790.952392578125
87,788.5347900390625,788.5347900390625,794.5787353515625,786.1171875
88,789.7435913085938,792.967041015625,796.1904907226562,794.981689453125
89,791.3552856445312,790.5494384765625,793.7728881835938,801.4285888671875
90,791.3552856445312,790.952392578125,790.952392578125,792.5640869140625
91,792.967041015625,795.7875366210938,791.3552856445312,788.937744140625
92,794.1758422851562,796.5933837890625,791.7582397460938,794.5787353515625
93,790.1465454101562,790.5494384765625,793.7728881835938,794.5787353515625
94,789.3406372070312,790.952392578125,794.1758422851562,791.7582397460938
95,790.5494384765625,794.1758422851562,794.5787353515625,784.908447265625
96,792.967041015625,789.3406372070312,794.5787353515625,790.1465454101562
97,799.4139404296875,792.5640869140625,794.981689453125,799.010986328125
98,795.3846435546875,799.8168334960938,796.1904907226562,791.7582397460938
99,796.996337890625,799.010986328125,796.996337890625,791.7582397460938
100,801.8314819335938,797.8021850585938,796.996337890625,802.6373901367188
101,796.996337890625,796.996337890625,800.2197875976562,806.2637329101562
102,799.4139404296875,795.7875366210938,796.996337890625,803.040283203125
103,802.2344360351562,796.996337890625,791.7582397460938,801.025634765625
104,797.3992919921875,793.7728881835938,795.7875366210938,801.025634765625
105,796.1904907226562,793.7728881835938,794.981689453125,791.3552856445312
106,800.2197875976562,794.981689453125,791.7582397460938,787.3259887695312
107,799.010986328125,792.967041015625,795.7875366210938,791.7582397460938
108,794.5787353515625,789.3406372070312,797.3992919921875,789.7435913085938
109,792.967041015625,792.1611938476562,796.996337890625,786.923095703125
110,793.7728881835938,795.7875366210938,798.6080322265625,788.1318969726562
111,797.8021850585938,791.3552856445312,800.6226806640625,799.010986328125
112,801.8314819335938,795.3846435546875,799.4139404296875,803.040283203125
113,799.010986328125,796.996337890625,799.010986328125,805.4578857421875
114,788.5347900390625,794.1758422851562,793.7728881835938,799.4139404296875
115,789.3406372070312,790.5494384765625,786.5201416015625,789.3406372070312
116,793.3699340820312,792.967041015625,790.1465454101562,790.952392578125
117,794.1758422851562,794.1758422851562,793.3699340820312,788.1318969726562
118,790.1465454101562,788.1318969726562,790.5494384765625,784.908447265625
119,783.2966918945312,789.7435913085938,791.3552856445312,780.879150390625
120,788.5347900390625,794.1758422851562,793.7728881835938,793.3699340820312
121,785.7142944335938,792.967041015625,797.8021850585938,795.7875366210938
122,782.4908447265625,789.3406372070312,796.1904907226562,791.3552856445312
123,788.1318969726562,784.908447265625,792.967041015625,802.2344360351562
124,788.937744140625,785.7142944335938,795.7875366210938,807.87548828125
125,791.3552856445312,787.7289428710938,795.7875366210938,798.2051391601562
126,791.3552856445312,786.923095703125,798.6080322265625,795.3846435546875
127,793.3699340820312,790.1465454101562,797.8021850585938,798.2051391601562
128,797.3992919921875,793.7728881835938,793.7728881835938,786.5201416015625
129,796.996337890625,795.3846435546875,793.7728881835938,784.1025390625
130,799.8168334960938,791.3552856445312,793.3699340820312,792.1611938476562
131,793.7728881835938,789.7435913085938,793.7728881835938,791.7582397460938
132,788.5347900390625,791.7582397460938,792.1611938476562,789.3406372070312
133,788.5347900390625,792.967041015625,792.5640869140625,791.7582397460938
134,793.7728881835938,794.1758422851562,794.981689453125,791.3552856445312
135,795.7875366210938,792.5640869140625,796.1904907226562,791.7582397460938
136,792.5640869140625,790.5494384765625,795.3846435546875,797.3992919921875
137,801.025634765625,793.3699340820312,794.981689453125,803.4432373046875
138,797.8021850585938,794.5787353515625,795.7875366210938,802.6373901367188
139,784.1025390625,795.3846435546875,796.996337890625,799.8168334960938
140,782.893798828125,796.996337890625,798.6080322265625,800.2197875976562
141,784.5054931640625,790.952392578125,797.8021850585938,800.2197875976562
142,785.3113403320312,789.7435913085938,792.5640869140625,793.7728881835938
143,784.908447265625,790.5494384765625,792.5640869140625,790.5494384765625
144,791.7582397460938,791.3552856445312,797.8021850585938,796.5933837890625
145,792.967041015625,795.3846435546875,797.8021850585938,790.1465454101562
146,793.3699340820312,791.7582397460938,798.2051391601562,790.1465454101562
147,801.4285888671875,792.1611938476562,801.4285888671875,804.6520385742188
148,802.2344360351562,794.981689453125,800.6226806640625,796.5933837890625
149,795.7875366210938,790.5494384765625,799.4139404296875,791.3552856445312
150,793.3699340820312,791.7582397460938,799.8168334960938,804.2490844726562
151,794.1758422851562,799.010986328125,799.4139404296875,795.7875366210938
152,792.967041015625,799.8168334960938,803.8461303710938,784.1025390625
153,795.3846435546875,798.6080322265625,805.054931640625,788.1318969726562
154,794.981689453125,799.010986328125,800.2197875976562,796.1904907226562
155,792.5640869140625,799.4139404296875,800.6226806640625,802.6373901367188
156,795.3846435546875,796.5933837890625,799.010986328125,799.010986328125
157,793.7728881835938,794.1758422851562,798.6080322265625,798.2051391601562
158,789.3406372070312,795.3846435546875,802.2344360351562,794.981689453125
159,796.1904907226562,793.3699340820312,803.040283203125,788.937744140625
160,794.981689453125,787.7289428710938,797.8021850585938,782.087890625
161,788.937744140625,783.2966918945312,793.3699340820312,792.1611938476562
162,794.981689453125,785.7142944335938,793.7728881835938,799.010986328125
163,795.7875366210938,784.1025390625,796.996337890625,786.5201416015625
164,790.952392578125,788.5347900390625,795.3846435546875,779.2673950195312
165,782.893798828125,794.1758422851562,790.952392578125,779.6703491210938
166,783.2966918945312,790.952392578125,798.6080322265625,787.3259887695312
167,792.1611938476562,795.7875366210938,803.040283203125,800.6226806640625
168,795.3846435546875,796.996337890625,800.2197875976562,804.6520385742188
169,793.3699340820312,796.1904907226562,800.6226806640625,801.8314819335938
170,796.1904907226562,796.996337890625,800.2197875976562,793.7728881835938
171,796.996337890625,794.981689453125,794.5787353515625,784.1025390625
172,792.967041015625,792.5640869140625,792.1611938476562,782.893798828125
173,794.981689453125,788.1318969726562,789.7435913085938,788.937744140625
174,799.8168334960938,794.981689453125,790.5494384765625,793.3699340820312
175,799.010986328125,798.6080322265625,796.1904907226562,788.5347900390625
176,797.3992919921875,788.5347900390625,797.8021850585938,790.5494384765625
177,796.5933837890625,790.1465454101562,799.8168334960938,793.3699340820312
178,795.7875366210938,795.7875366210938,801.025634765625,790.1465454101562
179,796.996337890625,792.5640869140625,801.025634765625,797.3992919921875
180,799.4139404296875,786.5201416015625,801.4285888671875,801.8314819335938
181,794.1758422851562,784.1025390625,799.4139404296875,797.3992919921875
182,784.908447265625,790.1465454101562,796.996337890625,794.5787353515625
183,786.1171875,791.7582397460938,796.5933837890625,792.967041015625
184,788.937744140625,777.6557006835938,792.5640869140625,790.5494384765625
185,786.923095703125,771.2088012695312,791.7582397460938,787.7289428710938
186,783.6996459960938,779.6703491210938,798.6080322265625,787.7289428710938
187,781.6849975585938,788.937744140625,798.6080322265625,794.5787353515625
188,783.6996459960938,785.3113403320312,796.1904907226562,797.8021850585938
189,788.5347900390625,783.2966918945312,797.3992919921875,797.3992919921875
190,792.5640869140625,787.7289428710938,803.4432373046875,797.8021850585938
191,789.3406372070312,785.3113403320312,802.6373901367188,796.5933837890625
192,791.3552856445312,788.5347900390625,800.6226806640625,799.8168334960938
193,796.1904907226562,793.7728881835938,802.6373901367188,804.2490844726562
194,802.2344360351562,787.7289428710938,798.2051391601562,798.6080322265625
195,806.6666870117188,784.1025390625,795.3846435546875,801.8314819335938
196,804.6520385742188,789.7435913085938,794.981689453125,810.2930297851562
197,792.5640869140625,790.1465454101562,797.3992919921875,786.923095703125
198,783.2966918945312,790.952392578125,797.8021850585938,768.3883056640625
199,788.1318969726562,786.5201416015625,793.3699340820312,776.4468994140625
200,795.7875366210938,784.5054931640625,795.7875366210938,786.5201416015625
201,797.8021850585938,792.1611938476562,791.7582397460938,785.7142944335938
202,792.5640869140625,790.952392578125,789.3406372070312,787.3259887695312
203,795.3846435546875,787.7289428710938,795.7875366210938,794.5787353515625
204,803.4432373046875,789.7435913085938,798.2051391601562,791.3552856445312
205,800.6226806640625,791.7582397460938,796.996337890625,787.7289428710938
206,798.6080322265625,790.1465454101562,794.5787353515625,786.1171875
207,800.2197875976562,787.7289428710938,796.1904907226562,795.7875366210938
208,794.1758422851562,789.7435913085938,796.996337890625,793.3699340820312
209,792.967041015625,792.1611938476562,798.2051391601562,788.1318969726562
210,794.981689453125,794.5787353515625,796.5933837890625,792.1611938476562
211,798.6080322265625,794.5787353515625,795.3846435546875,800.6226806640625
212,801.025634765625,788.5347900390625,800.2197875976562,803.4432373046875
213,797.8021850585938,794.5787353515625,800.6226806640625,799.4139404296875
214,794.1758422851562,799.8168334960938,798.2051391601562,803.040283203125
215,795.3846435546875,794.981689453125,798.6080322265625,801.8314819335938
216,795.7875366210938,792.967041015625,795.7875366210938,795.3846435546875
217,793.3699340820312,788.937744140625,790.952392578125,794.981689453125
218,795.3846435546875,788.5347900390625,788.1318969726562,798.6080322265625
219,799.010986328125,788.937744140625,786.923095703125,799.8168334960938
220,799.010986328125,787.3259887695312,789.3406372070312,796.996337890625
221,801.4285888671875,790.5494384765625,794.1758422851562,792.5640869140625
222,804.6520385742188,794.981689453125,797.8021850585938,789.7435913085938
223,805.054931640625,794.981689453125,796.1904907226562,798.2051391601562
224,800.6226806640625,793.3699340820312,797.3992919921875,799.8168334960938
225,796.1904907226562,791.7582397460938,796.1904907226562,791.7582397460938
226,797.8021850585938,790.1465454101562,792.967041015625,801.025634765625
227,794.981689453125,790.952392578125,792.967041015625,800.6226806640625
228,791.7582397460938,789.7435913085938,793.3699340820312,790.5494384765625
229,792.967041015625,794.5787353515625,794.1758422851562,789.3406372070312
230,793.3699340820312,795.7875366210938,792.1611938476562,792.967041015625
231,796.996337890625,790.5494384765625,786.923095703125,791.7582397460938
232,795.7875366210938,792.1611938476562,786.923095703125,786.5201416015625
233,790.1465454101562,797.3992919921875,785.3113403320312,788.5347900390625
234,794.5787353515625,803.8461303710938,790.5494384765625,803.040283203125
235,805.054931640625,805.4578857421875,797.3992919921875,808.6813354492188
236,808.2783813476562,797.3992919921875,800.6226806640625,799.4139404296875
237,805.8607788085938,803.4432373046875,794.5787353515625,799.010986328125
238,796.1904907226562,801.4285888671875,791.3552856445312,801.8314819335938
239,791.3552856445312,795.7875366210938,789.7435913085938,807.87548828125
240,787.3259887695312,793.3699340820312,790.1465454101562,798.6080322265625
241,795.7875366210938,799.4139404296875,804.6520385742188,799.010986328125
242,792.5640869140625,807.069580078125,794.5787353515625,791.3552856445312
243,770.0,795.3846435546875,781.2820434570312,768.3883056640625
244,769.5970458984375,793.7728881835938,788.937744140625,770.0
245,770.8058471679688,803.040283203125,798.2051391601562,768.3883056640625
246,761.1355590820312,801.8314819335938,798.2051391601562,757.5091552734375
247,752.2710571289062,800.6226806640625,798.2051391601562,747.4359130859375
248,745.8241577148438,820.3662719726562,801.025634765625,732.12451171875
249,736.5567626953125,832.8571166992188,800.6226806640625,724.06591796875
250,734.1392211914062,827.6190185546875,801.4285888671875,722.4542236328125
251,730.5128173828125,825.6043701171875,801.4285888671875,714.7985229492188
252,714.3956298828125,820.3662719726562,800.2197875976562,702.3076782226562
253,711.1721801757812,816.3369750976562,794.5787353515625,705.5311279296875
254,716.00732421875,819.1575317382812,794.1758422851562,713.5897216796875
255,709.5604248046875,824.7985229492188,800.6226806640625,713.1868286132812
256,700.2930297851562,826.00732421875,798.2051391601562,706.7399291992188
257,706.7399291992188,824.3956298828125,802.2344360351562,712.3809814453125
258,714.7985229492188,821.97802734375,808.2783813476562,724.8717651367188
259,715.2014770507812,827.2161254882812,812.7106323242188,723.6630249023438
260,720.8424682617188,827.2161254882812,819.1575317382812,728.901123046875
261,724.4688720703125,823.99267578125,812.7106323242188,734.945068359375
262,735.7509155273438,828.02197265625,813.113525390625,746.6300659179688
263,743.4066162109375,828.8278198242188,817.1428833007812,755.4945068359375
264,745.8241577148438,822.3809814453125,803.040283203125,747.8388061523438
265,756.3003540039062,821.1721801757812,796.996337890625,756.7033081054688
266,754.2857055664062,823.1868286132812,798.2051391601562,761.5384521484375
267,750.2564086914062,819.5604248046875,800.6226806640625,758.3150024414062
268,755.091552734375,817.5457763671875,801.025634765625,762.7472534179688
269,772.0146484375,811.098876953125,799.4139404296875,770.0
270,776.0439453125,806.6666870117188,795.3846435546875,781.6849975585938
271,782.087890625,805.8607788085938,796.996337890625,793.3699340820312
272,799.4139404296875,804.6520385742188,800.6226806640625,801.4285888671875
273,807.069580078125,802.2344360351562,795.7875366210938,808.6813354492188
274,802.2344360351562,793.3699340820312,785.7142944335938,807.069580078125
275,805.8607788085938,789.3406372070312,783.6996459960938,813.5164794921875
276,817.1428833007812,784.908447265625,784.1025390625,819.1575317382812
277,823.1868286132812,785.3113403320312,783.6996459960938,813.91943359375
278,828.02197265625,785.3113403320312,780.0732421875,823.1868286132812
279,835.6776733398438,781.2820434570312,780.4761962890625,833.2600708007812
280,842.5274658203125,780.0732421875,783.2966918945312,836.886474609375
281,846.959716796875,779.6703491210938,779.6703491210938,837.6923217773438
282,848.1685180664062,775.2380981445312,776.0439453125,847.7655639648438
283,850.989013671875,772.8204956054688,776.8497924804688,852.6007080078125
284,849.7802124023438,774.4322509765625,773.6264038085938,841.3186645507812
285,848.1685180664062,772.4176025390625,775.6410522460938,847.3626098632812
286,847.3626098632812,774.029296875,776.4468994140625,855.4212646484375
287,843.7362670898438,773.2234497070312,776.8497924804688,853.8095092773438
288,846.5567626953125,771.6116943359375,778.4615478515625,856.2271118164062
289,850.5860595703125,775.2380981445312,769.5970458984375,848.974365234375
290,852.6007080078125,777.2527465820312,766.3735961914062,839.3040161132812
291,850.989013671875,778.4615478515625,770.4029541015625,836.08056640625
292,855.018310546875,778.05859375,770.8058471679688,835.6776733398438
293,856.6300659179688,780.0732421875,775.2380981445312,835.6776733398438
294,850.989013671875,776.0439453125,780.4761962890625,838.901123046875
295,842.930419921875,771.6116943359375,779.6703491210938,842.12451171875
296,841.3186645507812,772.0146484375,777.6557006835938,845.3479614257812
297,842.930419921875,770.8058471679688,778.4615478515625,844.1392211914062
298,840.10986328125,774.4322509765625,780.0732421875,843.3333129882812
299,835.6776733398438,776.0439453125,779.2673950195312,844.945068359375
300,832.8571166992188,772.4176025390625,780.879150390625,844.1392211914062
301,835.2747192382812,770.4029541015625,779.6703491210938,849.3773193359375
302,836.08056640625,772.0146484375,782.087890625,851.3919677734375
303,833.6630249023438,771.6116943359375,784.908447265625,839.3040161132812
304,838.4981689453125,770.8058471679688,780.0732421875,830.4395751953125
305,839.7069702148438,776.8497924804688,783.2966918945312,838.4981689453125
306,840.10986328125,786.5201416015625,784.1025390625,839.3040161132812
307,842.5274658203125,788.937744140625,781.6849975585938,835.6776733398438
308,839.7069702148438,784.5054931640625,784.5054931640625,839.3040161132812
309,841.3186645507812,787.3259887695312,786.5201416015625,841.7216186523438
310,842.5274658203125,789.7435913085938,786.1171875,831.6483764648438
311,839.3040161132812,790.5494384765625,781.2820434570312,829.2307739257812
312,828.4249267578125,786.1171875,782.893798828125,830.4395751953125
313,819.1575317382812,781.2820434570312,787.7289428710938,824.7985229492188
314,823.5897216796875,784.1025390625,789.7435913085938,821.1721801757812
315,822.3809814453125,782.4908447265625,792.5640869140625,814.7252807617188
316,817.5457763671875,778.4615478515625,792.1611938476562,815.5311279296875
317,817.1428833007812,775.6410522460938,790.952392578125,809.89013671875
318,814.7252807617188,773.2234497070312,791.7582397460938,803.8461303710938
319,813.113525390625,782.4908447265625,794.1758422851562,814.3223266601562
320,805.4578857421875,786.923095703125,792.967041015625,820.3662719726562
321,797.3992919921875,783.2966918945312,791.7582397460938,818.7545776367188
322,801.4285888671875,781.6849975585938,790.1465454101562,812.3076782226562
323,803.040283203125,781.6849975585938,787.7289428710938,808.2783813476562
324,801.025634765625,784.1025390625,788.937744140625,808.2783813476562
325,799.010986328125,784.5054931640625,787.7289428710938,805.054931640625
326,798.2051391601562,784.5054931640625,786.923095703125,795.7875366210938
327,799.4139404296875,780.4761962890625,784.5054931640625,787.7289428710938
328,802.2344360351562,781.6849975585938,782.087890625,791.3552856445312
329,807.069580078125,785.7142944335938,786.1171875,789.3406372070312
330,815.93408203125,794.5787353515625,792.1611938476562,789.7435913085938
331,817.94873046875,796.5933837890625,792.1611938476562,794.981689453125
332,817.5457763671875,794.981689453125,789.7435913085938,800.2197875976562
333,815.93408203125,795.7875366210938,795.7875366210938,805.054931640625
334,811.098876953125,796.5933837890625,794.1758422851562,802.2344360351562
335,812.3076782226562,796.5933837890625,791.7582397460938,801.4285888671875
336,815.93408203125,797.3992919921875,788.5347900390625,805.4578857421875
337,807.4725341796875,794.981689453125,785.3113403320312,797.8021850585938
338,800.6226806640625,792.967041015625,793.7728881835938,791.3552856445312
339,802.6373901367188,793.3699340820312,794.1758422851562,790.5494384765625
340,804.6520385742188,792.967041015625,793.3699340820312,796.5933837890625
341,803.8461303710938,790.952392578125,793.7728881835938,799.8168334960938
342,796.996337890625,784.908447265625,792.1611938476562,789.3406372070312
343,794.981689453125,784.908447265625,794.5787353515625,790.5494384765625
344,799.4139404296875,788.937744140625,792.5640869140625,794.981689453125
345,795.3846435546875,786.5201416015625,790.1465454101562,786.5201416015625
346,791.3552856445312,781.2820434570312,792.5640869140625,790.5494384765625
347,791.7582397460938,785.3113403320312,786.5201416015625,797.8021850585938
348,792.1611938476562,791.3552856445312,788.937744140625,785.7142944335938
349,793.3699340820312,790.952392578125,798.2051391601562,784.1025390625
350,792.1611938476562,784.1025390625,794.981689453125,787.7289428710938
351,790.952392578125,785.7142944335938,791.7582397460938,797.8021850585938
352,794.1758422851562,786.1171875,796.1904907226562,801.4285888671875
353,793.3699340820312,782.893798828125,794.1758422851562,791.3552856445312
354,789.7435913085938,788.5347900390625,790.952392578125,794.1758422851562
355,788.937744140625,793.3699340820312,787.7289428710938,800.2197875976562
356,789.7435913085938,792.5640869140625,793.7728881835938,798.6080322265625
357,786.923095703125,787.7289428710938,799.010986328125,788.1318969726562
358,783.6996459960938,783.6996459960938,793.3699340820312,786.5201416015625
359,780.879150390625,781.2820434570312,794.981689453125,786.1171875
360,778.8644409179688,778.8644409179688,798.6080322265625,787.3259887695312
361,783.6996459960938,783.6996459960938,799.8168334960938,791.7582397460938
362,786.1171875,780.879150390625,800.6226806640625,791.7582397460938
363,786.1171875,779.6703491210938,795.7875366210938,793.3699340820312
364,784.908447265625,787.3259887695312,797.8021850585938,796.996337890625
365,787.7289428710938,790.1465454101562,803.8461303710938,793.7728881835938
366,796.1904907226562,785.7142944335938,802.2344360351562,794.981689453125
367,791.3552856445312,781.2820434570312,802.6373901367188,803.4432373046875
368,780.4761962890625,784.5054931640625,803.8461303710938,791.3552856445312
369,782.087890625,786.923095703125,799.010986328125,783.2966918945312
370,787.3259887695312,788.1318969726562,796.5933837890625,789.7435913085938
371,785.3113403320312,786.5201416015625,803.040283203125,790.5494384765625
372,788.1318969726562,782.4908447265625,799.010986328125,792.1611938476562
373,787.3259887695312,782.087890625,795.3846435546875,794.5787353515625
374,785.3113403320312,788.1318969726562,797.3992919921875,795.3846435546875
375,787.7289428710938,791.3552856445312,796.996337890625,791.7582397460938
376,787.3259887695312,788.1318969726562,794.5787353515625,784.1025390625
377,790.1465454101562,781.2820434570312,793.3699340820312,787.7289428710938
378,790.1465454101562,778.8644409179688,792.967041015625,797.3992919921875
379,785.7142944335938,784.908447265625,798.2051391601562,792.1611938476562
380,790.5494384765625,792.1611938476562,803.8461303710938,793.7728881835938
381,792.967041015625,790.5494384765625,800.6226806640625,795.7875366210938
382,788.5347900390625,790.952392578125,795.3846435546875,788.1318969726562
383,790.952392578125,791.3552856445312,800.6226806640625,786.923095703125
384,787.3259887695312,782.893798828125,803.8461303710938,788.1318969726562
385,784.5054931640625,783.2966918945312,801.4285888671875,796.996337890625
386,794.1758422851562,788.937744140625,806.2637329101562,805.054931640625
387,792.967041015625,777.2527465820312,801.8314819335938,798.6080322265625
388,791.7582397460938,783.6996459960938,799.010986328125,795.7875366210938
389,796.996337890625,794.5787353515625,801.8314819335938,796.996337890625
390,793.3699340820312,795.7875366210938,798.2051391601562,796.5933837890625
391,783.6996459960938,797.3992919921875,795.7875366210938,786.5201416015625
392,787.7289428710938,789.7435913085938,796.1904907226562,783.6996459960938
393,794.981689453125,788.5347900390625,794.1758422851562,790.952392578125
394,792.967041015625,793.7728881835938,793.3699340820312,798.6080322265625
395,787.7289428710938,788.5347900390625,799.4139404296875,799.8168334960938
396,782.893798828125,782.4908447265625,799.4139404296875,792.967041015625
397,782.893798828125,782.4908447265625,797.3992919921875,788.5347900390625
398,783.6996459960938,790.5494384765625,798.2051391601562,786.923095703125
399,788.5347900390625,799.8168334960938,798.6080322265625,790.5494384765625
400,791.7582397460938,794.981689453125,796.5933837890625,791.3552856445312
401,788.5347900390625,791.3552856445312,794.981689453125,790.1465454101562
402,788.1318969726562,794.1758422851562,799.4139404296875,788.1318969726562
403,789.3406372070312,788.1318969726562,800.2197875976562,782.4908447265625
404,786.923095703125,789.3406372070312,797.3992919921875,788.937744140625
405,784.1025390625,799.4139404296875,796.996337890625,797.8021850585938
406,790.5494384765625,801.8314819335938,797.3992919921875,791.7582397460938
407,793.3699340820312,796.1904907226562,798.2051391601562,789.7435913085938
408,790.952392578125,792.5640869140625,796.996337890625,794.5787353515625
409,787.7289428710938,793.3699340820312,794.981689453125,794.981689453125
410,792.5640869140625,799.010986328125,794.981689453125,792.5640869140625
411,798.2051391601562,800.6226806640625,794.5787353515625,792.5640869140625
412,797.3992919921875,797.8021850585938,794.981689453125,796.996337890625
413,794.1758422851562,797.3992919921875,792.967041015625,796.1904907226562
414,794.5787353515625,795.3846435546875,787.7289428710938,789.7435913085938
415,793.3699340820312,795.3846435546875,792.5640869140625,790.5494384765625
416,793.7728881835938,799.4139404296875,797.3992919921875,796.5933837890625
417,794.1758422851562,798.2051391601562,799.010986328125,797.8021850585938
418,794.5787353515625,796.996337890625,799.4139404296875,795.7875366210938
419,796.5933837890625,799.4139404296875,801.025634765625,802.2344360351562
420,797.3992919921875,799.010986328125,800.2197875976562,810.2930297851562
421,786.923095703125,793.7728881835938,794.981689453125,803.040283203125
422,784.908447265625,793.3699340820312,794.981689453125,793.3699340820312
423,789.3406372070312,791.7582397460938,789.7435913085938,784.908447265625
424,790.5494384765625,791.3552856445312,784.1025390625,784.1025390625
425,795.7875366210938,800.6226806640625,788.1318969726562,789.3406372070312
426,799.010986328125,807.4725341796875,792.5640869140625,779.6703491210938
427,794.5787353515625,803.8461303710938,791.3552856445312,774.4322509765625
428,797.8021850585938,796.5933837890625,786.1171875,784.5054931640625
429,801.8314819335938,801.025634765625,788.937744140625,787.7289428710938
430,799.8168334960938,806.6666870117188,790.5494384765625,790.1465454101562
431,797.3992919921875,798.6080322265625,786.5201416015625,791.3552856445312
432,799.010986328125,794.1758422851562,788.5347900390625,790.5494384765625
433,797.8021850585938,794.981689453125,791.3552856445312,793.3699340820312
434,795.7875366210938,792.5640869140625,792.1611938476562,796.1904907226562
435,794.981689453125,787.7289428710938,787.7289428710938,796.996337890625
436,790.1465454101562,787.7289428710938,792.5640869140625,792.1611938476562
437,791.3552856445312,790.1465454101562,791.7582397460938,791.7582397460938
438,790.952392578125,790.952392578125,788.5347900390625,796.5933837890625
439,789.3406372070312,794.1758422851562,794.5787353515625,799.8168334960938
440,790.1465454101562,797.3992919921875,795.3846435546875,801.4285888671875
441,786.923095703125,794.1758422851562,792.967041015625,789.7435913085938
442,788.5347900390625,789.7435913085938,795.3846435546875,790.1465454101562
443,793.3699340820312,793.7728881835938,792.967041015625,797.8021850585938
444,793.7728881835938,792.1611938476562,790.1465454101562,796.996337890625
445,793.7728881835938,792.1611938476562,796.1904907226562,801.8314819335938
446,792.5640869140625,794.5787353515625,800.2197875976562,803.4432373046875
447,796.1904907226562,794.5787353515625,796.1904907226562,805.054931640625
448,796.5933837890625,800.2197875976562,796.1904907226562,803.4432373046875
449,792.967041015625,801.4285888671875,798.6080322265625,792.1611938476562
450,794.981689453125,796.996337890625,796.996337890625,792.5640869140625
451,801.025634765625,793.7728881835938,790.952392578125,800.6226806640625
452,806.6666870117188,793.3699340820312,788.937744140625,797.8021850585938
453,797.3992919921875,793.7728881835938,796.5933837890625,788.5347900390625
454,795.3846435546875,796.1904907226562,801.025634765625,780.4761962890625
455,791.7582397460938,796.996337890625,799.010986328125,781.2820434570312
456,783.2966918945312,790.952392578125,802.2344360351562,781.6849975585938
457,784.5054931640625,788.5347900390625,801.025634765625,784.1025390625
458,785.7142944335938,791.7582397460938,798.2051391601562,785.7142944335938
459,787.3259887695312,791.7582397460938,794.1758422851562,782.893798828125
460,788.5347900390625,790.952392578125,791.7582397460938,788.5347900390625
461,782.893798828125,794.981689453125,794.1758422851562,796.1904907226562
462,786.1171875,797.3992919921875,794.1758422851562,802.2344360351562
463,793.3699340820312,794.5787353515625,792.5640869140625,797.3992919921875
464,791.7582397460938,794.981689453125,794.981689453125,783.6996459960938
465,790.5494384765625,790.1465454101562,793.7728881835938,780.0732421875
466,786.923095703125,786.1171875,789.3406372070312,781.2820434570312
467,785.7142944335938,792.1611938476562,794.981689453125,784.1025390625
468,791.3552856445312,796.1904907226562,796.1904907226562,786.923095703125
469,799.010986328125,792.967041015625,794.5787353515625,788.5347900390625
470,795.3846435546875,787.3259887695312,792.5640869140625,786.1171875
471,793.3699340820312,788.5347900390625,791.7582397460938,788.937744140625
472,799.4139404296875,794.981689453125,794.5787353515625,791.7582397460938
473,805.8607788085938,793.7728881835938,793.7728881835938,791.7582397460938
474,802.2344360351562,791.3552856445312,788.937744140625,800.2197875976562
475,799.4139404296875,796.996337890625,790.952392578125,797.8021850585938
476,798.6080322265625,796.1904907226562,793.3699340820312,791.7582397460938
477,801.025634765625,796.1904907226562,794.1758422851562,794.981689453125
478,805.8607788085938,794.981689453125,796.996337890625,805.054931640625
479,801.8314819335938,794.981689453125,799.010986328125,808.2783813476562
480,804.2490844726562,796.5933837890625,801.4285888671875,799.010986328125
481,804.6520385742188,799.010986328125,799.8168334960938,799.010986328125
482,798.6080322265625,800.2197875976562,799.4139404296875,799.4139404296875
483,796.996337890625,797.8021850585938,799.010986328125,793.7728881835938
484,794.981689453125,794.1758422851562,796.996337890625,790.952392578125
485,791.7582397460938,794.5787353515625,793.3699340820312,792.5640869140625
486,787.7289428710938,794.1758422851562,789.3406372070312,796.5933837890625
487,782.087890625,794.981689453125,790.1465454101562,789.7435913085938
488,787.7289428710938,792.967041015625,788.937744140625,791.3552856445312
489,793.7728881835938,788.5347900390625,785.7142944335938,796.5933837890625
490,791.3552856445312,790.1465454101562,784.908447265625,791.3552856445312
491,788.5347900390625,790.5494384765625,791.7582397460938,786.1171875
492,790.5494384765625,784.5054931640625,794.1758422851562,783.6996459960938
493,794.981689453125,780.879150390625,789.7435913085938,776.0439453125
494,794.981689453125,781.2820434570312,790.1465454101562,777.6557006835938
495,792.5640869140625,784.908447265625,796.1904907226562,788.1318969726562
496,792.5640869140625,792.5640869140625,794.1758422851562,788.1318969726562
497,794.981689453125,792.1611938476562,790.952392578125,794.1758422851562
498,790.5494384765625,784.5054931640625,799.8168334960938,796.996337890625
499,785.7142944335938,786.5201416015625,801.025634765625,790.952392578125
500,788.937744140625,790.952392578125,800.2197875976562,793.3699340820312
501,786.1171875,786.923095703125,799.4139404296875,792.1611938476562
502,784.1025390625,785.7142944335938,796.1904907226562,788.5347900390625
503,784.1025390625,788.5347900390625,794.981689453125,785.7142944335938
504,779.2673950195312,785.3113403320312,793.7728881835938,786.1171875
505,781.2820434570312,784.908447265625,796.1904907226562,792.967041015625
506,784.908447265625,786.923095703125,798.2051391601562,795.3846435546875
507,785.3113403320312,788.1318969726562,796.5933837890625,791.3552856445312
508,783.6996459960938,793.3699340820312,795.3846435546875,791.7582397460938
509,786.1171875,789.7435913085938,792.5640869140625,789.3406372070312
510,788.1318969726562,786.1171875,792.1611938476562,786.5201416015625
511,788.1318969726562,788.5347900390625,794.1758422851562,788.937744140625
512,792.967041015625,782.4908447265625,797.8021850585938,792.1611938476562
513,796.5933837890625,785.3113403320312,801.8314819335938,797.8021850585938
514,794.1758422851562,793.7728881835938,801.4285888671875,800.6226806640625
515,794.5787353515625,796.996337890625,795.7875366210938,801.025634765625
516,800.2197875976562,792.967041015625,799.010986328125,804.6520385742188
517,805.4578857421875,792.967041015625,801.025634765625,807.87548828125
518,796.996337890625,792.967041015625,799.010986328125,796.1904907226562
519,799.010986328125,790.952392578125,799.010986328125,789.3406372070312
520,801.025634765625,791.7582397460938,796.996337890625,799.010986328125
521,794.5787353515625,791.7582397460938,796.5933837890625,796.5933837890625
522,799.4139404296875,796.1904907226562,798.6080322265625,786.5201416015625
523,802.2344360351562,796.5933837890625,796.1904907226562,784.5054931640625
524,801.4285888671875,787.7289428710938,794.5787353515625,784.5054931640625
525,796.5933837890625,787.7289428710938,795.7875366210938,781.6849975585938
526,794.5787353515625,797.8021850585938,797.3992919921875,786.5201416015625
527,795.3846435546875,803.040283203125,792.967041015625,791.7582397460938
528,794.981689453125,804.6520385742188,794.1758422851562,792.5640869140625
529,799.8168334960938,799.8168334960938,796.996337890625,786.923095703125
530,801.4285888671875,792.5640869140625,794.5787353515625,796.1904907226562
531,805.8607788085938,790.1465454101562,791.3552856445312,807.069580078125
532,805.054931640625,791.7582397460938,788.937744140625,796.5933837890625
533,794.1758422851562,791.7582397460938,792.1611938476562,782.4908447265625
534,791.7582397460938,793.3699340820312,792.1611938476562,782.893798828125
535,792.967041015625,794.1758422851562,794.5787353515625,793.3699340820312
536,796.1904907226562,794.5787353515625,802.6373901367188,809.084228515625
537,792.967041015625,795.3846435546875,801.025634765625,803.8461303710938
538,792.1611938476562,794.1758422851562,796.5933837890625,793.3699340820312
539,800.6226806640625,791.7582397460938,799.4139404296875,801.4285888671875
540,802.2344360351562,789.3406372070312,799.010986328125,802.2344360351562
541,800.2197875976562,794.5787353515625,793.7728881835938,791.3552856445312
542,803.040283203125,796.996337890625,794.5787353515625,787.7289428710938
543,800.6226806640625,795.3846435546875,792.1611938476562,788.5347900390625
544,794.981689453125,794.5787353515625,789.3406372070312,778.4615478515625
545,790.1465454101562,794.1758422851562,793.3699340820312,770.8058471679688
546,790.1465454101562,789.7435913085938,792.5640869140625,781.6849975585938
547,794.981689453125,788.1318969726562,792.5640869140625,789.7435913085938
548,789.3406372070312,792.967041015625,793.7728881835938,788.5347900390625
549,780.0732421875,789.3406372070312,789.7435913085938,784.5054931640625
550,777.6557006835938,786.5201416015625,791.3552856445312,789.3406372070312
551,776.8497924804688,786.5201416015625,792.1611938476562,797.8021850585938
552,781.2820434570312,784.5054931640625,794.1758422851562,800.6226806640625
553,784.1025390625,785.3113403320312,795.7875366210938,803.4432373046875
554,786.5201416015625,788.937744140625,790.1465454101562,801.025634765625
555,801.4285888671875,792.5640869140625,792.5640869140625,796.5933837890625
556,801.8314819335938,795.7875366210938,793.3699340820312,790.952392578125
557,794.1758422851562,796.996337890625,792.5640869140625,787.7289428710938
558,796.5933837890625,794.981689453125,792.1611938476562,792.1611938476562
559,794.5787353515625,789.3406372070312,790.952392578125,799.4139404296875
560,790.1465454101562,789.7435913085938,787.7289428710938,790.952392578125
561,795.7875366210938,790.1465454101562,790.952392578125,783.6996459960938
562,799.4139404296875,785.7142944335938,796.1904907226562,791.7582397460938
563,794.981689453125,785.7142944335938,795.7875366210938,797.3992919921875
564,794.5787353515625,789.7435913085938,802.2344360351562,794.5787353515625
565,797.8021850585938,791.7582397460938,795.7875366210938,790.5494384765625
566,795.7875366210938,789.7435913085938,786.5201416015625,787.3259887695312
567,787.7289428710938,789.3406372070312,795.7875366210938,786.923095703125
568,783.2966918945312,791.7582397460938,798.2051391601562,788.1318969726562
569,786.5201416015625,792.5640869140625,796.996337890625,790.952392578125
570,789.3406372070312,793.7728881835938,797.3992919921875,795.7875366210938
571,788.937744140625,792.5640869140625,796.5933837890625,792.5640869140625
572,790.952392578125,791.3552856445312,793.7728881835938,789.3406372070312
573,787.3259887695312,791.3552856445312,794.5787353515625,791.7582397460938
574,786.5201416015625,789.3406372070312,801.8314819335938,790.5494384765625
575,788.1318969726562,784.908447265625,803.8461303710938,782.087890625
576,784.908447265625,783.6996459960938,799.4139404296875,782.893798828125
577,792.5640869140625,784.1025390625,795.3846435546875,792.967041015625
578,801.8314819335938,783.2966918945312,790.5494384765625,792.5640869140625
579,804.2490844726562,786.1171875,792.1611938476562,786.923095703125
580,792.967041015625,788.1318969726562,792.967041015625,783.6996459960938
581,790.5494384765625,782.087890625,793.3699340820312,786.923095703125
582,797.3992919921875,784.5054931640625,793.7728881835938,792.1611938476562
583,792.1611938476562,792.967041015625,789.3406372070312,783.6996459960938
584,784.1025390625,791.7582397460938,791.3552856445312,781.6849975585938
585,781.2820434570312,783.6996459960938,788.1318969726562,782.893798828125
586,786.923095703125,783.2966918945312,785.3113403320312,784.1025390625
587,793.7728881835938,783.6996459960938,790.952392578125,785.7142944335938
588,792.5640869140625,784.908447265625,794.5787353515625,788.1318969726562
589,793.3699340820312,787.3259887695312,796.5933837890625,796.996337890625
590,791.3552856445312,785.7142944335938,796.1904907226562,799.8168334960938
591,784.908447265625,782.4908447265625,793.3699340820312,796.5933837890625
592,790.952392578125,782.087890625,788.937744140625,803.8461303710938
593,796.996337890625,784.5054931640625,787.7289428710938,811.098876953125
594,792.5640869140625,784.1025390625,792.1611938476562,805.054931640625
595,787.3259887695312,779.2673950195312,793.7728881835938,792.5640869140625
596,791.7582397460938,784.1025390625,794.1758422851562,788.937744140625
597,796.5933837890625,788.937744140625,790.1465454101562,789.3406372070312
598,796.1904907226562,787.3259887695312,790.1465454101562,791.3552856445312
599,799.4139404296875,790.952392578125,792.5640869140625,799.8168334960938
600,796.5933837890625,791.7582397460938,791.7582397460938,803.4432373046875
601,790.952392578125,787.7289428710938,786.1171875,796.996337890625
602,789.3406372070312,786.923095703125,782.4908447265625,793.3699340820312
603,784.5054931640625,788.937744140625,791.7582397460938,791.3552856445312
604,782.087890625,786.923095703125,794.5787353515625,788.1318969726562
605,785.3113403320312,784.5054931640625,792.967041015625,795.3846435546875
606,786.923095703125,787.7289428710938,789.7435913085938,791.3552856445312
607,792.1611938476562,790.952392578125,789.3406372070312,784.908447265625
608,796.1904907226562,791.7582397460938,793.3699340820312,789.7435913085938
609,790.5494384765625,788.1318969726562,794.981689453125,788.937744140625
610,786.5201416015625,782.893798828125,795.3846435546875,785.3113403320312
611,796.996337890625,783.6996459960938,786.923095703125,783.6996459960938
612,795.3846435546875,784.908447265625,786.1171875,785.3113403320312
613,789.7435913085938,781.2820434570312,792.1611938476562,784.1025390625
614,788.937744140625,781.2820434570312,790.1465454101562,784.5054931640625
615,786.923095703125,786.1171875,788.1318969726562,787.7289428710938
616,788.5347900390625,785.7142944335938,788.5347900390625,786.5201416015625
617,793.7728881835938,791.3552856445312,798.2051391601562,787.3259887695312
618,791.3552856445312,788.937744140625,801.025634765625,793.7728881835938
619,791.3552856445312,785.3113403320312,795.7875366210938,799.010986328125
620,791.7582397460938,786.5201416015625,798.2051391601562,799.8168334960938
621,788.5347900390625,786.1171875,799.010986328125,795.7875366210938
622,797.8021850585938,786.1171875,793.7728881835938,806.2637329101562
623,806.6666870117188,790.952392578125,800.2197875976562,812.7106323242188
624,794.1758422851562,793.3699340820312,804.2490844726562,796.996337890625
625,783.2966918945312,791.7582397460938,801.4285888671875,786.5201416015625
626,783.2966918945312,794.5787353515625,805.4578857421875,780.879150390625
627,782.893798828125,794.1758422851562,803.4432373046875,781.6849975585938
628,790.5494384765625,788.1318969726562,802.2344360351562,793.7728881835938
629,791.7582397460938,788.5347900390625,799.4139404296875,795.3846435546875
630,786.1171875,799.010986328125,796.996337890625,790.952392578125
631,792.1611938476562,799.010986328125,795.3846435546875,792.1611938476562
632,798.6080322265625,794.1758422851562,792.5640869140625,798.6080322265625
633,792.5640869140625,796.1904907226562,794.1758422851562,794.1758422851562
634,786.5201416015625,794.5787353515625,800.6226806640625,786.1171875
635,790.1465454101562,792.1611938476562,805.4578857421875,792.5640869140625
636,791.3552856445312,790.1465454101562,801.4285888671875,792.967041015625
637,787.7289428710938,792.967041015625,800.2197875976562,791.3552856445312
638,794.5787353515625,795.3846435546875,798.2051391601562,791.3552856445312
639,799.010986328125,792.1611938476562,796.996337890625,794.1758422851562
640,790.5494384765625,791.3552856445312,797.3992919921875,796.1904907226562
641,784.1025390625,789.3406372070312,791.7582397460938,792.967041015625
642,778.05859375,790.952392578125,786.1171875,794.5787353515625
643,784.908447265625,793.3699340820312,789.7435913085938,807.4725341796875
644,796.996337890625,794.1758422851562,798.6080322265625,807.87548828125
645,799.4139404296875,799.010986328125,799.8168334960938,801.4285888671875
646,790.5494384765625,796.1904907226562,794.981689453125,804.6520385742188
647,782.087890625,792.967041015625,794.1758422851562,802.6373901367188
648,784.1025390625,789.3406372070312,792.5640869140625,796.1904907226562
649,793.7728881835938,790.952392578125,790.5494384765625,796.996337890625
650,795.3846435546875,791.7582397460938,787.7289428710938,796.996337890625
651,790.5494384765625,788.1318969726562,785.7142944335938,792.967041015625
652,793.7728881835938,790.5494384765625,793.3699340820312,794.5787353515625
653,797.3992919921875,793.7728881835938,796.1904907226562,796.996337890625
654,796.1904907226562,792.1611938476562,793.7728881835938,797.8021850585938
655,794.1758422851562,788.5347900390625,790.952392578125,795.3846435546875
656,790.5494384765625,790.952392578125,788.937744140625,784.1025390625
657,788.937744140625,790.1465454101562,787.3259887695312,780.0732421875
658,784.5054931640625,790.952392578125,787.3259887695312,786.5201416015625
659,785.3113403320312,792.1611938476562,792.1611938476562,794.5787353515625
660,791.3552856445312,788.1318969726562,795.7875366210938,792.1611938476562
661,790.5494384765625,788.5347900390625,792.967041015625,789.7435913085938
662,794.1758422851562,794.5787353515625,786.5201416015625,793.3699340820312
663,796.5933837890625,796.996337890625,791.7582397460938,794.5787353515625
664,794.1758422851562,797.3992919921875,794.981689453125,792.967041015625
665,792.967041015625,797.8021850585938,794.1758422851562,790.5494384765625
666,793.3699340820312,797.8021850585938,794.1758422851562,800.6226806640625
667,793.3699340820312,797.8021850585938,793.3699340820312,804.2490844726562
668,797.3992919921875,793.3699340820312,794.981689453125,792.967041015625
669,804.6520385742188,793.7728881835938,795.3846435546875,794.981689453125
670,805.4578857421875,795.7875366210938,793.7728881835938,800.2197875976562
671,808.6813354492188,795.7875366210938,792.1611938476562,796.5933837890625
672,813.113525390625,792.967041015625,793.3699340820312,792.1611938476562
673,806.2637329101562,790.5494384765625,793.7728881835938,791.7582397460938
674,801.4285888671875,788.5347900390625,788.1318969726562,788.937744140625
675,803.040283203125,790.5494384765625,790.1465454101562,783.2966918945312
676,802.2344360351562,795.7875366210938,794.1758422851562,783.2966918945312
677,797.3992919921875,794.1758422851562,794.5787353515625,790.952392578125
678,788.937744140625,789.3406372070312,794.981689453125,798.6080322265625
679,788.937744140625,788.937744140625,794.981689453125,788.1318969726562
680,791.3552856445312,789.3406372070312,794.981689453125,784.5054931640625
681,790.5494384765625,788.1318969726562,796.5933837890625,793.3699340820312
682,788.1318969726562,782.087890625,803.8461303710938,799.8168334960938
683,786.923095703125,787.3259887695312,805.054931640625,796.5933837890625
684,790.1465454101562,791.3552856445312,801.4285888671875,797.3992919921875
685,788.5347900390625,786.1171875,802.6373901367188,798.2051391601562
686,783.2966918945312,784.908447265625,796.996337890625,791.3552856445312
687,776.0439453125,779.2673950195312,790.952392578125,790.1465454101562
688,775.6410522460938,780.879150390625,789.7435913085938,792.967041015625
689,784.908447265625,787.3259887695312,791.7582397460938,796.5933837890625
690,789.3406372070312,790.5494384765625,792.967041015625,796.1904907226562
691,790.1465454101562,786.1171875,790.5494384765625,792.5640869140625
692,790.952392578125,786.923095703125,790.952392578125,797.3992919921875
693,788.937744140625,788.5347900390625,792.1611938476562,801.8314819335938
694,790.5494384765625,789.7435913085938,795.3846435546875,793.3699340820312
695,796.5933837890625,790.952392578125,798.6080322265625,793.3699340820312
696,796.5933837890625,788.937744140625,797.8021850585938,796.996337890625
697,794.5787353515625,789.7435913085938,794.5787353515625,794.981689453125
698,795.3846435546875,794.5787353515625,794.981689453125,793.3699340820312
699,798.6080322265625,792.967041015625,797.8021850585938,790.1465454101562
700,795.7875366210938,790.952392578125,794.1758422851562,787.7289428710938
701,799.4139404296875,793.3699340820312,792.967041015625,795.7875366210938
702,803.040283203125,793.7728881835938,794.1758422851562,796.5933837890625
703,796.1904907226562,791.7582397460938,792.5640869140625,790.952392578125
704,795.7875366210938,793.7728881835938,789.7435913085938,792.5640869140625
705,798.2051391601562,788.5347900390625,789.7435913085938,791.3552856445312
706,796.5933837890625,785.7142944335938,793.7728881835938,789.3406372070312
707,799.8168334960938,791.3552856445312,792.5640869140625,790.952392578125
708,796.5933837890625,792.967041015625,794.981689453125,791.7582397460938
709,793.7728881835938,790.1465454101562,799.010986328125,792.967041015625
710,797.3992919921875,787.7289428710938,799.010986328125,799.010986328125
711,797.8021850585938,787.7289428710938,792.967041015625,796.5933837890625
712,794.981689453125,787.7289428710938,791.7582397460938,789.7435913085938
713,791.3552856445312,785.7142944335938,791.7582397460938,789.7435913085938
714,794.981689453125,785.3113403320312,792.1611938476562,796.1904907226562
715,795.7875366210938,788.5347900390625,798.6080322265625,796.1904907226562
716,800.6226806640625,786.5201416015625,797.3992919921875,806.2637329101562
717,808.6813354492188,784.908447265625,796.1904907226562,810.2930297851562
718,799.8168334960938,785.7142944335938,796.1904907226562,791.7582397460938
719,789.7435913085938,792.1611938476562,793.3699340820312,781.2820434570312
720,789.7435913085938,794.1758422851562,797.3992919921875,782.893798828125
721,794.1758422851562,789.7435913085938,801.4285888671875,781.6849975585938
722,794.981689453125,794.981689453125,797.8021850585938,776.4468994140625
723,784.5054931640625,790.952392578125,792.1611938476562,774.029296875
724,785.3113403320312,785.3113403320312,792.967041015625,778.8644409179688
725,794.1758422851562,790.1465454101562,791.3552856445312,783.2966918945312
726,800.6226806640625,793.7728881835938,795.3846435546875,785.3113403320312
727,802.2344360351562,795.3846435546875,797.8021850585938,790.5494384765625
728,800.2197875976562,792.967041015625,795.3846435546875,794.1758422851562
729,799.8168334960938,792.5640869140625,796.5933837890625,796.1904907226562
730,803.040283203125,792.1611938476562,796.5933837890625,794.981689453125
731,804.2490844726562,793.7728881835938,797.3992919921875,798.6080322265625
732,800.2197875976562,795.3846435546875,795.3846435546875,807.4725341796875
733,792.967041015625,794.981689453125,795.3846435546875,793.7728881835938
734,791.7582397460938,794.1758422851562,796.5933837890625,791.7582397460938
735,794.981689453125,793.7728881835938,796.996337890625,796.1904907226562
736,796.5933837890625,799.010986328125,796.5933837890625,797.8021850585938
737,799.8168334960938,796.996337890625,797.3992919921875,805.4578857421875
738,800.2197875976562,794.5787353515625,796.5933837890625,810.6959838867188
739,795.7875366210938,794.5787353515625,791.3552856445312,807.4725341796875
740,791.3552856445312,789.3406372070312,790.1465454101562,792.967041015625
741,790.1465454101562,786.1171875,790.1465454101562,784.5054931640625
742,790.952392578125,790.952392578125,789.7435913085938,788.5347900390625
743,786.5201416015625,794.981689453125,790.1465454101562,793.3699340820312
744,787.7289428710938,794.981689453125,790.5494384765625,798.2051391601562
745,793.3699340820312,792.967041015625,790.952392578125,800.2197875976562
746,792.1611938476562,788.937744140625,792.967041015625,795.7875366210938
747,789.3406372070312,785.7142944335938,792.1611938476562,794.981689453125
748,787.3259887695312,785.7142944335938,792.5640869140625,797.3992919921875
749,791.7582397460938,786.923095703125,799.010986328125,796.996337890625
750,796.1904907226562,785.3113403320312,800.6226806640625,796.5933837890625
751,788.1318969726562,784.5054931640625,792.5640869140625,795.7875366210938
752,787.3259887695312,789.7435913085938,794.1758422851562,792.1611938476562
753,791.3552856445312,788.1318969726562,796.1904907226562,790.952392578125
754,792.1611938476562,789.7435913085938,793.3699340820312,790.5494384765625
755,792.967041015625,796.5933837890625,791.7582397460938,791.7582397460938
756,791.3552856445312,794.981689453125,792.5640869140625,794.981689453125
757,791.7582397460938,793.3699340820312,792.967041015625,798.6080322265625
758,796.5933837890625,792.1611938476562,792.967041015625,794.5787353515625
759,796.5933837890625,792.1611938476562,793.7728881835938,787.3259887695312
760,790.1465454101562,792.5640869140625,790.952392578125,781.2820434570312
761,790.5494384765625,789.7435913085938,791.7582397460938,779.2673950195312
762,795.3846435546875,786.923095703125,796.1904907226562,792.5640869140625
763,797.3992919921875,790.1465454101562,797.3992919921875,796.5933837890625
764,793.3699340820312,790.1465454101562,793.3699340820312,783.6996459960938
765,790.1465454101562,788.5347900390625,794.1758422851562,783.2966918945312
766,790.1465454101562,787.3259887695312,793.7728881835938,790.1465454101562
767,794.981689453125,784.5054931640625,793.7728881835938,796.1904907226562
768,801.4285888671875,795.7875366210938,796.1904907226562,798.2051391601562
769,799.8168334960938,799.8168334960938,795.3846435546875,796.996337890625
770,801.8314819335938,794.5787353515625,796.1904907226562,795.7875366210938
771,794.981689453125,796.5933837890625,793.7728881835938,796.1904907226562
772,794.1758422851562,795.3846435546875,793.7728881835938,795.3846435546875
773,797.3992919921875,786.923095703125,796.1904907226562,794.1758422851562
774,794.1758422851562,780.879150390625,794.5787353515625,797.8021850585938
775,791.3552856445312,786.923095703125,792.967041015625,791.3552856445312
776,794.1758422851562,790.5494384765625,792.5640869140625,787.7289428710938
777,794.981689453125,784.1025390625,792.5640869140625,793.7728881835938
778,793.7728881835938,786.5201416015625,793.7728881835938,794.981689453125
779,791.7582397460938,788.5347900390625,791.3552856445312,792.967041015625
780,788.937744140625,774.8351440429688,790.5494384765625,789.3406372070312
781,785.7142944335938,778.4615478515625,794.1758422851562,788.937744140625
782,787.7289428710938,792.967041015625,793.7728881835938,793.7728881835938
783,793.3699340820312,794.1758422851562,791.7582397460938,792.967041015625
784,790.952392578125,789.7435913085938,790.5494384765625,786.923095703125
785,790.952392578125,786.923095703125,787.7289428710938,791.3552856445312
786,790.952392578125,787.3259887695312,788.5347900390625,794.5787353515625
787,794.5787353515625,792.1611938476562,796.996337890625,794.1758422851562
788,796.5933837890625,794.5787353515625,793.3699340820312,798.2051391601562
789,796.996337890625,793.7728881835938,790.952392578125,805.4578857421875
790,798.6080322265625,792.5640869140625,795.7875366210938,803.040283203125
791,792.5640869140625,790.5494384765625,794.1758422851562,798.2051391601562
792,792.5640869140625,789.3406372070312,792.5640869140625,799.010986328125
793,798.6080322265625,783.2966918945312,797.8021850585938,797.8021850585938
794,803.8461303710938,790.952392578125,802.2344360351562,798.6080322265625
795,803.8461303710938,803.040283203125,795.7875366210938,796.1904907226562
796,799.010986328125,798.2051391601562,790.5494384765625,792.5640869140625
797,799.8168334960938,792.1611938476562,786.923095703125,793.7728881835938
798,799.010986328125,789.7435913085938,787.3259887695312,793.3699340820312
799,802.6373901367188,789.3406372070312,787.7289428710938,796.996337890625
800,804.6520385742188,790.952392578125,786.1171875,806.6666870117188
801,803.4432373046875,794.1758422851562,790.1465454101562,809.4871826171875
802,803.8461303710938,795.3846435546875,794.5787353515625,801.4285888671875
803,799.4139404296875,794.5787353515625,792.5640869140625,800.2197875976562
804,791.7582397460938,792.967041015625,789.3406372070312,797.8021850585938
805,783.2966918945312,787.7289428710938,788.1318969726562,789.3406372070312
806,782.893798828125,790.1465454101562,788.1318969726562,790.952392578125
807,785.3113403320312,789.3406372070312,788.1318969726562,792.967041015625
808,789.3406372070312,786.923095703125,789.7435913085938,791.3552856445312
809,793.3699340820312,790.952392578125,788.1318969726562,787.7289428710938
810,784.5054931640625,789.7435913085938,789.3406372070312,788.1318969726562
811,785.7142944335938,790.952392578125,788.5347900390625,790.1465454101562
812,793.7728881835938,790.952392578125,785.7142944335938,797.3992919921875
813,791.3552856445312,792.1611938476562,789.7435913085938,795.7875366210938
814,788.1318969726562,794.981689453125,793.7728881835938,792.967041015625
815,786.1171875,792.5640869140625,787.3259887695312,793.3699340820312
816,784.5054931640625,784.908447265625,785.3113403320312,788.937744140625
817,789.3406372070312,780.0732421875,791.3552856445312,786.923095703125
818,799.8168334960938,784.908447265625,796.1904907226562,790.5494384765625
819,796.996337890625,783.2966918945312,797.3992919921875,794.981689453125
820,792.5640869140625,786.1171875,799.010986328125,795.3846435546875
821,792.5640869140625,797.3992919921875,797.8021850585938,792.967041015625
822,788.1318969726562,795.7875366210938,798.6080322265625,792.1611938476562
823,783.6996459960938,790.1465454101562,797.3992919921875,797.8021850585938
824,786.5201416015625,792.1611938476562,794.981689453125,801.8314819335938
825,788.1318969726562,793.3699340820312,796.5933837890625,794.981689453125
826,789.3406372070312,794.1758422851562,797.3992919921875,795.3846435546875
827,788.937744140625,793.3699340820312,792.967041015625,791.3552856445312
828,790.952392578125,792.967041015625,793.3699340820312,788.5347900390625
829,806.6666870117188,798.2051391601562,800.2197875976562,805.8607788085938
830,805.8607788085938,796.1904907226562,801.4285888671875,807.4725341796875
831,787.7289428710938,796.5933837890625,791.7582397460938,789.3406372070312
832,785.3113403320312,802.2344360351562,787.3259887695312,784.908447265625
833,791.3552856445312,803.4432373046875,795.7875366210938,784.908447265625
834,789.3406372070312,797.3992919921875,800.6226806640625,790.5494384765625
835,793.7728881835938,794.981689453125,797.3992919921875,802.2344360351562
836,797.8021850585938,801.4285888671875,801.4285888671875,800.6226806640625
837,790.952392578125,799.4139404296875,803.040283203125,793.3699340820312
838,791.3552856445312,794.1758422851562,799.4139404296875,800.2197875976562
839,796.5933837890625,792.1611938476562,796.5933837890625,800.6226806640625
840,798.6080322265625,795.3846435546875,795.3846435546875,794.1758422851562
841,802.6373901367188,799.010986328125,798.6080322265625,797.3992919921875
842,800.6226806640625,791.3552856445312,797.8021850585938,799.8168334960938
843,795.7875366210938,782.893798828125,793.3699340820312,797.3992919921875
844,790.952392578125,787.7289428710938,797.3992919921875,800.6226806640625
845,786.1171875,797.3992919921875,800.2197875976562,796.5933837890625
846,787.7289428710938,797.8021850585938,794.981689453125,797.8021850585938
847,792.967041015625,793.3699340820312,794.1758422851562,805.8607788085938
848,792.967041015625,794.981689453125,795.3846435546875,792.5640869140625
849,796.5933837890625,792.1611938476562,790.952392578125,784.908447265625
850,804.6520385742188,793.3699340820312,793.3699340820312,793.7728881835938
851,796.5933837890625,798.2051391601562,799.010986328125,793.7728881835938
852,787.3259887695312,796.996337890625,794.981689453125,788.1318969726562
853,785.3113403320312,793.3699340820312,791.7582397460938,788.1318969726562
854,788.937744140625,797.8021850585938,794.1758422851562,792.5640869140625
855,791.3552856445312,795.7875366210938,795.3846435546875,794.981689453125
856,792.967041015625,790.5494384765625,795.7875366210938,798.2051391601562
857,788.937744140625,792.1611938476562,798.2051391601562,797.3992919921875
858,786.1171875,790.952392578125,795.7875366210938,799.8168334960938
859,786.923095703125,792.967041015625,792.967041015625,799.8168334960938
860,784.908447265625,793.3699340820312,792.5640869140625,794.981689453125
861,784.908447265625,791.7582397460938,791.7582397460938,794.981689453125
862,790.1465454101562,793.3699340820312,794.981689453125,800.2197875976562
863,795.3846435546875,792.5640869140625,801.8314819335938,800.6226806640625
864,800.6226806640625,792.5640869140625,799.8168334960938,799.010986328125
865,798.2051391601562,796.996337890625,790.952392578125,801.025634765625
866,789.3406372070312,795.3846435546875,790.1465454101562,797.8021850585938
867,791.3552856445312,791.7582397460938,796.996337890625,795.3846435546875
868,785.7142944335938,796.1904907226562,801.8314819335938,792.967041015625
869,781.6849975585938,800.6226806640625,794.5787353515625,786.5201416015625
870,792.5640869140625,799.4139404296875,789.3406372070312,794.1758422851562
871,792.1611938476562,795.7875366210938,790.952392578125,796.1904907226562
872,790.1465454101562,792.1611938476562,790.952392578125,796.1904907226562
873,796.5933837890625,788.5347900390625,794.981689453125,801.8314819335938
874,802.2344360351562,791.3552856445312,797.8021850585938,797.3992919921875
875,804.2490844726562,794.981689453125,799.4139404296875,796.996337890625
876,805.8607788085938,794.981689453125,796.1904907226562,798.2051391601562
877,810.6959838867188,798.6080322265625,793.3699340820312,800.2197875976562
878,810.6959838867188,803.040283203125,796.5933837890625,795.7875366210938
879,803.8461303710938,799.010986328125,795.7875366210938,792.967041015625
880,803.4432373046875,792.967041015625,790.952392578125,795.7875366210938
881,800.2197875976562,793.7728881835938,789.3406372070312,799.010986328125
882,790.5494384765625,793.7728881835938,788.937744140625,795.3846435546875
883,789.7435913085938,790.952392578125,784.5054931640625,790.5494384765625
884,792.1611938476562,788.937744140625,785.3113403320312,795.3846435546875
885,792.5640869140625,786.923095703125,790.1465454101562,798.2051391601562
886,789.7435913085938,786.923095703125,792.5640869140625,795.3846435546875
887,789.7435913085938,793.7728881835938,793.7728881835938,799.8168334960938
888,795.3846435546875,795.3846435546875,794.981689453125,802.6373901367188
889,795.3846435546875,794.981689453125,795.3846435546875,800.2197875976562
890,792.1611938476562,790.1465454101562,792.967041015625,797.8021850585938
891,792.967041015625,792.967041015625,794.5787353515625,794.5787353515625
892,797.8021850585938,796.996337890625,795.7875366210938,800.2197875976562
893,799.8168334960938,792.967041015625,794.5787353515625,806.2637329101562
894,793.7728881835938,790.1465454101562,792.967041015625,796.996337890625
895,796.1904907226562,792.1611938476562,794.5787353515625,791.3552856445312
896,804.6520385742188,793.3699340820312,796.996337890625,800.6226806640625
897,799.4139404296875,794.5787353515625,796.1904907226562,807.4725341796875
898,791.3552856445312,792.5640869140625,801.4285888671875,800.2197875976562
899,792.967041015625,789.7435913085938,801.8314819335938,791.3552856445312
900,798.2051391601562,788.937744140625,797.3992919921875,794.981689453125
901,797.8021850585938,793.7728881835938,794.981689453125,794.981689453125
902,791.3552856445312,794.5787353515625,792.967041015625,786.923095703125
903,788.5347900390625,785.7142944335938,794.1758422851562,788.1318969726562
904,792.5640869140625,785.7142944335938,791.3552856445312,801.4285888671875
905,790.1465454101562,790.1465454101562,793.7728881835938,795.3846435546875
906,786.5201416015625,791.7582397460938,799.4139404296875,787.7289428710938
907,790.1465454101562,796.5933837890625,801.025634765625,797.3992919921875
908,792.967041015625,799.4139404296875,797.8021850585938,800.6226806640625
909,793.7728881835938,796.996337890625,798.2051391601562,787.7289428710938
910,792.5640869140625,795.7875366210938,801.8314819335938,786.1171875
911,788.5347900390625,789.3406372070312,801.025634765625,791.7582397460938
912,784.908447265625,784.1025390625,796.5933837890625,793.3699340820312
913,785.7142944335938,786.5201416015625,799.8168334960938,793.3699340820312
914,789.3406372070312,786.1171875,803.040283203125,790.952392578125
915,792.1611938476562,787.3259887695312,800.6226806640625,788.937744140625
916,788.1318969726562,790.5494384765625,800.6226806640625,788.5347900390625
917,789.7435913085938,791.7582397460938,801.025634765625,791.7582397460938
918,786.5201416015625,789.3406372070312,796.5933837890625,792.1611938476562
919,784.1025390625,790.1465454101562,794.5787353515625,796.996337890625
920,790.5494384765625,788.5347900390625,795.7875366210938,804.2490844726562
921,788.5347900390625,785.3113403320312,790.952392578125,799.010986328125
922,788.937744140625,790.5494384765625,795.7875366210938,797.3992919921875
923,788.937744140625,792.5640869140625,799.4139404296875,796.1904907226562
924,790.1465454101562,790.952392578125,792.967041015625,791.7582397460938
925,794.1758422851562,792.967041015625,793.7728881835938,792.1611938476562
926,797.3992919921875,790.5494384765625,798.6080322265625,795.3846435546875
927,799.8168334960938,788.5347900390625,796.996337890625,791.7582397460938
928,800.2197875976562,794.5787353515625,791.3552856445312,791.3552856445312
929,791.3552856445312,795.7875366210938,794.5787353515625,790.5494384765625
930,782.087890625,791.3552856445312,799.4139404296875,782.4908447265625
931,788.1318969726562,790.1465454101562,793.3699340820312,786.5201416015625
932,792.1611938476562,794.1758422851562,794.1758422851562,792.967041015625
933,786.5201416015625,795.7875366210938,799.8168334960938,787.3259887695312
934,785.7142944335938,792.5640869140625,796.996337890625,784.5054931640625
935,790.952392578125,792.1611938476562,794.5787353515625,784.5054931640625
936,795.7875366210938,799.010986328125,792.967041015625,785.7142944335938
937,795.7875366210938,795.7875366210938,791.7582397460938,790.952392578125
938,796.5933837890625,784.908447265625,791.7582397460938,794.5787353515625
939,794.1758422851562,784.908447265625,794.5787353515625,792.967041015625
940,791.7582397460938,789.7435913085938,793.7728881835938,788.1318969726562
941,786.5201416015625,784.5054931640625,792.5640869140625,788.937744140625
942,785.3113403320312,785.3113403320312,792.1611938476562,796.996337890625
943,790.1465454101562,792.967041015625,796.996337890625,804.6520385742188
944,796.1904907226562,799.8168334960938,802.2344360351562,804.6520385742188
945,794.5787353515625,801.8314819335938,794.981689453125,799.010986328125
946,792.5640869140625,797.8021850585938,796.1904907226562,794.981689453125
947,799.010986328125,793.7728881835938,797.3992919921875,797.3992919921875
948,800.6226806640625,795.7875366210938,796.5933837890625,803.040283203125
949,792.1611938476562,794.1758422851562,798.2051391601562,799.4139404296875
950,790.1465454101562,789.3406372070312,800.2197875976562,798.2051391601562
951,790.952392578125,789.7435913085938,798.2051391601562,792.967041015625
952,788.1318969726562,787.7289428710938,793.3699340820312,787.3259887695312
953,785.3113403320312,783.2966918945312,791.3552856445312,786.923095703125
954,784.5054931640625,778.8644409179688,790.5494384765625,791.7582397460938
955,783.2966918945312,783.6996459960938,788.5347900390625,792.967041015625
956,784.5054931640625,791.7582397460938,789.7435913085938,786.5201416015625
957,792.1611938476562,790.1465454101562,790.1465454101562,785.3113403320312
958,791.7582397460938,791.3552856445312,787.7289428710938,790.952392578125
959,789.7435913085938,793.7728881835938,790.5494384765625,792.1611938476562
960,798.6080322265625,794.1758422851562,794.981689453125,793.7728881835938
961,795.7875366210938,793.7728881835938,794.1758422851562,795.3846435546875
962,785.7142944335938,788.1318969726562,793.7728881835938,785.7142944335938
963,788.937744140625,786.923095703125,790.952392578125,781.6849975585938
964,792.1611938476562,791.7582397460938,785.3113403320312,786.1171875
965,795.3846435546875,787.3259887695312,787.7289428710938,791.7582397460938
966,796.5933837890625,784.1025390625,796.1904907226562,800.6226806640625
967,793.7728881835938,792.5640869140625,797.3992919921875,796.996337890625
968,795.3846435546875,796.996337890625,796.996337890625,799.010986328125
969,791.7582397460938,790.1465454101562,794.5787353515625,798.2051391601562
970,790.5494384765625,788.937744140625,796.5933837890625,795.7875366210938
971,794.981689453125,790.952392578125,799.4139404296875,796.5933837890625
972,791.3552856445312,791.7582397460938,800.6226806640625,792.5640869140625
973,788.1318969726562,790.5494384765625,798.2051391601562,794.981689453125
974,783.2966918945312,791.7582397460938,794.5787353515625,792.967041015625
975,780.879150390625,796.5933837890625,799.4139404296875,795.7875366210938
976,782.4908447265625,793.7728881835938,799.010986328125,803.8461303710938
977,786.923095703125,786.923095703125,793.3699340820312,807.87548828125
978,790.5494384765625,789.3406372070312,794.5787353515625,799.8168334960938
979,793.3699340820312,793.3699340820312,797.3992919921875,788.937744140625
980,793.7728881835938,790.952392578125,792.5640869140625,789.7435913085938
981,788.1318969726562,794.1758422851562,791.3552856445312,789.3406372070312
982,786.5201416015625,797.8021850585938,788.1318969726562,784.1025390625
983,789.7435913085938,788.937744140625,790.1465454101562,786.923095703125
984,790.1465454101562,790.5494384765625,796.1904907226562,788.937744140625
985,788.937744140625,791.7582397460938,791.3552856445312,790.5494384765625
986,792.5640869140625,790.952392578125,793.7728881835938,792.967041015625
987,798.2051391601562,791.7582397460938,801.025634765625,797.3992919921875
988,803.4432373046875,787.7289428710938,795.7875366210938,801.025634765625
989,806.2637329101562,789.3406372070312,793.7728881835938,807.87548828125
990,803.8461303710938,793.7728881835938,799.8168334960938,807.4725341796875
991,800.6226806640625,796.5933837890625,796.5933837890625,801.8314819335938
992,801.8314819335938,795.7875366210938,801.025634765625,803.040283203125
993,798.6080322265625,792.1611938476562,798.6080322265625,797.8021850585938
994,792.1611938476562,790.1465454101562,793.7728881835938,792.967041015625
995,788.5347900390625,783.2966918945312,796.996337890625,791.3552856445312
996,786.1171875,782.4908447265625,793.3699340820312,788.1318969726562
997,782.893798828125,795.7875366210938,795.7875366210938,793.3699340820312
998,783.2966918945312,792.967041015625,801.8314819335938,796.5933837890625
999,784.908447265625,783.2966918945312,799.010986328125,794.5787353515625
1000,784.1025390625,784.5054931640625,791.7582397460938,800.2197875976562
1001,784.5054931640625,786.923095703125,790.1465454101562,799.4139404296875
1002,784.1025390625,787.7289428710938,791.3552856445312,791.3552856445312
1003,788.937744140625,785.7142944335938,789.7435913085938,786.923095703125
1004,799.4139404296875,789.7435913085938,796.1904907226562,795.3846435546875
1005,797.8021850585938,797.3992919921875,801.8314819335938,793.7728881835938
1006,790.952392578125,790.5494384765625,802.2344360351562,790.952392578125
1007,785.3113403320312,784.908447265625,802.6373901367188,793.7728881835938
1008,787.3259887695312,799.010986328125,802.2344360351562,794.981689453125
1009,790.5494384765625,801.025634765625,799.010986328125,803.040283203125
1010,790.952392578125,794.5787353515625,798.2051391601562,801.4285888671875
1011,791.3552856445312,794.1758422851562,796.5933837890625,799.010986328125
1012,794.1758422851562,797.8021850585938,793.7728881835938,799.8168334960938
1013,799.8168334960938,797.8021850585938,796.5933837890625,801.4285888671875
1014,801.4285888671875,794.5787353515625,794.5787353515625,804.6520385742188
1015,801.8314819335938,794.5787353515625,793.3699340820312,803.040283203125
1016,806.6666870117188,794.5787353515625,799.4139404296875,803.040283203125
1017,801.4285888671875,794.1758422851562,803.4432373046875,802.2344360351562
1018,796.1904907226562,795.7875366210938,803.4432373046875,799.8168334960938
1019,798.2051391601562,792.1611938476562,800.6226806640625,806.2637329101562
1020,797.3992919921875,787.3259887695312,796.5933837890625,808.2783813476562
1021,795.3846435546875,790.5494384765625,794.5787353515625,798.6080322265625
1022,789.3406372070312,796.1904907226562,796.5933837890625,796.5933837890625
1023,787.3259887695312,796.1904907226562,799.010986328125,797.3992919921875
1024,790.5494384765625,793.7728881835938,798.6080322265625,792.1611938476562
1025,787.7289428710938,791.7582397460938,798.6080322265625,790.1465454101562
1026,786.1171875,790.952392578125,796.996337890625,789.3406372070312
1027,788.937744140625,794.981689453125,792.5640869140625,792.1611938476562
1028,788.937744140625,800.2197875976562,794.5787353515625,788.1318969726562
1029,796.5933837890625,797.8021850585938,792.967041015625,779.6703491210938
1030,791.7582397460938,794.5787353515625,791.7582397460938,778.8644409179688
1031,785.7142944335938,794.981689453125,791.7582397460938,782.4908447265625
1032,789.7435913085938,797.8021850585938,792.967041015625,786.1171875
1033,790.5494384765625,797.3992919921875,790.1465454101562,788.937744140625
1034,792.967041015625,789.7435913085938,789.7435913085938,792.967041015625
1035,789.3406372070312,790.952392578125,793.3699340820312,793.7728881835938
1036,790.5494384765625,792.5640869140625,795.3846435546875,796.1904907226562
1037,791.7582397460938,784.5054931640625,795.3846435546875,796.5933837890625
1038,786.923095703125,789.3406372070312,791.3552856445312,793.3699340820312
1039,785.7142944335938,794.1758422851562,791.7582397460938,794.1758422851562
1040,788.937744140625,788.937744140625,794.1758422851562,787.7289428710938
1041,788.937744140625,791.3552856445312,795.7875366210938,783.2966918945312
1042,790.1465454101562,792.5640869140625,798.6080322265625,793.3699340820312
1043,792.967041015625,788.5347900390625,798.2051391601562,792.5640869140625
1044,788.937744140625,795.3846435546875,797.3992919921875,783.2966918945312
1045,787.3259887695312,798.6080322265625,798.2051391601562,780.0732421875
1046,801.4285888671875,799.4139404296875,797.8021850585938,782.087890625
1047,799.8168334960938,803.040283203125,796.5933837890625,781.2820434570312
1048,788.937744140625,803.4432373046875,796.5933837890625,783.6996459960938
1049,790.5494384765625,799.8168334960938,797.3992919921875,787.3259887695312
1050,796.5933837890625,797.3992919921875,795.7875366210938,795.3846435546875
1051,794.5787353515625,799.8168334960938,797.3992919921875,796.5933837890625
1052,792.5640869140625,799.010986328125,800.2197875976562,790.5494384765625
1053,792.1611938476562,799.8168334960938,797.3992919921875,785.7142944335938
1054,791.7582397460938,799.4139404296875,796.5933837890625,786.5201416015625
1055,792.967041015625,796.5933837890625,799.010986328125,790.5494384765625
1056,801.8314819335938,803.4432373046875,799.4139404296875,793.3699340820312
1057,808.6813354492188,809.89013671875,798.2051391601562,799.4139404296875
1058,806.6666870117188,804.6520385742188,791.7582397460938,799.4139404296875
1059,801.4285888671875,799.4139404296875,790.5494384765625,798.6080322265625
1060,797.8021850585938,796.1904907226562,794.981689453125,799.010986328125
1061,801.025634765625,790.1465454101562,797.3992919921875,804.6520385742188
1062,797.3992919921875,788.937744140625,796.996337890625,805.8607788085938
1063,790.1465454101562,788.937744140625,796.996337890625,796.996337890625
1064,792.5640869140625,788.1318969726562,795.7875366210938,797.3992919921875
1065,792.1611938476562,785.3113403320312,794.981689453125,796.5933837890625
1066,782.087890625,785.3113403320312,796.1904907226562,790.952392578125
1067,783.6996459960938,786.1171875,791.3552856445312,790.5494384765625
1068,788.5347900390625,783.2966918945312,788.1318969726562,792.5640869140625
1069,780.4761962890625,790.952392578125,787.3259887695312,796.5933837890625
1070,781.2820434570312,794.1758422851562,786.923095703125,799.010986328125
1071,789.3406372070312,790.952392578125,787.7289428710938,786.923095703125
1072,782.893798828125,788.1318969726562,788.937744140625,781.6849975585938
1073,774.8351440429688,788.5347900390625,790.1465454101562,784.908447265625
1074,787.7289428710938,792.967041015625,794.981689453125,784.5054931640625
1075,790.1465454101562,786.5201416015625,793.7728881835938,787.7289428710938
1076,786.5201416015625,786.1171875,789.7435913085938,790.952392578125
1077,791.7582397460938,792.1611938476562,790.5494384765625,791.7582397460938
1078,793.3699340820312,788.5347900390625,790.5494384765625,788.1318969726562
1079,797.3992919921875,788.5347900390625,784.1025390625,783.2966918945312
1080,799.8168334960938,790.1465454101562,788.5347900390625,787.7289428710938
1081,795.3846435546875,783.2966918945312,790.952392578125,794.981689453125
1082,796.5933837890625,792.1611938476562,791.7582397460938,795.7875366210938
1083,796.5933837890625,799.4139404296875,794.5787353515625,798.2051391601562
1084,791.7582397460938,794.1758422851562,795.7875366210938,800.6226806640625
1085,791.3552856445312,791.3552856445312,795.3846435546875,799.8168334960938
1086,793.3699340820312,789.3406372070312,794.1758422851562,800.6226806640625
1087,793.3699340820312,792.5640869140625,794.5787353515625,801.4285888671875
1088,794.5787353515625,792.1611938476562,792.5640869140625,805.054931640625
1089,793.3699340820312,792.967041015625,793.7728881835938,801.4285888671875
1090,786.5201416015625,794.5787353515625,794.5787353515625,789.7435913085938
1091,788.937744140625,793.3699340820312,795.7875366210938,793.7728881835938
1092,792.5640869140625,788.937744140625,794.1758422851562,792.5640869140625
1093,790.5494384765625,789.7435913085938,792.1611938476562,791.3552856445312
1094,789.3406372070312,794.1758422851562,793.7728881835938,793.3699340820312
1095,788.5347900390625,792.1611938476562,794.5787353515625,797.3992919921875
1096,789.7435913085938,788.937744140625,796.1904907226562,805.8607788085938
1097,792.967041015625,790.952392578125,796.5933837890625,809.084228515625
1098,786.5201416015625,796.996337890625,794.5787353515625,806.6666870117188
1099,781.6849975585938,794.981689453125,794.1758422851562,799.4139404296875
1100,786.1171875,789.3406372070312,797.3992919921875,796.996337890625
1101,796.996337890625,790.952392578125,801.025634765625,796.5933837890625
1102,792.967041015625,788.1318969726562,799.8168334960938,796.1904907226562
1103,784.908447265625,784.1025390625,801.4285888671875,790.952392578125
1104,789.3406372070312,788.1318969726562,799.8168334960938,792.967041015625
1105,792.1611938476562,787.3259887695312,796.1904907226562,798.2051391601562
1106,794.5787353515625,786.1171875,797.3992919921875,798.6080322265625
1107,799.8168334960938,793.3699340820312,797.8021850585938,800.2197875976562
1108,786.5201416015625,796.996337890625,799.8168334960938,795.3846435546875
1109,776.8497924804688,798.6080322265625,801.025634765625,793.7728881835938
1110,782.893798828125,797.3992919921875,802.2344360351562,799.4139404296875
1111,791.3552856445312,795.7875366210938,795.7875366210938,804.2490844726562
1112,799.8168334960938,794.5787353515625,790.1465454101562,807.87548828125
1113,795.7875366210938,792.967041015625,796.1904907226562,794.981689453125
1114,787.7289428710938,794.981689453125,797.3992919921875,785.7142944335938
1115,791.3552856445312,792.967041015625,792.5640869140625,785.3113403320312
1116,791.3552856445312,789.7435913085938,788.937744140625,783.6996459960938
1117,793.7728881835938,788.1318969726562,791.3552856445312,785.7142944335938
1118,798.6080322265625,788.1318969726562,795.3846435546875,794.981689453125
1119,794.1758422851562,792.5640869140625,794.1758422851562,799.010986328125
1120,791.3552856445312,793.7728881835938,792.5640869140625,792.967041015625
1121,797.3992919921875,792.1611938476562,793.7728881835938,789.7435913085938
1122,803.8461303710938,795.3846435546875,797.8021850585938,794.981689453125
1123,807.87548828125,798.2051391601562,799.010986328125,800.6226806640625
1124,809.89013671875,794.981689453125,799.010986328125,797.3992919921875
1125,806.6666870117188,793.3699340820312,800.6226806640625,794.5787353515625
1126,806.6666870117188,789.7435913085938,801.025634765625,792.1611938476562
1127,807.4725341796875,787.7289428710938,797.8021850585938,793.3699340820312
1128,805.4578857421875,791.3552856445312,796.5933837890625,793.3699340820312
1129,805.054931640625,793.3699340820312,800.2197875976562,798.2051391601562
1130,795.3846435546875,786.923095703125,800.2197875976562,800.2197875976562
1131,786.5201416015625,787.7289428710938,796.1904907226562,794.981689453125
1132,789.7435913085938,793.7728881835938,793.7728881835938,795.7875366210938
1133,792.967041015625,795.7875366210938,794.1758422851562,798.2051391601562
1134,795.3846435546875,798.6080322265625,795.3846435546875,798.6080322265625
1135,794.981689453125,801.025634765625,792.967041015625,801.4285888671875
1136,796.996337890625,803.8461303710938,794.5787353515625,792.1611938476562
1137,799.8168334960938,795.3846435546875,796.996337890625,787.3259887695312
1138,800.6226806640625,789.7435913085938,794.1758422851562,792.5640869140625
1139,798.2051391601562,793.3699340820312,796.996337890625,793.7728881835938
1140,796.1904907226562,796.996337890625,797.8021850585938,788.937744140625
1141,801.025634765625,794.5787353515625,798.6080322265625,792.1611938476562
1142,802.6373901367188,789.3406372070312,799.4139404296875,797.8021850585938
1143,793.7728881835938,794.5787353515625,793.3699340820312,793.3699340820312
1144,793.3699340820312,801.8314819335938,790.952392578125,794.981689453125
1145,801.4285888671875,806.6666870117188,795.7875366210938,803.4432373046875
1146,802.2344360351562,801.4285888671875,796.1904907226562,804.2490844726562
1147,802.6373901367188,798.2051391601562,797.8021850585938,802.6373901367188
1148,805.054931640625,797.8021850585938,797.8021850585938,802.2344360351562
1149,801.8314819335938,792.1611938476562,799.010986328125,803.040283203125
1150,800.2197875976562,796.5933837890625,799.4139404296875,804.6520385742188
1151,795.3846435546875,794.1758422851562,793.3699340820312,796.996337890625
1152,794.5787353515625,791.3552856445312,788.1318969726562,788.1318969726562
1153,798.6080322265625,794.1758422851562,791.3552856445312,791.7582397460938
1154,791.3552856445312,789.3406372070312,790.5494384765625,786.923095703125
1155,788.5347900390625,790.1465454101562,791.7582397460938,790.1465454101562
1156,787.7289428710938,794.5787353515625,798.2051391601562,795.7875366210938
1157,788.1318969726562,794.1758422851562,796.5933837890625,789.7435913085938
1158,794.5787353515625,794.5787353515625,794.1758422851562,791.3552856445312
1159,788.1318969726562,794.981689453125,794.981689453125,791.3552856445312
1160,781.6849975585938,790.1465454101562,797.3992919921875,792.1611938476562
1161,783.6996459960938,788.1318969726562,795.7875366210938,789.7435913085938
1162,784.5054931640625,784.1025390625,790.952392578125,785.3113403320312
1163,787.3259887695312,782.087890625,788.937744140625,782.893798828125
1164,789.3406372070312,784.908447265625,788.937744140625,784.5054931640625
1165,781.6849975585938,785.7142944335938,794.981689453125,787.3259887695312
1166,775.2380981445312,784.908447265625,795.3846435546875,782.087890625
1167,781.6849975585938,789.7435913085938,793.3699340820312,782.893798828125
1168,789.3406372070312,793.3699340820312,792.5640869140625,784.1025390625
1169,789.7435913085938,794.981689453125,789.7435913085938,787.7289428710938
1170,787.7289428710938,798.6080322265625,790.952392578125,788.5347900390625
1171,790.952392578125,797.3992919921875,794.1758422851562,784.5054931640625
1172,792.1611938476562,797.3992919921875,798.2051391601562,794.5787353515625
1173,796.5933837890625,792.967041015625,797.3992919921875,803.040283203125
1174,802.2344360351562,791.7582397460938,795.3846435546875,800.6226806640625
1175,794.5787353515625,795.7875366210938,794.981689453125,795.3846435546875
1176,786.1171875,794.1758422851562,795.7875366210938,790.952392578125
1177,782.893798828125,796.5933837890625,795.7875366210938,787.7289428710938
1178,784.5054931640625,796.1904907226562,797.8021850585938,794.1758422851562
1179,787.3259887695312,792.5640869140625,799.4139404296875,796.996337890625
1180,788.5347900390625,798.6080322265625,793.7728881835938,797.8021850585938
1181,787.3259887695312,801.4285888671875,787.7289428710938,801.8314819335938
1182,783.6996459960938,801.8314819335938,793.3699340820312,794.1758422851562
1183,784.5054931640625,797.3992919921875,794.981689453125,790.1465454101562
1184,788.5347900390625,790.1465454101562,791.7582397460938,796.996337890625
1185,788.1318969726562,789.3406372070312,793.7728881835938,801.8314819335938
1186,781.2820434570312,791.7582397460938,791.7582397460938,799.010986328125
1187,778.8644409179688,788.5347900390625,792.1611938476562,791.3552856445312
1188,784.908447265625,788.1318969726562,796.5933837890625,782.893798828125
1189,788.5347900390625,787.3259887695312,798.2051391601562,783.2966918945312
1190,787.3259887695312,782.4908447265625,794.981689453125,781.6849975585938
1191,786.1171875,790.952392578125,791.7582397460938,786.1171875
1192,789.3406372070312,794.5787353515625,794.981689453125,796.5933837890625
1193,787.3259887695312,787.3259887695312,794.981689453125,791.3552856445312
1194,784.5054931640625,787.3259887695312,792.967041015625,785.7142944335938
1195,790.5494384765625,793.7728881835938,793.7728881835938,795.7875366210938
1196,795.7875366210938,789.3406372070312,793.7728881835938,804.6520385742188
1197,798.2051391601562,783.6996459960938,789.7435913085938,796.5933837890625
1198,794.5787353515625,788.937744140625,789.7435913085938,790.1465454101562
1199,793.3699340820312,793.7728881835938,790.952392578125,797.3992919921875
1200,799.4139404296875,791.7582397460938,790.952392578125,800.6226806640625
1201,804.2490844726562,793.3699340820312,795.3846435546875,801.4285888671875
1202,803.4432373046875,792.1611938476562,794.1758422851562,801.4285888671875
1203,800.6226806640625,786.923095703125,793.3699340820312,792.967041015625
1204,793.7728881835938,789.3406372070312,794.5787353515625,790.5494384765625
1205,792.1611938476562,789.3406372070312,791.3552856445312,791.7582397460938
1206,797.8021850585938,784.908447265625,790.5494384765625,788.1318969726562
1207,799.4139404296875,788.1318969726562,794.1758422851562,797.3992919921875
1208,803.040283203125,791.3552856445312,796.5933837890625,805.4578857421875
1209,806.6666870117188,796.996337890625,795.3846435546875,792.967041015625
1210,809.89013671875,801.8314819335938,794.1758422851562,792.1611938476562
1211,806.6666870117188,797.3992919921875,794.5787353515625,791.7582397460938
1212,803.8461303710938,796.5933837890625,795.7875366210938,791.3552856445312
1213,801.025634765625,797.8021850585938,795.3846435546875,794.5787353515625
1214,801.025634765625,797.8021850585938,792.5640869140625,792.5640869140625
1215,806.2637329101562,795.3846435546875,792.1611938476562,796.996337890625
1216,803.040283203125,790.5494384765625,793.3699340820312,795.7875366210938
1217,796.996337890625,792.1611938476562,790.5494384765625,789.7435913085938
1218,791.7582397460938,788.937744140625,790.1465454101562,788.5347900390625
1219,794.981689453125,785.7142944335938,790.952392578125,801.8314819335938
1220,800.2197875976562,794.5787353515625,795.7875366210938,811.098876953125
1221,795.3846435546875,800.2197875976562,797.3992919921875,807.069580078125
1222,795.3846435546875,797.8021850585938,797.8021850585938,813.5164794921875
1223,795.3846435546875,798.2051391601562,801.025634765625,813.5164794921875
1224,794.1758422851562,799.010986328125,799.010986328125,805.054931640625
1225,797.8021850585938,797.8021850585938,796.5933837890625,798.6080322265625
1226,798.6080322265625,799.4139404296875,797.8021850585938,795.7875366210938
1227,798.2051391601562,801.8314819335938,796.1904907226562,793.3699340820312
1228,796.996337890625,796.996337890625,794.5787353515625,790.1465454101562
1229,796.1904907226562,790.1465454101562,794.981689453125,797.8021850585938
1230,802.6373901367188,792.967041015625,787.7289428710938,803.4432373046875
1231,805.4578857421875,799.010986328125,785.3113403320312,801.025634765625
1232,788.937744140625,792.967041015625,790.952392578125,784.908447265625
1233,783.2966918945312,793.7728881835938,794.5787353515625,777.2527465820312
1234,787.7289428710938,793.3699340820312,795.3846435546875,786.1171875
1235,789.3406372070312,796.5933837890625,794.1758422851562,794.1758422851562
1236,790.1465454101562,799.8168334960938,796.1904907226562,797.3992919921875
1237,789.3406372070312,797.8021850585938,796.1904907226562,799.4139404296875
1238,787.7289428710938,799.8168334960938,795.7875366210938,794.1758422851562
1239,787.3259887695312,799.4139404296875,794.5787353515625,790.5494384765625
1240,789.3406372070312,797.3992919921875,794.1758422851562,794.5787353515625
1241,787.3259887695312,788.1318969726562,793.7728881835938,798.2051391601562
1242,790.952392578125,785.3113403320312,790.1465454101562,801.4285888671875
1243,792.1611938476562,792.1611938476562,794.1758422851562,803.040283203125
1244,790.952392578125,794.981689453125,794.1758422851562,803.8461303710938
1245,794.5787353515625,792.5640869140625,788.5347900390625,802.2344360351562
1246,791.7582397460938,790.1465454101562,789.7435913085938,794.981689453125
1247,787.3259887695312,792.967041015625,795.3846435546875,792.1611938476562
1248,788.937744140625,796.996337890625,796.996337890625,793.3699340820312
1249,790.5494384765625,793.7728881835938,790.1465454101562,791.7582397460938
1250,791.7582397460938,788.1318969726562,788.5347900390625,800.6226806640625
1251,791.3552856445312,789.7435913085938,792.1611938476562,799.8168334960938
1252,788.1318969726562,788.937744140625,789.3406372070312,786.923095703125
1253,781.6849975585938,788.5347900390625,787.7289428710938,787.3259887695312
1254,780.4761962890625,789.3406372070312,790.5494384765625,789.3406372070312
1255,786.923095703125,789.7435913085938,790.952392578125,776.8497924804688
1256,790.1465454101562,790.1465454101562,792.1611938476562,778.05859375
1257,791.3552856445312,790.952392578125,793.3699340820312,782.4908447265625
1258,790.952392578125,794.1758422851562,792.5640869140625,780.0732421875
1259,790.5494384765625,793.3699340820312,789.7435913085938,780.4761962890625
1260,789.3406372070312,794.5787353515625,791.7582397460938,785.7142944335938
1261,794.981689453125,796.996337890625,795.3846435546875,793.7728881835938
1262,800.2197875976562,798.6080322265625,796.5933837890625,798.2051391601562
1263,802.2344360351562,800.2197875976562,802.2344360351562,799.4139404296875
1264,798.2051391601562,793.3699340820312,803.4432373046875,795.7875366210938
1265,799.010986328125,789.3406372070312,799.010986328125,798.2051391601562
1266,799.8168334960938,796.996337890625,797.3992919921875,802.2344360351562
1267,788.5347900390625,798.2051391601562,795.3846435546875,799.4139404296875
1268,791.3552856445312,794.5787353515625,794.5787353515625,798.2051391601562
1269,800.6226806640625,796.1904907226562,796.5933837890625,799.8168334960938
1270,801.025634765625,793.3699340820312,796.5933837890625,799.010986328125
1271,800.6226806640625,786.5201416015625,800.6226806640625,797.8021850585938
1272,796.5933837890625,790.952392578125,798.6080322265625,798.6080322265625
1273,790.1465454101562,792.967041015625,797.3992919921875,797.8021850585938
1274,790.952392578125,790.952392578125,799.8168334960938,796.5933837890625
1275,789.7435913085938,790.1465454101562,792.1611938476562,790.5494384765625
1276,789.3406372070312,792.1611938476562,785.7142944335938,789.3406372070312
1277,794.981689453125,793.3699340820312,787.7289428710938,788.937744140625
1278,796.5933837890625,794.1758422851562,793.3699340820312,779.2673950195312
1279,796.1904907226562,798.2051391601562,793.3699340820312,777.2527465820312
1280,799.010986328125,794.1758422851562,792.1611938476562,784.5054931640625
1281,803.8461303710938,791.3552856445312,792.967041015625,783.6996459960938
1282,801.4285888671875,791.3552856445312,792.5640869140625,784.908447265625
1283,801.025634765625,794.5787353515625,793.3699340820312,791.7582397460938
1284,800.2197875976562,791.3552856445312,792.967041015625,795.3846435546875
1285,795.7875366210938,782.087890625,793.3699340820312,793.7728881835938
1286,795.7875366210938,787.7289428710938,794.981689453125,795.7875366210938
1287,796.1904907226562,794.981689453125,799.8168334960938,803.8461303710938
1288,797.3992919921875,789.7435913085938,800.6226806640625,804.2490844726562
1289,795.3846435546875,786.1171875,795.3846435546875,796.1904907226562
1290,799.8168334960938,784.908447265625,798.6080322265625,794.981689453125
1291,807.4725341796875,786.923095703125,802.2344360351562,797.8021850585938
1292,805.054931640625,786.923095703125,794.981689453125,802.2344360351562
1293,797.8021850585938,787.7289428710938,792.967041015625,796.5933837890625
1294,800.2197875976562,789.3406372070312,794.5787353515625,796.5933837890625
1295,804.2490844726562,788.1318969726562,794.1758422851562,796.996337890625
1296,801.4285888671875,787.3259887695312,794.5787353515625,790.952392578125
1297,801.025634765625,786.5201416015625,795.3846435546875,790.1465454101562
1298,803.8461303710938,790.952392578125,795.3846435546875,795.7875366210938
1299,804.2490844726562,796.996337890625,796.996337890625,798.2051391601562
1300,802.6373901367188,798.6080322265625,795.7875366210938,794.1758422851562
1301,798.6080322265625,790.1465454101562,797.3992919921875,792.1611938476562
1302,795.7875366210938,792.967041015625,799.010986328125,792.1611938476562
1303,795.7875366210938,796.5933837890625,791.7582397460938,798.2051391601562
1304,791.7582397460938,792.967041015625,792.5640869140625,801.4285888671875
1305,793.7728881835938,789.7435913085938,800.6226806640625,794.981689453125
1306,796.1904907226562,789.7435913085938,800.2197875976562,794.1758422851562
1307,795.7875366210938,796.1904907226562,799.8168334960938,801.8314819335938
1308,796.1904907226562,796.996337890625,803.8461303710938,805.4578857421875
1309,793.7728881835938,796.996337890625,806.6666870117188,805.054931640625
1310,792.967041015625,796.996337890625,803.040283203125,807.87548828125
1311,791.7582397460938,791.3552856445312,801.8314819335938,808.2783813476562
1312,791.7582397460938,790.5494384765625,799.8168334960938,801.4285888671875
1313,791.7582397460938,793.7728881835938,795.3846435546875,796.5933837890625
1314,794.5787353515625,797.3992919921875,799.010986328125,797.3992919921875
1315,801.8314819335938,801.4285888671875,803.040283203125,805.8607788085938
1316,799.010986328125,798.2051391601562,799.4139404296875,803.8461303710938
1317,797.8021850585938,796.1904907226562,796.5933837890625,795.3846435546875
1318,803.8461303710938,802.2344360351562,800.2197875976562,799.8168334960938
1319,807.069580078125,800.6226806640625,796.996337890625,801.4285888671875
1320,809.89013671875,801.025634765625,796.1904907226562,801.4285888671875
1321,804.2490844726562,799.4139404296875,796.5933837890625,796.996337890625
1322,798.2051391601562,794.1758422851562,793.7728881835938,790.5494384765625
1323,796.1904907226562,796.5933837890625,796.996337890625,794.1758422851562
1324,790.952392578125,794.1758422851562,799.010986328125,792.5640869140625
1325,786.923095703125,789.3406372070312,796.5933837890625,792.5640869140625
1326,782.893798828125,789.3406372070312,792.1611938476562,792.967041015625
1327,788.1318969726562,790.1465454101562,793.7728881835938,801.8314819335938
1328,791.7582397460938,795.3846435546875,802.2344360351562,801.8314819335938
1329,795.3846435546875,795.7875366210938,797.8021850585938,793.7728881835938
1330,795.7875366210938,794.1758422851562,793.7728881835938,793.3699340820312
1331,791.3552856445312,798.2051391601562,799.010986328125,792.5640869140625
1332,793.7728881835938,795.3846435546875,800.2197875976562,795.3846435546875
1333,801.4285888671875,791.7582397460938,800.2197875976562,799.010986328125
1334,801.025634765625,795.7875366210938,798.6080322265625,800.2197875976562
1335,794.5787353515625,796.996337890625,797.8021850585938,793.7728881835938
1336,800.6226806640625,800.2197875976562,797.3992919921875,794.1758422851562
1337,805.4578857421875,794.981689453125,793.7728881835938,791.7582397460938
1338,802.2344360351562,783.2966918945312,792.1611938476562,792.967041015625
1339,804.6520385742188,793.7728881835938,792.5640869140625,795.7875366210938
1340,807.4725341796875,800.2197875976562,794.5787353515625,790.5494384765625
1341,804.2490844726562,799.010986328125,795.7875366210938,788.937744140625
1342,797.3992919921875,798.2051391601562,792.967041015625,787.3259887695312
1343,789.3406372070312,793.3699340820312,789.3406372070312,782.893798828125
1344,789.3406372070312,792.1611938476562,793.3699340820312,788.1318969726562
1345,788.1318969726562,794.5787353515625,796.996337890625,792.5640869140625
1346,787.3259887695312,796.5933837890625,799.010986328125,793.3699340820312
1347,794.981689453125,794.1758422851562,800.6226806640625,799.8168334960938
1348,791.7582397460938,788.5347900390625,799.4139404296875,799.8168334960938
1349,784.1025390625,787.7289428710938,799.4139404296875,798.2051391601562
1350,780.879150390625,787.7289428710938,796.996337890625,803.4432373046875
1351,781.2820434570312,787.7289428710938,798.2051391601562,796.1904907226562
1352,784.1025390625,794.5787353515625,800.2197875976562,792.5640869140625
1353,784.1025390625,793.3699340820312,799.010986328125,792.5640869140625
1354,782.4908447265625,784.5054931640625,795.7875366210938,790.952392578125
1355,786.5201416015625,781.2820434570312,792.967041015625,797.3992919921875
1356,784.1025390625,783.6996459960938,792.967041015625,796.5933837890625
1357,786.5201416015625,788.5347900390625,790.1465454101562,791.7582397460938
1358,794.1758422851562,798.6080322265625,790.5494384765625,784.5054931640625
1359,796.1904907226562,801.8314819335938,796.1904907226562,782.087890625
1360,797.8021850585938,800.2197875976562,796.5933837890625,790.5494384765625
1361,795.3846435546875,798.6080322265625,793.3699340820312,800.6226806640625
1362,794.981689453125,792.967041015625,794.981689453125,795.3846435546875
1363,794.5787353515625,791.3552856445312,798.2051391601562,789.7435913085938
1364,794.5787353515625,790.952392578125,796.1904907226562,790.1465454101562
1365,791.7582397460938,793.7728881835938,792.5640869140625,790.1465454101562
1366,790.952392578125,794.5787353515625,790.952392578125,787.3259887695312
1367,790.1465454101562,794.5787353515625,792.1611938476562,789.3406372070312
1368,795.7875366210938,797.3992919921875,795.7875366210938,791.7582397460938
1369,792.5640869140625,794.981689453125,798.6080322265625,794.981689453125
1370,785.7142944335938,796.996337890625,799.4139404296875,792.1611938476562
1371,787.7289428710938,799.8168334960938,799.010986328125,789.3406372070312
1372,793.7728881835938,798.6080322265625,798.2051391601562,795.3846435546875
1373,794.981689453125,798.6080322265625,796.5933837890625,793.7728881835938
1374,791.7582397460938,796.5933837890625,797.8021850585938,793.7728881835938
1375,791.3552856445312,790.5494384765625,798.2051391601562,794.981689453125
1376,796.1904907226562,790.952392578125,794.1758422851562,793.7728881835938
1377,798.6080322265625,793.3699340820312,797.3992919921875,796.1904907226562
1378,792.5640869140625,794.1758422851562,799.4139404296875,796.5933837890625
1379,794.981689453125,792.5640869140625,797.3992919921875,797.3992919921875
1380,799.010986328125,798.6080322265625,798.6080322265625,800.2197875976562
1381,793.7728881835938,797.3992919921875,794.5787353515625,790.952392578125
1382,787.3259887695312,793.3699340820312,793.7728881835938,786.1171875
1383,790.5494384765625,795.3846435546875,793.7728881835938,790.1465454101562
1384,794.981689453125,790.1465454101562,793.3699340820312,796.5933837890625
1385,794.5787353515625,786.1171875,793.3699340820312,799.010986328125
1386,793.3699340820312,788.937744140625,788.937744140625,795.7875366210938
1387,791.7582397460938,788.1318969726562,794.981689453125,791.3552856445312
1388,799.010986328125,782.893798828125,797.8021850585938,793.3699340820312
1389,797.3992919921875,788.1318969726562,794.1758422851562,792.967041015625
1390,792.5640869140625,796.5933837890625,796.5933837890625,788.937744140625
1391,792.5640869140625,792.1611938476562,798.2051391601562,787.3259887695312
1392,788.5347900390625,792.5640869140625,794.5787353515625,784.908447265625
1393,785.3113403320312,796.1904907226562,792.5640869140625,782.4908447265625
1394,786.1171875,797.8021850585938,792.5640869140625,781.6849975585938
1395,789.7435913085938,798.2051391601562,792.5640869140625,784.1025390625
1396,789.7435913085938,797.8021850585938,792.1611938476562,785.3113403320312
1397,794.981689453125,796.996337890625,793.3699340820312,785.7142944335938
1398,798.6080322265625,797.8021850585938,794.1758422851562,786.5201416015625
1399,795.7875366210938,796.1904907226562,792.5640869140625,791.3552856445312
1400,796.1904907226562,787.3259887695312,791.7582397460938,798.6080322265625
1401,790.1465454101562,784.5054931640625,792.967041015625,790.5494384765625
1402,790.5494384765625,789.3406372070312,788.937744140625,783.2966918945312
1403,797.8021850585938,790.1465454101562,790.1465454101562,788.1318969726562
1404,795.3846435546875,792.1611938476562,793.3699340820312,786.923095703125
1405,796.5933837890625,793.3699340820312,789.7435913085938,790.5494384765625
1406,800.2197875976562,790.952392578125,787.7289428710938,796.1904907226562
1407,807.069580078125,795.7875366210938,790.1465454101562,798.6080322265625
1408,809.4871826171875,799.4139404296875,790.952392578125,800.2197875976562
1409,805.8607788085938,796.5933837890625,787.7289428710938,798.2051391601562
1410,808.2783813476562,796.5933837890625,788.937744140625,797.3992919921875
1411,811.098876953125,795.3846435546875,791.3552856445312,801.4285888671875
1412,804.6520385742188,788.5347900390625,791.7582397460938,802.6373901367188
1413,798.2051391601562,792.1611938476562,796.996337890625,796.996337890625
1414,798.6080322265625,801.8314819335938,795.7875366210938,794.981689453125
1415,803.040283203125,804.2490844726562,794.981689453125,792.1611938476562
1416,801.4285888671875,799.8168334960938,795.3846435546875,791.3552856445312
1417,789.7435913085938,797.8021850585938,791.7582397460938,788.1318969726562
1418,787.7289428710938,800.2197875976562,789.3406372070312,786.1171875
1419,792.1611938476562,797.3992919921875,792.967041015625,792.5640869140625
1420,795.3846435546875,790.952392578125,794.5787353515625,790.5494384765625
1421,792.967041015625,787.3259887695312,792.5640869140625,786.1171875
1422,784.1025390625,789.3406372070312,792.1611938476562,786.923095703125
1423,781.6849975585938,792.5640869140625,792.5640869140625,784.908447265625
1424,781.6849975585938,790.952392578125,793.3699340820312,782.087890625
1425,787.3259887695312,787.7289428710938,795.7875366210938,788.5347900390625
1426,792.5640869140625,792.967041015625,797.3992919921875,794.981689453125
1427,788.5347900390625,796.5933837890625,796.5933837890625,792.1611938476562
1428,788.5347900390625,796.996337890625,795.3846435546875,786.923095703125
1429,792.5640869140625,793.3699340820312,797.3992919921875,784.1025390625
1430,798.2051391601562,786.923095703125,794.1758422851562,796.996337890625
1431,797.3992919921875,786.5201416015625,796.996337890625,805.4578857421875
1432,793.7728881835938,789.7435913085938,800.2197875976562,796.996337890625
1433,793.7728881835938,790.1465454101562,793.3699340820312,794.5787353515625
1434,798.2051391601562,793.7728881835938,792.1611938476562,799.8168334960938
1435,801.8314819335938,796.5933837890625,790.952392578125,799.010986328125
1436,794.981689453125,791.7582397460938,793.7728881835938,794.981689453125
1437,790.5494384765625,786.1171875,795.3846435546875,796.5933837890625
1438,790.5494384765625,791.7582397460938,789.3406372070312,794.1758422851562
1439,788.5347900390625,796.5933837890625,791.7582397460938,793.3699340820312
1440,790.1465454101562,790.952392578125,796.5933837890625,795.7875366210938
1441,796.1904907226562,789.3406372070312,794.5787353515625,790.1465454101562
1442,792.5640869140625,787.7289428710938,787.7289428710938,788.937744140625
1443,786.923095703125,784.5054931640625,788.5347900390625,792.1611938476562
1444,789.7435913085938,785.3113403320312,789.3406372070312,788.1318969726562
1445,799.8168334960938,789.7435913085938,791.3552856445312,793.3699340820312
1446,801.4285888671875,782.087890625,792.1611938476562,801.4285888671875
1447,791.3552856445312,781.2820434570312,790.5494384765625,791.7582397460938
1448,790.1465454101562,789.3406372070312,796.5933837890625,786.923095703125
1449,794.1758422851562,791.3552856445312,794.5787353515625,792.1611938476562
1450,791.3552856445312,786.5201416015625,791.3552856445312,788.937744140625
1451,794.981689453125,786.5201416015625,795.3846435546875,788.1318969726562
1452,797.8021850585938,794.5787353515625,795.3846435546875,790.5494384765625
1453,797.8021850585938,796.1904907226562,796.1904907226562,790.5494384765625
1454,793.3699340820312,792.967041015625,790.952392578125,784.908447265625
1455,793.7728881835938,795.7875366210938,790.5494384765625,786.5201416015625
1456,798.2051391601562,798.6080322265625,795.7875366210938,793.7728881835938
1457,795.3846435546875,789.3406372070312,794.5787353515625,802.2344360351562
1458,794.981689453125,789.7435913085938,789.7435913085938,804.2490844726562
1459,794.981689453125,792.1611938476562,792.1611938476562,793.7728881835938
1460,796.996337890625,794.1758422851562,795.3846435546875,792.1611938476562
1461,794.981689453125,799.010986328125,792.1611938476562,790.952392578125
1462,795.7875366210938,798.6080322265625,794.1758422851562,788.5347900390625
1463,800.6226806640625,790.1465454101562,799.010986328125,789.7435913085938
1464,803.040283203125,788.937744140625,800.6226806640625,788.937744140625
1465,801.025634765625,796.1904907226562,798.2051391601562,791.7582397460938
1466,799.8168334960938,798.6080322265625,796.996337890625,794.1758422851562
1467,802.6373901367188,797.8021850585938,799.010986328125,799.010986328125
1468,800.6226806640625,793.3699340820312,795.7875366210938,801.8314819335938
1469,797.8021850585938,792.5640869140625,790.952392578125,807.069580078125
1470,793.7728881835938,801.025634765625,795.3846435546875,803.4432373046875
1471,796.5933837890625,800.2197875976562,798.6080322265625,793.7728881835938
1472,797.8021850585938,790.5494384765625,799.8168334960938,796.1904907226562
1473,794.1758422851562,790.5494384765625,798.2051391601562,795.7875366210938
1474,796.1904907226562,791.3552856445312,794.1758422851562,793.7728881835938
1475,799.8168334960938,790.5494384765625,795.3846435546875,800.6226806640625
1476,804.2490844726562,800.6226806640625,794.1758422851562,805.054931640625
1477,807.87548828125,805.4578857421875,796.5933837890625,801.8314819335938
1478,805.8607788085938,803.8461303710938,799.8168334960938,799.010986328125
1479,805.4578857421875,807.069580078125,796.996337890625,802.2344360351562
1480,803.8461303710938,803.040283203125,798.2051391601562,810.2930297851562
1481,799.010986328125,798.6080322265625,800.2197875976562,807.87548828125
1482,801.025634765625,801.025634765625,797.8021850585938,802.6373901367188
1483,796.5933837890625,795.7875366210938,795.3846435546875,794.981689453125
1484,790.952392578125,784.5054931640625,791.7582397460938,786.1171875
1485,794.1758422851562,788.5347900390625,789.3406372070312,786.5201416015625
1486,800.6226806640625,797.8021850585938,794.1758422851562,783.6996459960938
1487,797.3992919921875,792.1611938476562,794.1758422851562,783.2966918945312
1488,792.1611938476562,791.3552856445312,792.967041015625,786.1171875
1489,788.937744140625,790.952392578125,793.3699340820312,788.1318969726562
1490,785.3113403320312,788.1318969726562,788.937744140625,786.1171875
1491,780.4761962890625,787.3259887695312,784.908447265625,782.4908447265625
1492,783.2966918945312,784.1025390625,785.3113403320312,785.3113403320312
1493,786.5201416015625,783.2966918945312,785.3113403320312,782.4908447265625
1494,790.1465454101562,783.6996459960938,787.7289428710938,778.4615478515625
1495,793.3699340820312,782.893798828125,786.923095703125,785.3113403320312
1496,795.7875366210938,786.1171875,781.6849975585938,799.010986328125
1497,796.1904907226562,786.923095703125,787.7289428710938,794.981689453125
1498,796.5933837890625,785.3113403320312,791.3552856445312,788.937744140625
1499,799.010986328125,788.1318969726562,791.7582397460938,793.3699340820312
1500,793.7728881835938,793.7728881835938,793.3699340820312,792.1611938476562
1501,789.7435913085938,798.6080322265625,792.1611938476562,789.7435913085938
1502,794.1758422851562,792.1611938476562,790.5494384765625,789.3406372070312
1503,791.3552856445312,785.7142944335938,791.3552856445312,791.7582397460938
1504,792.1611938476562,790.5494384765625,794.981689453125,790.5494384765625
1505,797.8021850585938,791.3552856445312,794.5787353515625,787.7289428710938
1506,795.7875366210938,788.5347900390625,792.5640869140625,789.3406372070312
1507,793.3699340820312,790.952392578125,794.981689453125,792.967041015625
1508,791.7582397460938,794.981689453125,795.7875366210938,791.3552856445312
1509,787.7289428710938,789.3406372070312,792.967041015625,785.7142944335938
1510,782.087890625,782.4908447265625,790.952392578125,782.4908447265625
1511,786.923095703125,788.1318969726562,793.3699340820312,788.1318969726562
1512,790.952392578125,789.3406372070312,792.1611938476562,788.937744140625
1513,788.5347900390625,791.7582397460938,790.5494384765625,790.1465454101562
1514,788.5347900390625,791.7582397460938,792.1611938476562,793.7728881835938
1515,784.908447265625,789.7435913085938,790.952392578125,788.5347900390625
1516,788.5347900390625,785.3113403320312,788.5347900390625,789.3406372070312
1517,793.7728881835938,787.3259887695312,785.3113403320312,794.5787353515625
1518,788.5347900390625,795.7875366210938,786.5201416015625,799.4139404296875
1519,791.3552856445312,795.3846435546875,790.1465454101562,805.4578857421875
1520,795.3846435546875,799.010986328125,796.1904907226562,806.2637329101562
1521,796.5933837890625,798.6080322265625,796.1904907226562,799.4139404296875
1522,803.040283203125,798.2051391601562,794.981689453125,799.8168334960938
1523,800.2197875976562,792.5640869140625,793.7728881835938,799.010986328125
1524,798.2051391601562,792.1611938476562,793.3699340820312,795.3846435546875
1525,798.2051391601562,796.996337890625,796.5933837890625,792.967041015625
1526,798.6080322265625,796.5933837890625,794.1758422851562,793.7728881835938
1527,799.010986328125,792.967041015625,791.7582397460938,790.1465454101562
1528,794.981689453125,790.952392578125,790.1465454101562,780.4761962890625
1529,790.1465454101562,791.7582397460938,792.5640869140625,785.3113403320312
1530,794.5787353515625,790.1465454101562,796.5933837890625,800.2197875976562
1531,796.1904907226562,791.3552856445312,798.2051391601562,799.4139404296875
1532,792.1611938476562,795.7875366210938,798.2051391601562,792.5640869140625
1533,794.1758422851562,794.1758422851562,791.7582397460938,791.7582397460938
1534,795.3846435546875,792.967041015625,790.952392578125,792.5640869140625
1535,792.5640869140625,796.1904907226562,796.1904907226562,799.4139404296875
1536,786.1171875,788.5347900390625,799.4139404296875,799.010986328125
1537,784.5054931640625,790.952392578125,797.3992919921875,794.1758422851562
1538,790.1465454101562,797.8021850585938,794.1758422851562,790.1465454101562
1539,786.5201416015625,790.5494384765625,801.4285888671875,791.3552856445312
1540,780.0732421875,785.3113403320312,800.6226806640625,794.981689453125
1541,788.5347900390625,788.937744140625,800.2197875976562,794.5787353515625
1542,795.7875366210938,788.937744140625,801.025634765625,799.010986328125
1543,791.3552856445312,791.7582397460938,797.3992919921875,795.7875366210938
1544,788.1318969726562,794.981689453125,796.996337890625,788.1318969726562
1545,791.7582397460938,792.5640869140625,796.996337890625,790.952392578125
1546,799.010986328125,789.7435913085938,799.010986328125,797.8021850585938
1547,794.5787353515625,782.4908447265625,797.8021850585938,795.3846435546875
1548,793.7728881835938,783.2966918945312,796.996337890625,789.7435913085938
1549,794.5787353515625,791.3552856445312,798.6080322265625,786.923095703125
1550,792.1611938476562,793.3699340820312,797.3992919921875,786.5201416015625
1551,791.7582397460938,796.1904907226562,792.967041015625,787.7289428710938
1552,792.5640869140625,793.7728881835938,793.7728881835938,788.1318969726562
1553,795.7875366210938,787.3259887695312,795.3846435546875,793.3699340820312
1554,792.1611938476562,788.5347900390625,793.7728881835938,794.1758422851562
1555,787.3259887695312,791.7582397460938,794.981689453125,785.7142944335938
1556,792.1611938476562,793.3699340820312,799.010986328125,790.5494384765625
1557,797.3992919921875,794.981689453125,801.4285888671875,800.6226806640625
1558,794.1758422851562,796.5933837890625,794.981689453125,797.8021850585938
1559,794.1758422851562,795.3846435546875,792.1611938476562,797.3992919921875
1560,792.967041015625,791.7582397460938,797.8021850585938,795.7875366210938
1561,791.7582397460938,796.1904907226562,794.1758422851562,794.5787353515625
1562,794.1758422851562,797.8021850585938,794.1758422851562,792.967041015625
1563,794.5787353515625,789.7435913085938,796.5933837890625,787.7289428710938
1564,796.996337890625,788.937744140625,795.7875366210938,790.1465454101562
1565,794.1758422851562,792.5640869140625,792.5640869140625,788.1318969726562
1566,787.7289428710938,789.3406372070312,794.981689453125,786.1171875
1567,788.1318969726562,790.5494384765625,795.7875366210938,784.1025390625
1568,794.5787353515625,791.3552856445312,794.1758422851562,787.7289428710938
1569,799.010986328125,793.7728881835938,796.5933837890625,797.8021850585938
1570,800.2197875976562,795.7875366210938,790.5494384765625,789.3406372070312
1571,801.025634765625,793.7728881835938,788.937744140625,790.1465454101562
1572,797.8021850585938,790.1465454101562,791.3552856445312,797.3992919921875
1573,796.996337890625,797.8021850585938,792.5640869140625,793.3699340820312
1574,799.8168334960938,796.996337890625,798.6080322265625,794.1758422851562
1575,801.8314819335938,787.3259887695312,799.8168334960938,795.3846435546875
1576,803.4432373046875,790.5494384765625,794.1758422851562,796.5933837890625
1577,798.6080322265625,794.1758422851562,794.1758422851562,799.8168334960938
1578,793.3699340820312,792.967041015625,798.6080322265625,796.1904907226562
