timestamp,RAW_TP9,RAW_AF7,RAW_AF8,RAW_TP10
1,788.5347900390625,790.5494384765625,789.7435913085938,790.5494384765625
2,782.893798828125,786.923095703125,786.923095703125,792.967041015625
3,789.3406372070312,784.908447265625,792.967041015625,799.010986328125
4,791.3552856445312,786.1171875,795.3846435546875,802.6373901367188
5,794.981689453125,784.5054931640625,794.1758422851562,799.4139404296875
6,795.7875366210938,781.6849975585938,792.1611938476562,795.7875366210938
7,801.8314819335938,784.908447265625,793.7728881835938,792.5640869140625
8,815.5311279296875,780.879150390625,794.5787353515625,790.952392578125
9,802.6373901367188,775.2380981445312,794.1758422851562,788.1318969726562
10,787.3259887695312,778.8644409179688,797.3992919921875,788.1318969726562
11,784.908447265625,783.6996459960938,793.7728881835938,787.3259887695312
12,778.4615478515625,783.2966918945312,791.3552856445312,785.3113403320312
13,778.05859375,783.6996459960938,792.967041015625,785.3113403320312
14,788.1318969726562,786.923095703125,792.1611938476562,783.6996459960938
15,788.937744140625,786.1171875,794.5787353515625,784.908447265625
16,772.4176025390625,783.2966918945312,795.7875366210938,786.1171875
17,770.4029541015625,786.923095703125,794.981689453125,784.5054931640625
18,778.05859375,784.5054931640625,795.7875366210938,784.5054931640625
19,786.1171875,782.4908447265625,793.3699340820312,785.3113403320312
20,798.6080322265625,786.5201416015625,791.7582397460938,783.2966918945312
21,804.6520385742188,783.2966918945312,796.5933837890625,780.879150390625
22,794.981689453125,780.4761962890625,800.2197875976562,780.879150390625
23,779.6703491210938,783.6996459960938,797.8021850585938,779.6703491210938
24,780.879150390625,787.7289428710938,798.2051391601562,791.7582397460938
25,793.7728881835938,786.923095703125,800.2197875976562,800.6226806640625
26,787.7289428710938,783.6996459960938,796.1904907226562,797.3992919921875
27,780.4761962890625,786.1171875,794.1758422851562,794.5787353515625
28,784.5054931640625,790.1465454101562,794.981689453125,790.1465454101562
29,796.5933837890625,790.5494384765625,790.1465454101562,796.996337890625
30,790.952392578125,792.1611938476562,789.7435913085938,806.6666870117188
31,782.893798828125,794.1758422851562,792.967041015625,796.996337890625
32,793.7728881835938,794.1758422851562,792.5640869140625,790.5494384765625
33,788.937744140625,793.7728881835938,791.3552856445312,795.3846435546875
34,784.908447265625,791.7582397460938,789.7435913085938,790.952392578125
35,799.4139404296875,791.7582397460938,791.3552856445312,784.1025390625
36,802.6373901367188,790.952392578125,793.3699340820312,783.2966918945312
37,783.2966918945312,789.7435913085938,794.5787353515625,780.879150390625
38,776.0439453125,789.3406372070312,791.3552856445312,775.2380981445312
39,770.8058471679688,791.7582397460938,792.967041015625,777.2527465820312
40,765.970703125,795.7875366210938,798.6080322265625,784.5054931640625
41,782.4908447265625,799.010986328125,792.967041015625,785.3113403320312
42,799.4139404296875,801.4285888671875,789.7435913085938,778.8644409179688
43,794.5787353515625,798.6080322265625,792.967041015625,779.6703491210938
44,802.6373901367188,796.996337890625,792.5640869140625,785.7142944335938
45,810.6959838867188,796.1904907226562,794.981689453125,793.3699340820312
46,773.2234497070312,792.967041015625,797.8021850585938,796.1904907226562
47,758.7179565429688,789.7435913085938,796.5933837890625,788.937744140625
48,772.0146484375,794.1758422851562,801.025634765625,788.1318969726562
49,789.3406372070312,801.025634765625,803.040283203125,792.967041015625
50,805.054931640625,798.2051391601562,801.4285888671875,794.5787353515625
51,797.8021850585938,799.010986328125,804.2490844726562,793.3699340820312
52,791.3552856445312,802.6373901367188,803.4432373046875,792.5640869140625
53,785.7142944335938,798.6080322265625,802.2344360351562,789.7435913085938
54,778.8644409179688,790.952392578125,799.010986328125,784.1025390625
55,781.6849975585938,786.923095703125,797.3992919921875,785.3113403320312
56,778.05859375,787.7289428710938,800.6226806640625,783.6996459960938
57,777.2527465820312,788.937744140625,795.7875366210938,780.879150390625
58,787.3259887695312,792.5640869140625,794.1758422851562,777.2527465820312
59,786.5201416015625,793.3699340820312,795.7875366210938,770.4029541015625
60,796.1904907226562,791.3552856445312,794.981689453125,768.7911987304688
61,794.5787353515625,787.7289428710938,794.5787353515625,767.1795043945312
62,777.6557006835938,792.1611938476562,794.1758422851562,771.6116943359375
63,775.6410522460938,795.3846435546875,794.1758422851562,772.0146484375
64,774.4322509765625,792.967041015625,795.7875366210938,783.2966918945312
65,777.6557006835938,795.7875366210938,796.996337890625,795.7875366210938
66,778.8644409179688,793.3699340820312,798.6080322265625,790.1465454101562
67,786.923095703125,784.908447265625,796.5933837890625,784.908447265625
68,798.2051391601562,790.1465454101562,793.7728881835938,782.893798828125
69,794.981689453125,796.5933837890625,796.1904907226562,783.6996459960938
70,784.908447265625,797.3992919921875,803.8461303710938,791.7582397460938
71,773.2234497070312,797.8021850585938,809.084228515625,802.6373901367188
72,763.9560546875,790.1465454101562,807.4725341796875,798.6080322265625
73,764.3589477539062,784.908447265625,809.084228515625,791.3552856445312
74,770.8058471679688,786.923095703125,804.2490844726562,792.5640869140625
75,784.1025390625,789.7435913085938,799.8168334960938,792.967041015625
76,804.6520385742188,792.967041015625,800.2197875976562,790.952392578125
77,801.8314819335938,792.5640869140625,803.040283203125,792.5640869140625
78,784.1025390625,793.3699340820312,805.4578857421875,790.1465454101562
79,783.2966918945312,792.967041015625,803.040283203125,788.1318969726562
80,791.7582397460938,792.967041015625,806.6666870117188,794.981689453125
81,802.6373901367188,797.8021850585938,806.6666870117188,790.952392578125
82,805.8607788085938,797.8021850585938,801.4285888671875,780.4761962890625
83,815.1282348632812,796.1904907226562,798.6080322265625,774.029296875
84,830.8424682617188,799.010986328125,799.010986328125,773.6264038085938
85,809.4871826171875,795.3846435546875,799.4139404296875,774.4322509765625
86,790.1465454101562,791.3552856445312,795.7875366210938,776.4468994140625
87,785.7142944335938,790.5494384765625,794.5787353515625,779.2673950195312
88,769.5970458984375,791.3552856445312,794.981689453125,775.6410522460938
89,771.6116943359375,788.937744140625,794.1758422851562,769.1941528320312
90,780.4761962890625,786.5201416015625,795.3846435546875,778.05859375
91,772.0146484375,785.7142944335938,796.1904907226562,781.2820434570312
92,770.4029541015625,782.893798828125,794.5787353515625,772.8204956054688
93,774.029296875,787.7289428710938,796.5933837890625,775.6410522460938
94,769.1941528320312,785.7142944335938,800.6226806640625,782.087890625
95,774.4322509765625,779.6703491210938,800.6226806640625,784.5054931640625
96,775.2380981445312,787.7289428710938,794.1758422851562,784.908447265625
97,776.4468994140625,793.7728881835938,792.967041015625,786.1171875
98,778.8644409179688,795.7875366210938,794.1758422851562,780.879150390625
99,778.05859375,797.3992919921875,791.3552856445312,779.6703491210938
100,791.7582397460938,797.3992919921875,793.3699340820312,782.4908447265625
101,791.7582397460938,794.981689453125,791.3552856445312,781.2820434570312
102,785.7142944335938,794.1758422851562,784.5054931640625,779.2673950195312
103,789.7435913085938,793.7728881835938,786.5201416015625,778.4615478515625
104,786.923095703125,795.7875366210938,790.1465454101562,778.4615478515625
105,782.893798828125,788.1318969726562,785.3113403320312,779.6703491210938
106,782.4908447265625,787.3259887695312,787.7289428710938,786.1171875
107,779.2673950195312,792.967041015625,787.3259887695312,782.4908447265625
108,782.087890625,791.3552856445312,785.7142944335938,773.6264038085938
109,790.5494384765625,791.3552856445312,792.5640869140625,783.2966918945312
110,799.010986328125,793.3699340820312,794.5787353515625,790.5494384765625
111,816.3369750976562,797.3992919921875,796.996337890625,788.937744140625
112,813.113525390625,796.1904907226562,798.6080322265625,788.5347900390625
113,777.2527465820312,790.1465454101562,792.1611938476562,788.1318969726562
114,765.970703125,787.3259887695312,794.5787353515625,792.1611938476562
115,771.2088012695312,787.3259887695312,802.2344360351562,798.6080322265625
116,771.2088012695312,788.1318969726562,802.6373901367188,797.3992919921875
117,791.7582397460938,788.1318969726562,803.040283203125,794.1758422851562
118,784.908447265625,786.5201416015625,802.2344360351562,797.8021850585938
119,760.7326049804688,787.3259887695312,801.8314819335938,795.7875366210938
120,766.7765502929688,786.923095703125,802.2344360351562,794.5787353515625
121,777.6557006835938,783.6996459960938,802.2344360351562,793.3699340820312
122,785.7142944335938,784.5054931640625,801.025634765625,785.7142944335938
123,790.1465454101562,786.923095703125,799.4139404296875,780.879150390625
124,796.5933837890625,786.923095703125,799.010986328125,782.087890625
125,801.025634765625,790.5494384765625,802.2344360351562,787.7289428710938
126,793.3699340820312,790.952392578125,804.6520385742188,788.1318969726562
127,781.2820434570312,786.923095703125,801.8314819335938,797.3992919921875
128,778.05859375,785.3113403320312,797.3992919921875,792.1611938476562
129,775.6410522460938,786.5201416015625,796.996337890625,786.1171875
130,782.4908447265625,791.7582397460938,796.996337890625,793.3699340820312
131,787.3259887695312,793.7728881835938,795.3846435546875,786.1171875
132,774.029296875,789.7435913085938,795.3846435546875,780.4761962890625
133,778.05859375,788.1318969726562,791.3552856445312,777.2527465820312
134,792.1611938476562,789.3406372070312,792.1611938476562,776.8497924804688
135,795.3846435546875,792.1611938476562,792.5640869140625,776.4468994140625
136,802.2344360351562,789.3406372070312,798.2051391601562,786.923095703125
137,808.6813354492188,789.3406372070312,799.010986328125,791.3552856445312
138,792.1611938476562,790.952392578125,796.1904907226562,788.5347900390625
139,772.4176025390625,786.923095703125,793.7728881835938,789.3406372070312
140,765.5677490234375,787.3259887695312,792.5640869140625,784.908447265625
141,781.2820434570312,788.937744140625,795.7875366210938,790.5494384765625
142,787.7289428710938,790.1465454101562,791.7582397460938,786.923095703125
143,771.2088012695312,784.908447265625,787.3259887695312,779.2673950195312
144,769.1941528320312,782.087890625,786.1171875,780.0732421875
145,770.4029541015625,788.1318969726562,792.1611938476562,778.4615478515625
146,774.8351440429688,793.7728881835938,798.6080322265625,783.2966918945312
147,771.2088012695312,791.7582397460938,799.010986328125,787.3259887695312
148,767.1795043945312,792.1611938476562,802.6373901367188,784.5054931640625
149,772.0146484375,792.1611938476562,802.2344360351562,784.908447265625
150,778.05859375,791.7582397460938,798.2051391601562,787.3259887695312
151,784.5054931640625,788.1318969726562,794.5787353515625,787.7289428710938
152,788.937744140625,788.5347900390625,797.3992919921875,796.5933837890625
153,807.4725341796875,795.3846435546875,799.010986328125,801.025634765625
154,807.4725341796875,790.952392578125,795.7875366210938,795.7875366210938
155,786.923095703125,788.1318969726562,799.8168334960938,792.967041015625
156,788.5347900390625,789.3406372070312,802.6373901367188,790.5494384765625
157,792.967041015625,782.4908447265625,801.4285888671875,790.5494384765625
158,793.3699340820312,784.1025390625,800.2197875976562,792.5640869140625
159,792.967041015625,792.5640869140625,799.010986328125,788.5347900390625
160,792.967041015625,796.996337890625,796.996337890625,784.908447265625
161,794.1758422851562,795.7875366210938,797.8021850585938,791.3552856445312
162,787.3259887695312,794.5787353515625,796.1904907226562,791.7582397460938
163,792.1611938476562,791.7582397460938,792.1611938476562,790.5494384765625
164,786.5201416015625,786.923095703125,787.7289428710938,793.3699340820312
165,775.6410522460938,790.5494384765625,786.923095703125,788.5347900390625
166,789.7435913085938,793.3699340820312,794.5787353515625,786.923095703125
167,801.025634765625,791.7582397460938,794.981689453125,786.5201416015625
168,812.7106323242188,791.7582397460938,794.1758422851562,784.908447265625
169,794.5787353515625,795.3846435546875,796.1904907226562,782.4908447265625
170,760.3296508789062,794.5787353515625,790.5494384765625,777.2527465820312
171,763.1502075195312,789.7435913085938,789.3406372070312,776.8497924804688
172,776.0439453125,793.3699340820312,791.7582397460938,773.6264038085938
173,792.967041015625,792.5640869140625,790.952392578125,776.4468994140625
174,800.6226806640625,786.5201416015625,789.3406372070312,778.8644409179688
175,793.3699340820312,786.5201416015625,789.3406372070312,778.8644409179688
176,787.7289428710938,786.1171875,792.1611938476562,788.5347900390625
177,783.6996459960938,784.1025390625,792.5640869140625,787.3259887695312
178,778.05859375,783.6996459960938,789.7435913085938,784.5054931640625
179,780.0732421875,780.879150390625,789.3406372070312,786.1171875
180,790.952392578125,786.1171875,790.952392578125,786.1171875
181,786.1171875,787.7289428710938,793.7728881835938,786.1171875
182,782.893798828125,784.908447265625,793.7728881835938,792.5640869140625
183,801.4285888671875,786.923095703125,791.7582397460938,798.6080322265625
184,792.1611938476562,788.5347900390625,796.1904907226562,798.6080322265625
185,770.4029541015625,788.937744140625,800.6226806640625,794.5787353515625
186,765.970703125,788.5347900390625,799.010986328125,790.5494384765625
187,770.4029541015625,788.5347900390625,797.3992919921875,797.3992919921875
188,780.0732421875,796.5933837890625,800.6226806640625,799.010986328125
189,782.893798828125,796.996337890625,794.1758422851562,793.3699340820312
190,787.3259887695312,792.1611938476562,788.937744140625,797.8021850585938
191,790.1465454101562,793.3699340820312,792.967041015625,795.3846435546875
192,786.1171875,794.981689453125,790.5494384765625,786.5201416015625
193,790.1465454101562,795.7875366210938,793.7728881835938,789.3406372070312
194,799.4139404296875,793.3699340820312,796.5933837890625,792.967041015625
195,800.6226806640625,799.010986328125,795.3846435546875,792.5640869140625
196,805.8607788085938,798.6080322265625,795.7875366210938,790.952392578125
197,810.2930297851562,793.7728881835938,795.3846435546875,793.3699340820312
198,809.4871826171875,798.6080322265625,794.5787353515625,805.054931640625
199,804.6520385742188,798.2051391601562,799.8168334960938,810.2930297851562
200,812.7106323242188,801.025634765625,801.4285888671875,811.90478515625
201,812.3076782226562,800.2197875976562,796.1904907226562,806.2637329101562
202,802.2344360351562,794.1758422851562,796.5933837890625,803.4432373046875
203,805.054931640625,794.981689453125,796.996337890625,809.89013671875
204,795.7875366210938,801.8314819335938,797.8021850585938,804.6520385742188
205,790.5494384765625,803.4432373046875,799.8168334960938,798.2051391601562
206,791.7582397460938,800.2197875976562,798.2051391601562,794.1758422851562
207,794.981689453125,797.8021850585938,796.1904907226562,793.7728881835938
208,807.4725341796875,801.025634765625,791.7582397460938,794.5787353515625
209,807.4725341796875,802.2344360351562,786.5201416015625,790.5494384765625
210,794.1758422851562,801.025634765625,788.1318969726562,790.5494384765625
211,787.3259887695312,798.6080322265625,793.7728881835938,786.5201416015625
212,784.5054931640625,796.5933837890625,794.981689453125,782.087890625
213,777.6557006835938,795.3846435546875,791.3552856445312,782.087890625
214,774.4322509765625,796.1904907226562,792.967041015625,787.7289428710938
215,779.2673950195312,796.996337890625,793.7728881835938,786.1171875
216,778.8644409179688,790.1465454101562,793.7728881835938,775.2380981445312
217,795.3846435546875,791.3552856445312,796.5933837890625,775.6410522460938
218,799.8168334960938,802.6373901367188,802.2344360351562,782.4908447265625
219,778.8644409179688,804.2490844726562,800.6226806640625,785.3113403320312
220,776.8497924804688,801.025634765625,797.8021850585938,790.5494384765625
221,787.3259887695312,796.5933837890625,796.996337890625,789.7435913085938
222,802.6373901367188,794.981689453125,796.996337890625,784.1025390625
223,799.8168334960938,795.3846435546875,798.6080322265625,792.967041015625
224,803.040283203125,795.3846435546875,797.8021850585938,799.4139404296875
225,803.4432373046875,796.996337890625,793.3699340820312,796.1904907226562
226,784.5054931640625,794.5787353515625,791.3552856445312,794.981689453125
227,787.3259887695312,790.1465454101562,795.7875366210938,785.3113403320312
228,787.7289428710938,788.5347900390625,799.8168334960938,784.5054931640625
229,790.952392578125,790.952392578125,799.4139404296875,789.3406372070312
230,800.2197875976562,794.1758422851562,794.1758422851562,786.5201416015625
231,790.952392578125,788.5347900390625,793.3699340820312,780.879150390625
232,788.937744140625,782.893798828125,792.967041015625,779.6703491210938
233,784.908447265625,786.1171875,792.5640869140625,788.5347900390625
234,785.7142944335938,790.952392578125,793.3699340820312,786.923095703125
235,790.952392578125,792.1611938476562,796.5933837890625,779.2673950195312
236,783.6996459960938,791.3552856445312,796.996337890625,779.2673950195312
237,783.2966918945312,793.7728881835938,796.1904907226562,780.4761962890625
238,788.937744140625,792.1611938476562,794.1758422851562,778.05859375
239,791.3552856445312,788.937744140625,791.7582397460938,775.2380981445312
240,787.7289428710938,788.5347900390625,792.5640869140625,784.1025390625
241,788.937744140625,793.3699340820312,790.952392578125,791.3552856445312
242,788.5347900390625,796.1904907226562,788.937744140625,782.4908447265625
243,788.5347900390625,793.3699340820312,788.937744140625,781.2820434570312
244,793.3699340820312,786.1171875,789.3406372070312,783.6996459960938
245,794.981689453125,783.6996459960938,793.3699340820312,781.2820434570312
246,790.5494384765625,790.1465454101562,792.5640869140625,785.3113403320312
247,780.4761962890625,785.7142944335938,792.967041015625,783.6996459960938
248,783.2966918945312,782.4908447265625,794.1758422851562,788.5347900390625
249,793.7728881835938,786.5201416015625,789.3406372070312,793.3699340820312
250,792.967041015625,787.3259887695312,792.5640869140625,787.7289428710938
251,803.040283203125,783.6996459960938,793.7728881835938,782.087890625
252,804.6520385742188,778.8644409179688,787.7289428710938,776.0439453125
253,778.8644409179688,781.2820434570312,788.5347900390625,781.2820434570312
254,778.8644409179688,788.5347900390625,794.981689453125,784.1025390625
255,790.952392578125,789.3406372070312,795.3846435546875,784.908447265625
256,790.1465454101562,783.2966918945312,792.5640869140625,789.7435913085938
257,792.5640869140625,788.5347900390625,795.3846435546875,789.7435913085938
258,794.5787353515625,796.1904907226562,798.6080322265625,790.1465454101562
259,790.5494384765625,791.7582397460938,798.6080322265625,796.1904907226562
260,790.1465454101562,790.952392578125,797.8021850585938,803.040283203125
261,786.923095703125,790.1465454101562,796.1904907226562,801.8314819335938
262,788.5347900390625,790.1465454101562,798.6080322265625,794.981689453125
263,790.952392578125,794.1758422851562,799.010986328125,792.5640869140625
264,803.040283203125,792.5640869140625,800.6226806640625,807.4725341796875
265,816.3369750976562,790.1465454101562,804.6520385742188,806.2637329101562
266,806.2637329101562,789.7435913085938,801.8314819335938,793.3699340820312
267,791.7582397460938,791.3552856445312,796.996337890625,792.1611938476562
268,788.5347900390625,792.967041015625,796.1904907226562,789.7435913085938
269,790.5494384765625,787.3259887695312,797.3992919921875,789.7435913085938
270,796.996337890625,788.1318969726562,794.5787353515625,791.7582397460938
271,797.3992919921875,797.3992919921875,792.5640869140625,799.010986328125
272,795.3846435546875,792.967041015625,793.7728881835938,800.6226806640625
273,790.5494384765625,784.5054931640625,792.1611938476562,787.7289428710938
274,794.981689453125,793.3699340820312,791.7582397460938,787.3259887695312
275,795.3846435546875,795.3846435546875,790.5494384765625,785.3113403320312
276,782.893798828125,792.967041015625,789.7435913085938,785.7142944335938
277,781.2820434570312,790.952392578125,790.1465454101562,789.3406372070312
278,778.4615478515625,786.5201416015625,787.3259887695312,782.087890625
279,780.4761962890625,789.7435913085938,789.3406372070312,783.2966918945312
280,793.3699340820312,787.3259887695312,791.3552856445312,786.5201416015625
281,798.6080322265625,781.6849975585938,790.5494384765625,790.952392578125
282,796.1904907226562,785.3113403320312,790.1465454101562,791.3552856445312
283,794.5787353515625,786.5201416015625,791.7582397460938,790.1465454101562
284,792.1611938476562,788.1318969726562,794.1758422851562,794.981689453125
285,790.5494384765625,793.7728881835938,794.1758422851562,796.5933837890625
286,790.1465454101562,792.1611938476562,792.967041015625,796.996337890625
287,792.1611938476562,788.5347900390625,793.7728881835938,792.967041015625
288,790.1465454101562,792.1611938476562,793.7728881835938,791.7582397460938
289,790.952392578125,795.7875366210938,794.981689453125,798.6080322265625
290,799.8168334960938,792.1611938476562,801.025634765625,808.2783813476562
291,802.6373901367188,792.5640869140625,799.010986328125,813.113525390625
292,796.5933837890625,799.4139404296875,794.5787353515625,809.89013671875
293,794.5787353515625,802.6373901367188,797.3992919921875,800.6226806640625
294,794.981689453125,799.010986328125,800.2197875976562,794.1758422851562
295,790.952392578125,794.5787353515625,799.8168334960938,795.7875366210938
296,793.7728881835938,793.7728881835938,798.2051391601562,797.3992919921875
297,796.996337890625,792.5640869140625,796.996337890625,794.981689453125
298,792.1611938476562,790.952392578125,800.6226806640625,802.2344360351562
299,787.7289428710938,792.5640869140625,798.2051391601562,805.054931640625
300,792.967041015625,793.3699340820312,793.3699340820312,790.952392578125
301,805.054931640625,794.981689453125,797.8021850585938,793.3699340820312
302,792.1611938476562,791.7582397460938,798.2051391601562,794.1758422851562
303,777.6557006835938,788.937744140625,797.3992919921875,789.7435913085938
304,782.4908447265625,789.3406372070312,796.1904907226562,796.5933837890625
305,789.3406372070312,788.937744140625,794.5787353515625,794.1758422851562
306,785.7142944335938,784.5054931640625,796.1904907226562,787.3259887695312
307,775.6410522460938,781.2820434570312,799.010986328125,793.7728881835938
308,770.8058471679688,783.6996459960938,796.5933837890625,786.5201416015625
309,774.8351440429688,786.923095703125,794.5787353515625,780.879150390625
310,786.923095703125,790.5494384765625,799.010986328125,794.981689453125
311,790.5494384765625,795.3846435546875,796.1904907226562,793.3699340820312
312,793.3699340820312,793.7728881835938,792.967041015625,786.1171875
313,796.1904907226562,787.3259887695312,795.7875366210938,784.1025390625
314,796.996337890625,792.1611938476562,791.3552856445312,780.4761962890625
315,795.7875366210938,795.7875366210938,790.1465454101562,782.893798828125
316,798.2051391601562,799.4139404296875,791.7582397460938,794.981689453125
317,804.2490844726562,801.025634765625,798.6080322265625,801.4285888671875
318,798.2051391601562,800.2197875976562,797.3992919921875,791.7582397460938
319,794.981689453125,803.4432373046875,789.7435913085938,783.2966918945312
320,794.981689453125,803.8461303710938,795.7875366210938,785.3113403320312
321,787.3259887695312,801.4285888671875,801.4285888671875,786.5201416015625
322,775.2380981445312,802.2344360351562,799.4139404296875,775.2380981445312
323,758.3150024414062,802.2344360351562,788.5347900390625,751.4652099609375
324,749.8534545898438,807.4725341796875,790.5494384765625,749.8534545898438
325,735.3479614257812,815.1282348632812,798.6080322265625,743.003662109375
326,717.2161254882812,818.7545776367188,784.5054931640625,722.8571166992188
327,712.7838745117188,826.8131713867188,779.6703491210938,707.94873046875
328,710.7692260742188,843.3333129882812,790.1465454101562,697.87548828125
329,699.084228515625,850.989013671875,784.5054931640625,685.7875366210938
330,684.981689453125,852.6007080078125,778.05859375,668.4615478515625
331,678.937744140625,862.2710571289062,786.923095703125,662.0146484375
332,665.2380981445312,865.4945068359375,788.5347900390625,645.8974609375
333,653.9560546875,862.2710571289062,790.1465454101562,641.4652099609375
334,646.3003540039062,863.076904296875,797.8021850585938,637.032958984375
335,637.032958984375,858.2417602539062,801.4285888671875,622.5274658203125
336,624.945068359375,856.2271118164062,798.6080322265625,621.7216186523438
337,618.09521484375,858.2417602539062,798.6080322265625,617.6923217773438
338,626.5567626953125,851.3919677734375,806.2637329101562,617.2893676757812
339,619.3040161132812,850.1831665039062,801.8314819335938,614.8717651367188
340,629.7802124023438,855.4212646484375,797.8021850585938,623.7362670898438
341,643.076904296875,844.945068359375,805.054931640625,642.2710571289062
342,624.1392211914062,834.06591796875,807.4725341796875,641.4652099609375
343,619.7069702148438,833.6630249023438,806.6666870117188,639.8534545898438
344,639.047607421875,833.6630249023438,810.6959838867188,658.3883056640625
345,657.9853515625,837.2893676757812,807.4725341796875,674.908447265625
346,669.6703491210938,838.4981689453125,804.2490844726562,674.1025390625
347,669.6703491210938,834.8717651367188,805.4578857421875,672.893798828125
348,675.7142944335938,835.6776733398438,803.040283203125,684.1758422851562
349,703.5164794921875,836.886474609375,804.6520385742188,709.1575317382812
350,716.00732421875,835.2747192382812,805.054931640625,720.8424682617188
351,710.7692260742188,829.2307739257812,801.4285888671875,711.97802734375
352,729.3040161132812,824.7985229492188,798.2051391601562,723.2600708007812
353,740.989013671875,822.3809814453125,799.8168334960938,739.3773193359375
354,742.1978149414062,814.7252807617188,798.2051391601562,743.8095092773438
355,751.062255859375,809.89013671875,794.5787353515625,756.3003540039062
356,760.3296508789062,807.4725341796875,792.1611938476562,774.029296875
357,781.6849975585938,807.4725341796875,791.3552856445312,789.7435913085938
358,794.5787353515625,803.8461303710938,793.7728881835938,792.967041015625
359,788.5347900390625,797.3992919921875,794.5787353515625,791.3552856445312
360,789.7435913085938,791.3552856445312,793.7728881835938,796.1904907226562
361,802.6373901367188,784.908447265625,791.3552856445312,809.4871826171875
362,801.4285888671875,779.6703491210938,786.923095703125,811.90478515625
363,803.040283203125,778.4615478515625,787.3259887695312,820.7692260742188
364,807.069580078125,774.8351440429688,788.937744140625,827.2161254882812
365,804.2490844726562,770.4029541015625,788.5347900390625,825.2014770507812
366,819.96337890625,775.2380981445312,788.5347900390625,836.886474609375
367,837.6923217773438,771.6116943359375,789.7435913085938,850.989013671875
368,838.901123046875,769.1941528320312,788.5347900390625,865.4945068359375
369,846.959716796875,769.5970458984375,789.3406372070312,865.091552734375
370,856.2271118164062,767.1795043945312,790.5494384765625,859.8534545898438
371,857.4359130859375,770.8058471679688,790.1465454101562,867.912109375
372,863.4798583984375,772.0146484375,788.1318969726562,867.106201171875
373,865.091552734375,773.6264038085938,785.3113403320312,864.6886596679688
374,858.2417602539062,772.4176025390625,786.923095703125,871.94140625
375,858.2417602539062,772.4176025390625,790.952392578125,871.94140625
376,857.4359130859375,776.0439453125,794.981689453125,869.5238037109375
377,861.4652099609375,772.8204956054688,791.7582397460938,869.120849609375
378,868.3150024414062,769.1941528320312,788.1318969726562,868.3150024414062
379,867.106201171875,773.6264038085938,785.7142944335938,867.912109375
380,865.4945068359375,771.6116943359375,788.937744140625,863.4798583984375
381,861.4652099609375,766.3735961914062,788.5347900390625,857.032958984375
382,861.062255859375,769.5970458984375,782.4908447265625,856.2271118164062
383,858.2417602539062,770.8058471679688,780.4761962890625,852.1978149414062
384,849.3773193359375,765.5677490234375,782.4908447265625,848.1685180664062
385,841.3186645507812,762.7472534179688,788.1318969726562,846.1538696289062
386,844.1392211914062,767.5823974609375,788.5347900390625,849.3773193359375
387,851.7948608398438,768.3883056640625,782.893798828125,849.7802124023438
388,847.7655639648438,768.7911987304688,782.4908447265625,847.3626098632812
389,849.3773193359375,771.2088012695312,784.1025390625,846.5567626953125
390,845.7509155273438,767.1795043945312,784.5054931640625,847.3626098632812
391,842.5274658203125,761.94140625,786.1171875,851.3919677734375
392,849.3773193359375,765.1648559570312,789.7435913085938,849.7802124023438
393,846.5567626953125,774.4322509765625,789.7435913085938,849.3773193359375
394,841.3186645507812,773.2234497070312,787.7289428710938,856.2271118164062
395,840.915771484375,770.8058471679688,788.1318969726562,854.2124633789062
396,842.930419921875,774.8351440429688,785.7142944335938,845.3479614257812
397,838.4981689453125,773.6264038085938,784.5054931640625,845.7509155273438
398,842.930419921875,773.2234497070312,787.7289428710938,848.5714111328125
399,849.7802124023438,772.0146484375,790.5494384765625,847.7655639648438
400,842.930419921875,774.8351440429688,788.1318969726562,841.3186645507812
401,836.886474609375,781.2820434570312,783.2966918945312,836.886474609375
402,837.6923217773438,778.05859375,785.3113403320312,832.4542236328125
403,836.08056640625,773.2234497070312,788.1318969726562,827.2161254882812
404,838.901123046875,778.4615478515625,786.923095703125,824.3956298828125
405,841.3186645507812,781.6849975585938,785.3113403320312,823.5897216796875
406,821.5750732421875,778.8644409179688,784.908447265625,824.7985229492188
407,808.6813354492188,782.087890625,788.1318969726562,818.3516235351562
408,815.93408203125,780.879150390625,789.3406372070312,814.7252807617188
409,819.96337890625,779.6703491210938,793.7728881835938,812.7106323242188
410,817.1428833007812,787.7289428710938,796.5933837890625,816.3369750976562
411,806.6666870117188,786.923095703125,791.7582397460938,813.113525390625
412,807.4725341796875,778.8644409179688,791.3552856445312,804.6520385742188
413,811.90478515625,774.8351440429688,792.1611938476562,807.069580078125
414,804.6520385742188,769.5970458984375,792.5640869140625,807.87548828125
415,801.4285888671875,776.0439453125,795.7875366210938,809.4871826171875
416,802.2344360351562,778.05859375,799.010986328125,807.87548828125
417,799.8168334960938,770.0,800.2197875976562,814.3223266601562
418,796.5933837890625,775.2380981445312,796.996337890625,817.5457763671875
419,799.010986328125,781.2820434570312,792.967041015625,807.4725341796875
420,806.2637329101562,780.879150390625,792.967041015625,807.87548828125
421,804.2490844726562,780.4761962890625,795.3846435546875,805.8607788085938
422,802.6373901367188,782.087890625,798.2051391601562,806.6666870117188
423,799.010986328125,778.05859375,797.8021850585938,809.4871826171875
424,796.996337890625,772.8204956054688,794.5787353515625,810.6959838867188
425,800.2197875976562,772.0146484375,794.1758422851562,813.91943359375
426,803.040283203125,774.8351440429688,794.1758422851562,810.2930297851562
427,813.113525390625,781.6849975585938,793.7728881835938,808.6813354492188
428,817.94873046875,784.1025390625,790.5494384765625,810.6959838867188
429,814.7252807617188,784.1025390625,787.7289428710938,809.084228515625
430,812.7106323242188,782.893798828125,787.7289428710938,801.4285888671875
431,819.96337890625,780.4761962890625,786.5201416015625,796.5933837890625
432,823.99267578125,784.5054931640625,786.1171875,794.981689453125
433,816.7399291992188,788.5347900390625,787.7289428710938,794.1758422851562
434,808.2783813476562,788.937744140625,786.923095703125,787.3259887695312
435,801.025634765625,790.1465454101562,786.1171875,788.5347900390625
436,795.3846435546875,790.952392578125,788.937744140625,789.3406372070312
437,795.3846435546875,784.908447265625,791.7582397460938,779.6703491210938
438,788.5347900390625,782.087890625,794.981689453125,776.0439453125
439,780.879150390625,787.7289428710938,794.5787353515625,772.8204956054688
440,788.1318969726562,793.7728881835938,794.981689453125,779.6703491210938
441,786.5201416015625,792.5640869140625,799.8168334960938,782.4908447265625
442,784.1025390625,790.952392578125,798.2051391601562,780.4761962890625
443,785.7142944335938,789.3406372070312,797.8021850585938,782.4908447265625
444,797.3992919921875,793.7728881835938,800.6226806640625,788.5347900390625
445,800.2197875976562,795.7875366210938,799.010986328125,795.7875366210938
446,787.7289428710938,786.923095703125,798.6080322265625,790.1465454101562
447,790.5494384765625,784.5054931640625,798.2051391601562,792.967041015625
448,795.7875366210938,787.7289428710938,792.967041015625,793.7728881835938
449,789.7435913085938,788.5347900390625,791.3552856445312,790.5494384765625
450,788.937744140625,789.3406372070312,795.7875366210938,796.5933837890625
451,788.937744140625,786.1171875,799.010986328125,798.6080322265625
452,788.1318969726562,790.1465454101562,801.025634765625,803.4432373046875
453,791.3552856445312,797.8021850585938,803.4432373046875,802.6373901367188
454,797.8021850585938,796.5933837890625,800.6226806640625,799.4139404296875
455,805.8607788085938,794.981689453125,798.6080322265625,802.6373901367188
456,804.6520385742188,793.3699340820312,799.4139404296875,801.8314819335938
457,799.8168334960938,794.1758422851562,797.8021850585938,796.5933837890625
458,799.010986328125,795.7875366210938,798.2051391601562,795.7875366210938
459,804.2490844726562,796.996337890625,797.3992919921875,801.8314819335938
460,806.2637329101562,795.7875366210938,798.6080322265625,807.069580078125
461,799.8168334960938,794.981689453125,801.4285888671875,800.2197875976562
462,797.8021850585938,791.3552856445312,800.2197875976562,783.6996459960938
463,791.7582397460938,788.1318969726562,799.010986328125,788.937744140625
464,782.087890625,791.3552856445312,798.2051391601562,801.4285888671875
465,778.4615478515625,792.1611938476562,796.996337890625,793.3699340820312
466,783.6996459960938,794.981689453125,797.3992919921875,792.5640869140625
467,793.3699340820312,801.4285888671875,803.4432373046875,793.7728881835938
468,795.3846435546875,801.025634765625,806.2637329101562,799.010986328125
469,788.5347900390625,792.5640869140625,800.2197875976562,805.054931640625
470,782.4908447265625,786.5201416015625,794.5787353515625,810.2930297851562
471,777.6557006835938,785.7142944335938,793.7728881835938,810.2930297851562
472,777.6557006835938,786.5201416015625,794.1758422851562,799.010986328125
473,782.4908447265625,787.7289428710938,789.7435913085938,789.3406372070312
474,786.923095703125,785.7142944335938,792.1611938476562,796.5933837890625
475,789.7435913085938,786.923095703125,796.5933837890625,799.4139404296875
476,793.7728881835938,790.5494384765625,796.1904907226562,789.7435913085938
477,794.981689453125,792.5640869140625,796.1904907226562,788.5347900390625
478,792.967041015625,792.967041015625,794.1758422851562,790.952392578125
479,796.996337890625,789.3406372070312,792.5640869140625,794.1758422851562
480,795.7875366210938,794.5787353515625,795.7875366210938,794.5787353515625
481,794.1758422851562,797.8021850585938,795.3846435546875,789.3406372070312
482,801.4285888671875,796.5933837890625,798.2051391601562,789.7435913085938
483,803.040283203125,798.2051391601562,796.5933837890625,792.5640869140625
484,802.6373901367188,795.3846435546875,793.7728881835938,789.7435913085938
485,795.3846435546875,791.3552856445312,797.8021850585938,794.981689453125
486,784.908447265625,792.967041015625,794.5787353515625,799.010986328125
487,786.5201416015625,798.6080322265625,796.996337890625,795.7875366210938
488,788.5347900390625,795.3846435546875,798.6080322265625,790.1465454101562
489,793.3699340820312,792.5640869140625,794.1758422851562,792.1611938476562
490,794.981689453125,790.1465454101562,798.2051391601562,796.5933837890625
491,788.937744140625,789.7435913085938,801.4285888671875,798.6080322265625
492,780.0732421875,790.952392578125,798.6080322265625,796.1904907226562
493,777.6557006835938,791.7582397460938,797.3992919921875,795.3846435546875
494,780.879150390625,798.2051391601562,799.8168334960938,799.010986328125
495,775.6410522460938,797.3992919921875,799.4139404296875,801.8314819335938
496,775.2380981445312,788.937744140625,797.8021850585938,798.2051391601562
497,786.5201416015625,789.3406372070312,799.8168334960938,798.2051391601562
498,795.3846435546875,798.6080322265625,801.025634765625,801.8314819335938
499,795.3846435546875,799.8168334960938,799.010986328125,800.2197875976562
500,796.5933837890625,798.6080322265625,798.6080322265625,798.6080322265625
501,799.8168334960938,798.6080322265625,795.7875366210938,798.2051391601562
502,799.010986328125,796.5933837890625,790.5494384765625,802.6373901367188
503,795.3846435546875,796.1904907226562,795.3846435546875,801.8314819335938
504,796.996337890625,795.7875366210938,795.7875366210938,798.6080322265625
505,803.040283203125,797.8021850585938,792.5640869140625,797.8021850585938
506,811.5018310546875,801.8314819335938,795.7875366210938,801.025634765625
507,808.6813354492188,803.040283203125,790.952392578125,799.010986328125
508,793.7728881835938,798.6080322265625,789.7435913085938,792.1611938476562
509,798.2051391601562,802.2344360351562,791.7582397460938,794.1758422851562
510,807.4725341796875,805.8607788085938,791.7582397460938,797.8021850585938
511,795.3846435546875,801.4285888671875,792.967041015625,796.1904907226562
512,788.5347900390625,802.6373901367188,792.1611938476562,788.937744140625
513,783.6996459960938,799.8168334960938,789.3406372070312,782.4908447265625
514,783.2966918945312,796.1904907226562,788.5347900390625,786.5201416015625
515,784.5054931640625,793.7728881835938,790.1465454101562,789.7435913085938
516,784.5054931640625,790.952392578125,786.923095703125,783.2966918945312
517,788.937744140625,793.3699340820312,785.7142944335938,778.8644409179688
518,784.1025390625,788.937744140625,789.3406372070312,776.4468994140625
519,783.2966918945312,786.5201416015625,791.7582397460938,776.4468994140625
520,786.923095703125,792.1611938476562,790.952392578125,781.6849975585938
521,782.893798828125,792.1611938476562,791.3552856445312,778.8644409179688
522,784.5054931640625,790.5494384765625,792.5640869140625,777.6557006835938
523,778.8644409179688,792.1611938476562,791.3552856445312,777.6557006835938
524,770.8058471679688,789.3406372070312,790.1465454101562,778.05859375
525,782.087890625,786.1171875,792.5640869140625,782.4908447265625
526,790.1465454101562,784.908447265625,797.8021850585938,778.8644409179688
527,784.1025390625,790.1465454101562,795.7875366210938,775.6410522460938
528,779.2673950195312,796.1904907226562,791.7582397460938,783.2966918945312
529,784.1025390625,792.1611938476562,789.3406372070312,784.5054931640625
530,792.5640869140625,789.7435913085938,788.937744140625,780.879150390625
531,794.5787353515625,792.5640869140625,793.7728881835938,786.923095703125
532,796.996337890625,795.3846435546875,792.967041015625,787.7289428710938
533,799.8168334960938,789.7435913085938,790.1465454101562,782.893798828125
534,796.1904907226562,789.7435913085938,793.3699340820312,785.3113403320312
535,797.8021850585938,800.2197875976562,790.1465454101562,791.3552856445312
536,806.6666870117188,799.4139404296875,788.937744140625,801.4285888671875
537,805.054931640625,795.3846435546875,791.7582397460938,802.6373901367188
538,799.8168334960938,800.6226806640625,790.5494384765625,792.5640869140625
539,794.981689453125,799.4139404296875,789.3406372070312,789.7435913085938
540,789.3406372070312,800.2197875976562,789.3406372070312,786.1171875
541,794.981689453125,803.8461303710938,791.7582397460938,788.1318969726562
542,803.4432373046875,799.010986328125,790.5494384765625,788.937744140625
543,795.7875366210938,792.5640869140625,786.1171875,780.879150390625
544,782.893798828125,787.7289428710938,784.908447265625,775.2380981445312
545,786.923095703125,787.7289428710938,791.3552856445312,780.0732421875
546,795.3846435546875,791.7582397460938,796.5933837890625,786.5201416015625
547,796.1904907226562,794.981689453125,795.3846435546875,787.3259887695312
548,782.893798828125,792.1611938476562,792.5640869140625,785.3113403320312
549,768.3883056640625,785.7142944335938,790.1465454101562,780.879150390625
550,773.6264038085938,787.7289428710938,790.1465454101562,776.0439453125
551,788.1318969726562,792.967041015625,789.7435913085938,778.05859375
552,794.5787353515625,795.3846435546875,794.1758422851562,785.3113403320312
553,792.1611938476562,795.7875366210938,794.5787353515625,782.893798828125
554,792.5640869140625,792.5640869140625,794.5787353515625,780.4761962890625
555,794.1758422851562,794.5787353515625,796.5933837890625,786.923095703125
556,794.5787353515625,795.3846435546875,795.3846435546875,793.3699340820312
557,803.040283203125,792.967041015625,801.025634765625,796.996337890625
558,797.3992919921875,795.3846435546875,801.025634765625,794.5787353515625
559,784.5054931640625,795.3846435546875,792.5640869140625,792.967041015625
560,792.5640869140625,794.981689453125,787.7289428710938,793.3699340820312
561,795.3846435546875,799.8168334960938,788.1318969726562,788.5347900390625
562,795.7875366210938,802.2344360351562,790.952392578125,790.5494384765625
563,798.2051391601562,801.4285888671875,787.3259887695312,792.1611938476562
564,794.1758422851562,805.054931640625,786.923095703125,787.7289428710938
565,786.923095703125,804.6520385742188,790.1465454101562,790.5494384765625
566,788.1318969726562,804.2490844726562,793.3699340820312,795.7875366210938
567,790.952392578125,801.4285888671875,790.5494384765625,793.3699340820312
568,788.937744140625,797.3992919921875,787.3259887695312,788.1318969726562
569,784.908447265625,803.040283203125,790.5494384765625,783.2966918945312
570,781.2820434570312,799.8168334960938,791.3552856445312,782.087890625
571,781.6849975585938,791.3552856445312,786.1171875,782.893798828125
572,788.1318969726562,792.5640869140625,785.7142944335938,785.3113403320312
573,785.3113403320312,791.3552856445312,789.3406372070312,787.7289428710938
574,774.029296875,790.1465454101562,788.5347900390625,785.7142944335938
575,772.0146484375,787.7289428710938,786.923095703125,787.3259887695312
576,769.1941528320312,785.3113403320312,789.7435913085938,784.5054931640625
577,773.2234497070312,787.7289428710938,785.3113403320312,778.4615478515625
578,779.6703491210938,785.7142944335938,786.923095703125,780.0732421875
579,778.4615478515625,785.3113403320312,794.1758422851562,784.1025390625
580,780.4761962890625,786.923095703125,790.952392578125,786.923095703125
581,782.893798828125,788.937744140625,793.7728881835938,791.7582397460938
582,788.5347900390625,790.952392578125,796.5933837890625,800.2197875976562
583,782.893798828125,787.3259887695312,792.1611938476562,794.5787353515625
584,772.8204956054688,784.1025390625,792.5640869140625,789.3406372070312
585,777.6557006835938,784.1025390625,798.6080322265625,790.5494384765625
586,785.3113403320312,788.5347900390625,794.5787353515625,786.5201416015625
587,784.908447265625,792.1611938476562,785.7142944335938,785.3113403320312
588,780.4761962890625,791.3552856445312,783.2966918945312,782.087890625
589,787.7289428710938,790.5494384765625,786.5201416015625,780.0732421875
590,798.2051391601562,791.3552856445312,792.1611938476562,786.923095703125
591,795.3846435546875,795.3846435546875,794.981689453125,793.3699340820312
592,797.3992919921875,796.1904907226562,792.5640869140625,794.1758422851562
593,805.054931640625,794.981689453125,789.3406372070312,793.3699340820312
594,796.5933837890625,792.1611938476562,787.3259887695312,791.3552856445312
595,791.3552856445312,784.908447265625,786.5201416015625,783.6996459960938
596,793.3699340820312,789.3406372070312,788.1318969726562,781.6849975585938
597,789.3406372070312,795.3846435546875,794.5787353515625,792.967041015625
598,790.5494384765625,792.5640869140625,796.5933837890625,801.4285888671875
599,786.5201416015625,790.5494384765625,794.981689453125,792.1611938476562
600,782.893798828125,790.5494384765625,800.2197875976562,787.3259887695312
601,784.908447265625,792.5640869140625,798.2051391601562,787.3259887695312
602,784.5054931640625,796.1904907226562,799.8168334960938,789.3406372070312
603,788.1318969726562,799.010986328125,803.040283203125,789.7435913085938
604,787.7289428710938,798.2051391601562,796.996337890625,787.3259887695312
605,786.923095703125,794.5787353515625,793.7728881835938,782.893798828125
606,795.7875366210938,787.3259887695312,794.1758422851562,779.6703491210938
607,802.6373901367188,788.5347900390625,796.5933837890625,785.7142944335938
608,805.8607788085938,797.8021850585938,799.010986328125,789.3406372070312
609,798.2051391601562,798.2051391601562,800.2197875976562,797.8021850585938
610,792.1611938476562,792.5640869140625,803.040283203125,799.8168334960938
611,791.3552856445312,789.7435913085938,799.8168334960938,796.5933837890625
612,784.1025390625,787.7289428710938,799.010986328125,796.996337890625
613,778.4615478515625,790.1465454101562,797.3992919921875,796.996337890625
614,782.087890625,792.967041015625,795.7875366210938,797.3992919921875
615,783.2966918945312,793.3699340820312,798.6080322265625,797.3992919921875
616,787.3259887695312,788.5347900390625,795.7875366210938,797.3992919921875
617,796.996337890625,787.3259887695312,794.1758422851562,805.8607788085938
618,797.8021850585938,794.981689453125,791.7582397460938,809.89013671875
619,797.8021850585938,796.996337890625,788.5347900390625,799.8168334960938
620,794.981689453125,792.967041015625,789.3406372070312,797.3992919921875
621,796.1904907226562,795.3846435546875,790.5494384765625,802.2344360351562
622,794.981689453125,802.6373901367188,790.5494384765625,803.040283203125
623,794.5787353515625,803.8461303710938,790.1465454101562,794.981689453125
624,799.4139404296875,795.7875366210938,790.5494384765625,796.996337890625
625,790.1465454101562,795.3846435546875,788.937744140625,793.7728881835938
626,783.2966918945312,797.8021850585938,790.1465454101562,785.3113403320312
627,786.5201416015625,793.7728881835938,788.1318969726562,788.1318969726562
628,784.1025390625,793.3699340820312,784.1025390625,790.1465454101562
629,782.893798828125,790.952392578125,787.7289428710938,785.7142944335938
630,788.1318969726562,789.3406372070312,792.1611938476562,787.7289428710938
631,790.952392578125,788.937744140625,796.1904907226562,788.937744140625
632,786.5201416015625,789.7435913085938,794.5787353515625,794.981689453125
633,789.7435913085938,793.7728881835938,794.1758422851562,801.4285888671875
634,796.1904907226562,792.967041015625,795.3846435546875,794.981689453125
635,792.1611938476562,786.1171875,789.3406372070312,788.5347900390625
636,786.1171875,788.937744140625,792.5640869140625,788.1318969726562
637,791.3552856445312,797.3992919921875,798.2051391601562,795.3846435546875
638,799.010986328125,798.2051391601562,799.010986328125,790.952392578125
639,801.025634765625,799.010986328125,799.8168334960938,788.1318969726562
640,796.5933837890625,800.6226806640625,797.8021850585938,794.981689453125
641,792.1611938476562,800.2197875976562,795.3846435546875,792.5640869140625
642,793.3699340820312,805.4578857421875,795.3846435546875,781.2820434570312
643,796.5933837890625,805.054931640625,793.7728881835938,776.0439453125
644,799.010986328125,797.8021850585938,789.7435913085938,787.7289428710938
645,797.8021850585938,796.5933837890625,787.7289428710938,790.1465454101562
646,797.8021850585938,801.4285888671875,790.952392578125,782.087890625
647,796.996337890625,796.5933837890625,788.1318969726562,781.6849975585938
648,796.1904907226562,793.3699340820312,786.923095703125,778.8644409179688
649,799.8168334960938,798.6080322265625,794.1758422851562,778.05859375
650,798.2051391601562,794.5787353515625,794.1758422851562,780.879150390625
651,795.7875366210938,790.5494384765625,792.5640869140625,785.3113403320312
652,799.010986328125,793.3699340820312,794.1758422851562,784.908447265625
653,795.3846435546875,791.3552856445312,791.3552856445312,784.1025390625
654,791.7582397460938,784.1025390625,790.1465454101562,788.1318969726562
655,793.7728881835938,791.7582397460938,790.5494384765625,801.4285888671875
656,785.3113403320312,802.6373901367188,790.1465454101562,801.4285888671875
657,778.4615478515625,799.8168334960938,790.5494384765625,786.5201416015625
658,786.923095703125,794.1758422851562,788.5347900390625,787.7289428710938
659,791.3552856445312,796.1904907226562,790.5494384765625,788.5347900390625
660,789.7435913085938,796.996337890625,792.5640869140625,792.5640869140625
661,792.1611938476562,798.2051391601562,791.3552856445312,801.4285888671875
662,799.4139404296875,796.996337890625,792.1611938476562,799.8168334960938
663,799.8168334960938,796.5933837890625,794.5787353515625,801.025634765625
664,801.4285888671875,797.8021850585938,794.5787353515625,801.025634765625
665,800.2197875976562,798.2051391601562,791.3552856445312,797.8021850585938
666,794.981689453125,796.996337890625,791.7582397460938,797.8021850585938
667,798.6080322265625,792.5640869140625,793.3699340820312,798.6080322265625
668,798.2051391601562,791.7582397460938,792.5640869140625,794.1758422851562
669,791.7582397460938,789.3406372070312,786.923095703125,783.2966918945312
670,787.3259887695312,791.3552856445312,789.7435913085938,783.2966918945312
671,791.7582397460938,796.5933837890625,796.5933837890625,786.923095703125
672,786.5201416015625,788.5347900390625,791.7582397460938,786.1171875
673,778.05859375,779.6703491210938,791.3552856445312,788.937744140625
674,780.4761962890625,786.5201416015625,793.7728881835938,796.1904907226562
675,777.6557006835938,793.7728881835938,791.7582397460938,794.5787353515625
676,777.6557006835938,794.5787353515625,795.3846435546875,790.952392578125
677,778.05859375,793.7728881835938,799.4139404296875,792.1611938476562
678,781.6849975585938,791.7582397460938,799.010986328125,791.7582397460938
679,786.5201416015625,791.7582397460938,797.8021850585938,790.5494384765625
680,782.087890625,790.1465454101562,793.7728881835938,790.1465454101562
681,780.0732421875,785.3113403320312,786.5201416015625,788.937744140625
682,785.7142944335938,782.087890625,790.5494384765625,792.1611938476562
683,789.7435913085938,782.893798828125,794.981689453125,794.981689453125
684,797.3992919921875,788.5347900390625,796.996337890625,794.5787353515625
685,797.3992919921875,792.967041015625,797.3992919921875,803.8461303710938
686,790.5494384765625,788.937744140625,792.5640869140625,803.040283203125
687,788.1318969726562,783.6996459960938,792.5640869140625,791.7582397460938
688,788.5347900390625,787.7289428710938,795.3846435546875,791.7582397460938
689,790.5494384765625,788.1318969726562,794.5787353515625,789.7435913085938
690,789.7435913085938,778.8644409179688,794.5787353515625,782.893798828125
691,781.6849975585938,780.879150390625,792.967041015625,785.3113403320312
692,779.6703491210938,788.937744140625,790.952392578125,784.5054931640625
693,784.908447265625,793.7728881835938,790.5494384765625,788.937744140625
694,785.3113403320312,793.3699340820312,791.3552856445312,806.6666870117188
695,784.1025390625,794.981689453125,794.5787353515625,803.8461303710938
696,784.5054931640625,797.3992919921875,794.1758422851562,789.3406372070312
697,791.3552856445312,796.1904907226562,795.3846435546875,788.1318969726562
698,794.5787353515625,797.8021850585938,793.7728881835938,786.923095703125
699,792.967041015625,799.010986328125,791.3552856445312,787.7289428710938
700,796.996337890625,804.2490844726562,794.1758422851562,791.7582397460938
701,797.8021850585938,800.2197875976562,794.5787353515625,788.5347900390625
702,792.5640869140625,790.1465454101562,795.3846435546875,781.6849975585938
703,792.967041015625,792.5640869140625,793.7728881835938,788.5347900390625
704,794.1758422851562,791.3552856445312,788.1318969726562,784.908447265625
705,800.6226806640625,792.1611938476562,790.5494384765625,788.937744140625
706,800.6226806640625,790.952392578125,793.3699340820312,791.7582397460938
707,797.3992919921875,789.3406372070312,792.5640869140625,790.5494384765625
708,794.1758422851562,792.967041015625,793.3699340820312,796.996337890625
709,787.3259887695312,785.3113403320312,790.952392578125,791.3552856445312
710,787.3259887695312,782.087890625,794.1758422851562,791.3552856445312
711,788.937744140625,783.2966918945312,794.981689453125,786.5201416015625
712,783.2966918945312,779.6703491210938,791.3552856445312,779.2673950195312
713,785.3113403320312,780.879150390625,793.3699340820312,785.3113403320312
714,797.3992919921875,783.6996459960938,797.8021850585938,799.010986328125
715,802.2344360351562,788.1318969726562,797.8021850585938,798.2051391601562
716,801.8314819335938,794.1758422851562,795.3846435546875,790.1465454101562
717,795.3846435546875,796.1904907226562,798.2051391601562,795.3846435546875
718,794.1758422851562,800.6226806640625,800.2197875976562,800.2197875976562
719,793.7728881835938,802.6373901367188,800.6226806640625,794.1758422851562
720,792.1611938476562,793.7728881835938,794.1758422851562,786.923095703125
721,794.5787353515625,792.1611938476562,787.3259887695312,786.5201416015625
722,788.5347900390625,792.1611938476562,790.1465454101562,782.4908447265625
723,783.2966918945312,789.7435913085938,796.5933837890625,780.0732421875
724,788.937744140625,787.3259887695312,800.2197875976562,789.7435913085938
725,795.3846435546875,785.3113403320312,800.2197875976562,794.1758422851562
726,787.7289428710938,782.893798828125,794.5787353515625,786.1171875
727,786.1171875,785.7142944335938,791.3552856445312,783.6996459960938
728,793.3699340820312,789.3406372070312,791.3552856445312,792.5640869140625
729,791.3552856445312,786.5201416015625,792.1611938476562,797.3992919921875
730,793.3699340820312,788.937744140625,789.7435913085938,795.3846435546875
731,803.4432373046875,792.967041015625,790.5494384765625,793.7728881835938
732,797.3992919921875,792.5640869140625,792.967041015625,794.1758422851562
733,779.6703491210938,790.5494384765625,790.952392578125,793.7728881835938
734,777.6557006835938,787.7289428710938,790.5494384765625,790.1465454101562
735,785.7142944335938,787.7289428710938,790.952392578125,791.3552856445312
736,785.7142944335938,792.5640869140625,790.952392578125,799.010986328125
737,777.6557006835938,794.1758422851562,789.7435913085938,801.025634765625
738,777.6557006835938,793.7728881835938,790.5494384765625,794.5787353515625
739,788.1318969726562,793.3699340820312,790.5494384765625,800.2197875976562
740,784.1025390625,790.1465454101562,789.7435913085938,805.8607788085938
741,771.2088012695312,784.908447265625,791.3552856445312,793.3699340820312
742,775.2380981445312,790.5494384765625,795.7875366210938,791.7582397460938
743,782.087890625,796.996337890625,794.1758422851562,794.1758422851562
744,782.4908447265625,793.7728881835938,794.1758422851562,794.981689453125
745,779.2673950195312,792.967041015625,799.4139404296875,797.8021850585938
746,781.2820434570312,794.1758422851562,803.040283203125,799.010986328125
747,785.7142944335938,793.3699340820312,803.4432373046875,798.2051391601562
748,787.3259887695312,795.7875366210938,801.4285888671875,794.1758422851562
749,792.967041015625,795.7875366210938,803.8461303710938,793.3699340820312
750,793.3699340820312,794.5787353515625,801.8314819335938,792.967041015625
751,794.981689453125,794.1758422851562,798.6080322265625,796.1904907226562
752,797.3992919921875,797.3992919921875,797.3992919921875,797.3992919921875
753,800.2197875976562,799.4139404296875,796.996337890625,790.952392578125
754,796.5933837890625,798.2051391601562,793.7728881835938,790.952392578125
755,796.1904907226562,798.6080322265625,790.952392578125,792.967041015625
756,803.4432373046875,796.5933837890625,790.1465454101562,790.1465454101562
757,802.2344360351562,793.7728881835938,783.2966918945312,787.7289428710938
758,796.1904907226562,792.5640869140625,784.5054931640625,786.923095703125
759,790.5494384765625,792.1611938476562,788.5347900390625,790.1465454101562
760,792.5640869140625,791.3552856445312,788.5347900390625,796.1904907226562
761,792.967041015625,790.952392578125,784.1025390625,793.3699340820312
762,786.5201416015625,787.3259887695312,780.879150390625,789.3406372070312
763,778.05859375,785.7142944335938,784.1025390625,787.7289428710938
764,774.4322509765625,785.7142944335938,783.6996459960938,782.087890625
765,782.4908447265625,786.923095703125,782.4908447265625,774.4322509765625
766,792.5640869140625,788.1318969726562,786.1171875,776.0439453125
767,791.3552856445312,785.7142944335938,787.7289428710938,781.2820434570312
768,780.4761962890625,789.3406372070312,789.3406372070312,781.2820434570312
769,782.4908447265625,794.1758422851562,789.3406372070312,784.1025390625
770,784.1025390625,788.1318969726562,789.7435913085938,785.3113403320312
771,786.1171875,788.1318969726562,798.2051391601562,790.952392578125
772,788.5347900390625,787.3259887695312,797.3992919921875,793.3699340820312
773,785.7142944335938,787.7289428710938,795.3846435546875,786.923095703125
774,793.7728881835938,792.1611938476562,799.010986328125,782.893798828125
775,803.4432373046875,792.1611938476562,796.996337890625,787.7289428710938
776,803.040283203125,792.967041015625,794.5787353515625,793.3699340820312
777,798.6080322265625,789.3406372070312,794.981689453125,792.5640869140625
778,790.952392578125,784.1025390625,794.1758422851562,794.5787353515625
779,795.7875366210938,785.3113403320312,792.967041015625,795.3846435546875
780,807.87548828125,796.5933837890625,794.1758422851562,788.1318969726562
781,806.6666870117188,797.3992919921875,795.7875366210938,785.7142944335938
782,795.3846435546875,794.1758422851562,796.5933837890625,784.1025390625
783,789.3406372070312,792.5640869140625,795.3846435546875,777.2527465820312
784,788.5347900390625,792.967041015625,800.2197875976562,784.5054931640625
785,789.7435913085938,794.981689453125,801.4285888671875,790.1465454101562
786,794.5787353515625,788.937744140625,801.025634765625,784.1025390625
787,791.3552856445312,786.5201416015625,797.3992919921875,782.4908447265625
788,783.2966918945312,789.7435913085938,796.5933837890625,782.087890625
789,786.5201416015625,792.5640869140625,805.054931640625,789.7435913085938
790,792.5640869140625,796.996337890625,800.2197875976562,789.7435913085938
791,790.952392578125,800.6226806640625,797.3992919921875,787.7289428710938
792,794.981689453125,799.010986328125,801.025634765625,792.967041015625
793,789.7435913085938,794.5787353515625,799.010986328125,797.8021850585938
794,781.6849975585938,794.981689453125,796.996337890625,799.4139404296875
795,790.1465454101562,793.7728881835938,795.7875366210938,795.7875366210938
796,788.937744140625,794.1758422851562,797.3992919921875,794.5787353515625
797,782.4908447265625,792.1611938476562,796.996337890625,797.3992919921875
798,790.1465454101562,784.908447265625,796.996337890625,800.2197875976562
799,794.5787353515625,788.1318969726562,796.996337890625,798.2051391601562
800,791.7582397460938,792.967041015625,799.8168334960938,795.3846435546875
801,796.5933837890625,791.3552856445312,800.6226806640625,801.025634765625
802,805.4578857421875,792.1611938476562,797.8021850585938,804.6520385742188
803,805.054931640625,792.5640869140625,796.1904907226562,793.7728881835938
804,803.4432373046875,790.5494384765625,790.952392578125,788.1318969726562
805,794.5787353515625,791.3552856445312,790.5494384765625,791.7582397460938
806,788.5347900390625,794.5787353515625,790.5494384765625,788.1318969726562
807,796.1904907226562,798.6080322265625,791.7582397460938,788.937744140625
808,792.967041015625,796.5933837890625,790.1465454101562,789.3406372070312
809,781.6849975585938,795.3846435546875,788.937744140625,786.923095703125
810,782.4908447265625,792.5640869140625,794.981689453125,785.7142944335938
811,786.1171875,796.1904907226562,797.3992919921875,782.893798828125
812,789.7435913085938,803.040283203125,798.2051391601562,784.1025390625
813,787.7289428710938,799.8168334960938,796.1904907226562,790.1465454101562
814,782.087890625,794.5787353515625,798.2051391601562,787.7289428710938
815,784.1025390625,793.7728881835938,798.2051391601562,793.3699340820312
816,781.6849975585938,792.5640869140625,792.967041015625,795.3846435546875
817,777.2527465820312,785.7142944335938,795.7875366210938,785.3113403320312
818,782.4908447265625,788.937744140625,799.8168334960938,791.7582397460938
819,792.5640869140625,790.952392578125,799.4139404296875,796.996337890625
820,791.7582397460938,794.981689453125,795.3846435546875,792.5640869140625
821,780.4761962890625,799.010986328125,790.5494384765625,789.7435913085938
822,780.0732421875,790.5494384765625,786.5201416015625,790.1465454101562
823,786.923095703125,786.923095703125,787.3259887695312,784.5054931640625
824,787.3259887695312,786.5201416015625,793.7728881835938,786.5201416015625
825,788.937744140625,790.1465454101562,798.6080322265625,793.3699340820312
826,791.7582397460938,790.952392578125,793.3699340820312,780.4761962890625
827,807.069580078125,787.3259887695312,789.3406372070312,781.2820434570312
828,806.2637329101562,786.5201416015625,789.3406372070312,786.1171875
829,796.5933837890625,786.923095703125,786.923095703125,782.087890625
830,804.2490844726562,792.5640869140625,788.937744140625,780.879150390625
831,807.069580078125,791.7582397460938,789.3406372070312,783.2966918945312
832,802.6373901367188,787.7289428710938,793.3699340820312,793.7728881835938
833,793.7728881835938,788.1318969726562,798.6080322265625,794.5787353515625
834,786.5201416015625,792.967041015625,796.996337890625,792.5640869140625
835,783.2966918945312,795.7875366210938,797.3992919921875,796.1904907226562
836,788.5347900390625,802.6373901367188,797.8021850585938,799.010986328125
837,783.6996459960938,801.8314819335938,797.3992919921875,797.3992919921875
838,779.2673950195312,792.1611938476562,796.1904907226562,791.7582397460938
839,781.2820434570312,790.1465454101562,795.7875366210938,786.1171875
840,780.4761962890625,791.7582397460938,799.010986328125,783.6996459960938
841,780.879150390625,790.5494384765625,793.7728881835938,787.3259887695312
842,786.923095703125,794.1758422851562,791.3552856445312,792.967041015625
843,794.1758422851562,795.7875366210938,796.5933837890625,799.8168334960938
844,794.981689453125,791.7582397460938,797.8021850585938,805.8607788085938
845,798.2051391601562,794.5787353515625,796.996337890625,799.4139404296875
846,798.2051391601562,796.5933837890625,792.1611938476562,787.7289428710938
847,805.8607788085938,796.1904907226562,793.7728881835938,793.3699340820312
848,812.7106323242188,795.3846435546875,795.3846435546875,801.4285888671875
849,806.6666870117188,797.8021850585938,791.7582397460938,795.7875366210938
850,807.069580078125,797.8021850585938,796.996337890625,798.2051391601562
851,806.2637329101562,798.2051391601562,802.2344360351562,803.8461303710938
852,807.069580078125,800.2197875976562,798.2051391601562,801.025634765625
853,813.5164794921875,800.6226806640625,794.5787353515625,802.2344360351562
854,808.6813354492188,801.8314819335938,797.8021850585938,801.4285888671875
855,795.3846435546875,798.2051391601562,797.8021850585938,801.4285888671875
856,790.1465454101562,796.5933837890625,799.010986328125,801.8314819335938
857,790.5494384765625,798.6080322265625,802.2344360351562,797.8021850585938
858,798.6080322265625,800.6226806640625,800.6226806640625,796.996337890625
859,800.6226806640625,798.2051391601562,797.3992919921875,794.981689453125
860,796.996337890625,793.3699340820312,795.7875366210938,790.5494384765625
861,792.967041015625,794.1758422851562,799.010986328125,790.952392578125
862,789.3406372070312,796.5933837890625,801.025634765625,795.7875366210938
863,789.3406372070312,796.5933837890625,799.010986328125,801.8314819335938
864,786.1171875,792.967041015625,795.7875366210938,802.6373901367188
865,785.7142944335938,790.5494384765625,796.1904907226562,799.4139404296875
866,780.879150390625,787.7289428710938,797.3992919921875,790.1465454101562
867,781.6849975585938,784.5054931640625,796.996337890625,785.7142944335938
868,787.3259887695312,790.1465454101562,797.8021850585938,785.3113403320312
869,789.3406372070312,794.1758422851562,798.2051391601562,786.5201416015625
870,788.937744140625,792.5640869140625,797.3992919921875,788.5347900390625
871,792.1611938476562,792.967041015625,798.2051391601562,786.1171875
872,794.981689453125,791.3552856445312,800.6226806640625,784.908447265625
873,790.952392578125,790.1465454101562,800.6226806640625,788.937744140625
874,796.996337890625,788.937744140625,792.5640869140625,794.981689453125
875,796.996337890625,785.3113403320312,786.923095703125,795.7875366210938
876,781.2820434570312,782.893798828125,791.3552856445312,787.3259887695312
877,771.2088012695312,785.3113403320312,793.3699340820312,786.923095703125
878,778.05859375,785.7142944335938,794.1758422851562,795.7875366210938
879,785.7142944335938,786.5201416015625,795.3846435546875,798.2051391601562
880,790.1465454101562,788.937744140625,797.3992919921875,795.7875366210938
881,797.8021850585938,790.1465454101562,801.025634765625,797.8021850585938
882,792.5640869140625,789.7435913085938,799.010986328125,792.5640869140625
883,790.1465454101562,787.3259887695312,798.6080322265625,791.3552856445312
884,790.5494384765625,784.908447265625,796.5933837890625,792.5640869140625
885,790.1465454101562,786.5201416015625,790.5494384765625,790.952392578125
886,791.7582397460938,788.5347900390625,790.5494384765625,792.1611938476562
887,791.3552856445312,790.952392578125,792.1611938476562,784.908447265625
888,788.937744140625,790.5494384765625,791.3552856445312,787.3259887695312
889,793.7728881835938,793.7728881835938,795.3846435546875,795.7875366210938
890,802.2344360351562,792.967041015625,795.7875366210938,803.040283203125
891,799.010986328125,791.3552856445312,791.3552856445312,791.3552856445312
892,796.1904907226562,789.7435913085938,793.3699340820312,781.6849975585938
893,792.1611938476562,785.7142944335938,796.1904907226562,793.7728881835938
894,790.5494384765625,791.7582397460938,797.8021850585938,794.5787353515625
895,790.952392578125,798.6080322265625,799.010986328125,790.5494384765625
896,780.879150390625,795.3846435546875,798.2051391601562,784.908447265625
897,773.2234497070312,788.937744140625,796.996337890625,782.4908447265625
898,783.2966918945312,794.5787353515625,795.7875366210938,786.923095703125
899,786.1171875,796.5933837890625,792.5640869140625,781.2820434570312
900,786.1171875,791.3552856445312,788.1318969726562,778.4615478515625
901,786.923095703125,791.7582397460938,788.937744140625,782.4908447265625
902,782.087890625,794.1758422851562,789.7435913085938,778.05859375
903,784.908447265625,795.7875366210938,792.1611938476562,772.8204956054688
904,787.3259887695312,794.981689453125,789.7435913085938,781.2820434570312
905,782.087890625,790.952392578125,787.3259887695312,788.5347900390625
906,778.05859375,790.1465454101562,791.7582397460938,784.908447265625
907,782.4908447265625,790.1465454101562,791.7582397460938,777.2527465820312
908,782.4908447265625,790.1465454101562,788.937744140625,776.8497924804688
909,786.5201416015625,791.7582397460938,789.3406372070312,787.3259887695312
910,790.5494384765625,791.7582397460938,794.1758422851562,785.7142944335938
911,791.3552856445312,790.952392578125,798.6080322265625,784.1025390625
912,795.7875366210938,790.952392578125,793.7728881835938,787.7289428710938
913,798.2051391601562,784.1025390625,791.7582397460938,784.1025390625
914,792.5640869140625,781.6849975585938,794.5787353515625,781.6849975585938
915,790.952392578125,786.1171875,790.952392578125,784.5054931640625
916,789.7435913085938,788.1318969726562,793.3699340820312,790.952392578125
917,781.6849975585938,791.3552856445312,797.8021850585938,790.5494384765625
918,792.967041015625,796.1904907226562,799.010986328125,790.952392578125
919,800.6226806640625,797.3992919921875,797.8021850585938,791.3552856445312
920,795.7875366210938,799.010986328125,793.7728881835938,790.5494384765625
921,795.7875366210938,802.6373901367188,792.1611938476562,794.5787353515625
922,797.8021850585938,799.4139404296875,788.1318969726562,794.5787353515625
923,794.1758422851562,795.7875366210938,792.5640869140625,795.7875366210938
924,798.2051391601562,794.981689453125,805.054931640625,794.981689453125
925,806.2637329101562,798.6080322265625,809.89013671875,793.7728881835938
926,801.4285888671875,798.2051391601562,806.2637329101562,790.952392578125
927,794.1758422851562,792.967041015625,800.6226806640625,787.3259887695312
928,788.1318969726562,792.1611938476562,799.4139404296875,790.952392578125
929,786.923095703125,797.8021850585938,799.010986328125,796.5933837890625
930,788.1318969726562,801.4285888671875,799.4139404296875,802.2344360351562
931,794.1758422851562,801.025634765625,800.6226806640625,804.2490844726562
932,800.6226806640625,799.8168334960938,799.010986328125,805.054931640625
933,801.8314819335938,802.2344360351562,797.8021850585938,800.6226806640625
934,801.025634765625,796.996337890625,796.5933837890625,796.1904907226562
935,805.8607788085938,790.5494384765625,798.2051391601562,799.010986328125
936,807.87548828125,790.5494384765625,796.5933837890625,799.010986328125
937,801.4285888671875,790.1465454101562,796.996337890625,793.7728881835938
938,798.6080322265625,794.5787353515625,798.6080322265625,790.1465454101562
939,795.3846435546875,797.8021850585938,794.5787353515625,792.1611938476562
940,793.7728881835938,794.981689453125,795.3846435546875,796.5933837890625
941,797.8021850585938,793.3699340820312,798.2051391601562,796.1904907226562
942,794.5787353515625,793.7728881835938,795.3846435546875,788.937744140625
943,792.5640869140625,794.1758422851562,791.7582397460938,794.1758422851562
944,794.981689453125,790.5494384765625,791.3552856445312,803.040283203125
945,793.3699340820312,787.3259887695312,792.967041015625,793.7728881835938
946,793.7728881835938,786.923095703125,794.1758422851562,790.5494384765625
947,790.1465454101562,791.3552856445312,797.3992919921875,796.5933837890625
948,785.7142944335938,796.5933837890625,797.3992919921875,791.3552856445312
949,792.5640869140625,796.1904907226562,797.8021850585938,782.893798828125
950,788.937744140625,794.1758422851562,800.6226806640625,784.908447265625
951,784.5054931640625,792.967041015625,794.981689453125,783.2966918945312
952,783.2966918945312,794.1758422851562,791.3552856445312,776.4468994140625
953,788.5347900390625,794.981689453125,794.5787353515625,776.8497924804688
954,792.5640869140625,794.1758422851562,795.3846435546875,780.4761962890625
955,788.937744140625,795.7875366210938,792.967041015625,786.923095703125
956,790.5494384765625,799.8168334960938,792.967041015625,789.7435913085938
957,792.5640869140625,801.025634765625,794.981689453125,786.5201416015625
958,783.2966918945312,796.1904907226562,793.3699340820312,783.2966918945312
959,779.2673950195312,794.1758422851562,788.5347900390625,786.1171875
960,790.952392578125,795.3846435546875,786.1171875,789.7435913085938
961,798.6080322265625,794.5787353515625,784.5054931640625,786.5201416015625
962,798.6080322265625,792.5640869140625,780.0732421875,781.6849975585938
963,799.4139404296875,796.5933837890625,783.2966918945312,781.6849975585938
964,795.3846435546875,798.6080322265625,785.7142944335938,781.6849975585938
965,794.1758422851562,791.7582397460938,786.5201416015625,785.7142944335938
966,804.6520385742188,789.3406372070312,790.5494384765625,793.3699340820312
967,805.054931640625,793.7728881835938,789.7435913085938,790.5494384765625
968,794.5787353515625,798.6080322265625,790.5494384765625,783.6996459960938
969,790.5494384765625,797.3992919921875,791.3552856445312,780.0732421875
970,791.7582397460938,796.996337890625,788.937744140625,782.4908447265625
971,795.7875366210938,799.4139404296875,796.1904907226562,786.923095703125
972,792.5640869140625,800.2197875976562,797.3992919921875,786.923095703125
973,786.923095703125,798.2051391601562,792.5640869140625,792.1611938476562
974,799.4139404296875,794.1758422851562,793.3699340820312,789.3406372070312
975,809.4871826171875,795.3846435546875,795.7875366210938,792.1611938476562
976,808.6813354492188,796.996337890625,797.8021850585938,798.6080322265625
977,802.6373901367188,796.5933837890625,799.8168334960938,799.8168334960938
978,793.3699340820312,799.8168334960938,805.054931640625,803.4432373046875
979,785.7142944335938,800.2197875976562,802.2344360351562,798.6080322265625
980,785.3113403320312,800.2197875976562,801.8314819335938,796.1904907226562
981,791.3552856445312,794.1758422851562,801.4285888671875,798.2051391601562
982,791.7582397460938,792.5640869140625,798.6080322265625,796.1904907226562
983,785.3113403320312,794.5787353515625,801.025634765625,788.5347900390625
984,781.6849975585938,790.5494384765625,796.5933837890625,786.1171875
985,785.7142944335938,790.1465454101562,792.967041015625,786.923095703125
986,789.7435913085938,791.7582397460938,797.3992919921875,790.952392578125
987,786.1171875,792.967041015625,799.8168334960938,793.7728881835938
988,788.5347900390625,794.981689453125,801.4285888671875,791.7582397460938
989,792.1611938476562,796.1904907226562,799.010986328125,790.5494384765625
990,793.7728881835938,791.7582397460938,795.3846435546875,787.3259887695312
991,790.952392578125,789.3406372070312,799.8168334960938,790.952392578125
992,788.1318969726562,790.1465454101562,800.6226806640625,792.1611938476562
993,796.1904907226562,795.7875366210938,796.1904907226562,784.5054931640625
994,792.1611938476562,796.996337890625,799.010986328125,783.2966918945312
995,792.1611938476562,799.010986328125,803.040283203125,787.3259887695312
996,802.2344360351562,804.6520385742188,801.4285888671875,790.952392578125
997,799.010986328125,798.6080322265625,799.010986328125,790.952392578125
998,789.7435913085938,798.6080322265625,796.5933837890625,792.1611938476562
999,793.7728881835938,800.2197875976562,796.1904907226562,795.7875366210938
1000,803.4432373046875,799.4139404296875,798.2051391601562,801.8314819335938
1001,799.010986328125,799.010986328125,799.4139404296875,807.4725341796875
1002,795.3846435546875,796.996337890625,803.4432373046875,807.87548828125
1003,801.8314819335938,799.4139404296875,802.2344360351562,799.010986328125
1004,799.8168334960938,795.3846435546875,797.3992919921875,795.7875366210938
1005,796.1904907226562,789.3406372070312,794.1758422851562,801.8314819335938
1006,794.5787353515625,790.1465454101562,797.8021850585938,801.8314819335938
1007,795.3846435546875,795.3846435546875,800.2197875976562,792.1611938476562
1008,802.2344360351562,801.8314819335938,799.8168334960938,792.967041015625
1009,789.3406372070312,792.5640869140625,796.5933837890625,796.5933837890625
1010,793.3699340820312,785.3113403320312,799.010986328125,787.3259887695312
1011,791.7582397460938,780.4761962890625,796.1904907226562,789.3406372070312
1012,788.1318969726562,785.3113403320312,796.1904907226562,789.7435913085938
1013,784.5054931640625,788.937744140625,797.3992919921875,789.7435913085938
1014,788.5347900390625,786.923095703125,798.2051391601562,792.1611938476562
1015,789.7435913085938,786.1171875,801.025634765625,793.7728881835938
1016,787.7289428710938,795.3846435546875,799.4139404296875,800.6226806640625
1017,783.2966918945312,801.4285888671875,798.2051391601562,795.7875366210938
1018,784.908447265625,800.6226806640625,796.996337890625,784.5054931640625
1019,791.7582397460938,797.8021850585938,795.7875366210938,784.5054931640625
1020,787.7289428710938,794.5787353515625,794.981689453125,782.087890625
1021,787.7289428710938,794.1758422851562,799.010986328125,786.1171875
1022,787.3259887695312,792.1611938476562,799.010986328125,790.5494384765625
1023,780.0732421875,787.7289428710938,791.3552856445312,790.952392578125
1024,782.893798828125,792.1611938476562,795.7875366210938,798.6080322265625
1025,788.937744140625,796.5933837890625,799.4139404296875,799.010986328125
1026,793.7728881835938,796.5933837890625,792.5640869140625,790.5494384765625
1027,787.7289428710938,800.6226806640625,790.5494384765625,788.5347900390625
1028,781.2820434570312,796.5933837890625,793.3699340820312,789.3406372070312
1029,786.1171875,793.7728881835938,794.1758422851562,784.5054931640625
1030,791.3552856445312,796.996337890625,795.3846435546875,789.3406372070312
1031,790.952392578125,796.1904907226562,799.010986328125,799.4139404296875
1032,786.5201416015625,798.6080322265625,798.2051391601562,795.7875366210938
1033,784.5054931640625,796.5933837890625,795.3846435546875,793.7728881835938
1034,786.923095703125,793.3699340820312,796.5933837890625,796.1904907226562
1035,795.3846435546875,800.6226806640625,798.2051391601562,794.981689453125
1036,804.6520385742188,802.2344360351562,800.6226806640625,795.7875366210938
1037,804.2490844726562,798.2051391601562,800.6226806640625,792.1611938476562
1038,786.5201416015625,799.010986328125,795.7875366210938,789.3406372070312
1039,777.6557006835938,796.5933837890625,796.1904907226562,792.967041015625
1040,785.7142944335938,794.5787353515625,797.3992919921875,793.7728881835938
1041,789.7435913085938,798.2051391601562,796.1904907226562,787.7289428710938
1042,788.5347900390625,793.7728881835938,794.981689453125,785.7142944335938
1043,783.6996459960938,786.923095703125,789.7435913085938,784.908447265625
1044,785.3113403320312,789.7435913085938,790.5494384765625,785.7142944335938
1045,799.4139404296875,792.1611938476562,794.5787353515625,788.937744140625
1046,798.6080322265625,790.952392578125,793.7728881835938,788.5347900390625
1047,799.4139404296875,793.3699340820312,797.8021850585938,792.5640869140625
1048,806.2637329101562,795.3846435546875,798.2051391601562,793.7728881835938
1049,801.8314819335938,795.7875366210938,797.8021850585938,789.3406372070312
1050,797.3992919921875,794.981689453125,797.3992919921875,792.5640869140625
1051,797.8021850585938,792.1611938476562,794.1758422851562,790.5494384765625
1052,807.4725341796875,792.967041015625,796.1904907226562,790.5494384765625
1053,807.069580078125,792.967041015625,794.5787353515625,788.1318969726562
1054,799.8168334960938,790.1465454101562,791.7582397460938,788.5347900390625
1055,799.4139404296875,796.1904907226562,795.7875366210938,799.4139404296875
1056,794.5787353515625,796.1904907226562,796.996337890625,797.8021850585938
1057,794.1758422851562,792.967041015625,794.5787353515625,797.8021850585938
1058,792.1611938476562,795.7875366210938,796.996337890625,799.010986328125
1059,792.5640869140625,797.8021850585938,799.010986328125,798.6080322265625
1060,798.6080322265625,798.2051391601562,799.010986328125,796.996337890625
1061,796.5933837890625,794.5787353515625,796.996337890625,791.3552856445312
1062,792.967041015625,788.937744140625,788.937744140625,788.5347900390625
1063,793.7728881835938,791.3552856445312,791.3552856445312,789.3406372070312
1064,784.5054931640625,794.5787353515625,792.5640869140625,784.5054931640625
1065,778.8644409179688,795.3846435546875,792.967041015625,786.5201416015625
1066,787.7289428710938,796.1904907226562,798.2051391601562,797.3992919921875
1067,788.937744140625,792.1611938476562,795.7875366210938,801.4285888671875
1068,788.1318969726562,794.981689453125,792.967041015625,791.7582397460938
1069,786.5201416015625,795.3846435546875,791.7582397460938,786.5201416015625
1070,787.7289428710938,792.967041015625,792.1611938476562,786.923095703125
1071,799.010986328125,799.4139404296875,791.7582397460938,781.6849975585938
1072,800.6226806640625,796.5933837890625,790.1465454101562,781.6849975585938
1073,792.1611938476562,789.3406372070312,796.5933837890625,788.1318969726562
1074,797.3992919921875,793.3699340820312,801.4285888671875,795.3846435546875
1075,799.4139404296875,801.025634765625,801.4285888671875,798.6080322265625
1076,796.996337890625,799.8168334960938,803.040283203125,791.7582397460938
1077,794.1758422851562,792.5640869140625,803.040283203125,793.3699340820312
1078,788.5347900390625,794.981689453125,802.2344360351562,799.8168334960938
1079,785.3113403320312,798.2051391601562,801.8314819335938,789.7435913085938
1080,782.4908447265625,794.981689453125,801.4285888671875,788.1318969726562
1081,780.879150390625,793.7728881835938,801.8314819335938,789.7435913085938
1082,787.3259887695312,794.5787353515625,801.4285888671875,792.967041015625
1083,784.5054931640625,791.3552856445312,803.8461303710938,794.981689453125
1084,780.4761962890625,792.1611938476562,805.4578857421875,796.5933837890625
1085,788.1318969726562,787.7289428710938,802.6373901367188,793.3699340820312
1086,788.5347900390625,788.1318969726562,796.1904907226562,786.5201416015625
1087,782.4908447265625,791.7582397460938,795.7875366210938,783.6996459960938
1088,777.2527465820312,792.1611938476562,797.8021850585938,788.1318969726562
1089,767.9853515625,794.1758422851562,799.010986328125,789.7435913085938
1090,773.6264038085938,790.952392578125,801.8314819335938,788.5347900390625
1091,784.1025390625,788.1318969726562,797.8021850585938,792.1611938476562
1092,790.5494384765625,787.3259887695312,796.996337890625,796.996337890625
1093,796.5933837890625,788.5347900390625,796.5933837890625,794.981689453125
1094,792.5640869140625,780.879150390625,793.3699340820312,788.5347900390625
1095,786.923095703125,775.2380981445312,794.5787353515625,784.5054931640625
1096,794.981689453125,783.6996459960938,794.981689453125,786.1171875
1097,799.4139404296875,794.5787353515625,793.3699340820312,791.7582397460938
1098,792.5640869140625,790.1465454101562,790.1465454101562,784.1025390625
1099,788.937744140625,788.937744140625,791.7582397460938,776.4468994140625
1100,791.7582397460938,794.5787353515625,792.5640869140625,784.1025390625
1101,788.5347900390625,793.3699340820312,793.7728881835938,786.5201416015625
1102,788.937744140625,791.3552856445312,792.967041015625,778.8644409179688
1103,794.981689453125,790.5494384765625,789.3406372070312,779.6703491210938
1104,793.3699340820312,791.7582397460938,793.3699340820312,778.4615478515625
1105,788.1318969726562,793.7728881835938,795.7875366210938,777.6557006835938
1106,790.1465454101562,794.5787353515625,791.7582397460938,788.937744140625
1107,798.2051391601562,794.981689453125,791.7582397460938,795.3846435546875
1108,796.5933837890625,796.996337890625,792.1611938476562,790.5494384765625
1109,781.6849975585938,795.7875366210938,790.1465454101562,786.5201416015625
1110,775.2380981445312,794.981689453125,789.7435913085938,787.3259887695312
1111,779.6703491210938,794.981689453125,793.3699340820312,786.1171875
1112,778.8644409179688,792.5640869140625,795.3846435546875,790.5494384765625
1113,780.0732421875,796.996337890625,796.996337890625,792.1611938476562
1114,781.6849975585938,792.967041015625,799.010986328125,788.1318969726562
1115,782.087890625,790.5494384765625,795.7875366210938,786.1171875
1116,786.1171875,794.5787353515625,796.1904907226562,784.908447265625
1117,789.7435913085938,793.7728881835938,798.6080322265625,787.3259887695312
1118,789.3406372070312,796.1904907226562,797.3992919921875,787.7289428710938
1119,793.7728881835938,794.5787353515625,799.4139404296875,788.937744140625
1120,798.2051391601562,792.5640869140625,797.8021850585938,789.7435913085938
1121,799.8168334960938,794.981689453125,796.1904907226562,794.5787353515625
1122,799.4139404296875,798.2051391601562,795.3846435546875,796.5933837890625
1123,796.5933837890625,792.967041015625,794.981689453125,786.923095703125
1124,792.967041015625,788.937744140625,800.2197875976562,788.5347900390625
1125,796.1904907226562,800.6226806640625,802.6373901367188,792.967041015625
1126,804.2490844726562,800.2197875976562,801.4285888671875,792.1611938476562
1127,798.6080322265625,794.5787353515625,799.010986328125,796.1904907226562
1128,792.967041015625,801.8314819335938,795.7875366210938,798.2051391601562
1129,787.7289428710938,800.6226806640625,797.3992919921875,799.8168334960938
1130,792.5640869140625,797.8021850585938,799.4139404296875,803.040283203125
1131,797.8021850585938,798.6080322265625,796.996337890625,800.2197875976562
1132,789.7435913085938,795.7875366210938,796.996337890625,793.7728881835938
1133,794.1758422851562,796.5933837890625,798.2051391601562,788.5347900390625
1134,799.8168334960938,796.996337890625,801.025634765625,787.3259887695312
1135,801.8314819335938,794.981689453125,797.8021850585938,784.5054931640625
1136,797.3992919921875,797.3992919921875,796.1904907226562,785.7142944335938
1137,788.937744140625,796.5933837890625,797.8021850585938,788.937744140625
1138,787.3259887695312,792.5640869140625,794.5787353515625,789.7435913085938
1139,790.5494384765625,796.5933837890625,796.1904907226562,801.4285888671875
1140,789.3406372070312,798.6080322265625,798.6080322265625,792.5640869140625
1141,791.3552856445312,796.1904907226562,798.6080322265625,779.6703491210938
1142,801.025634765625,793.3699340820312,798.6080322265625,786.923095703125
1143,801.4285888671875,786.5201416015625,798.6080322265625,789.3406372070312
1144,797.8021850585938,787.7289428710938,798.6080322265625,791.3552856445312
1145,792.5640869140625,792.1611938476562,799.8168334960938,791.3552856445312
1146,786.5201416015625,790.1465454101562,798.6080322265625,790.1465454101562
1147,778.4615478515625,784.908447265625,797.8021850585938,788.1318969726562
1148,773.6264038085938,783.6996459960938,799.010986328125,789.7435913085938
1149,775.2380981445312,785.7142944335938,796.5933837890625,788.5347900390625
1150,784.1025390625,789.3406372070312,792.967041015625,788.1318969726562
1151,793.7728881835938,792.5640869140625,798.2051391601562,792.1611938476562
1152,793.7728881835938,789.7435913085938,805.054931640625,788.937744140625
1153,799.010986328125,788.1318969726562,802.6373901367188,789.7435913085938
1154,797.3992919921875,786.923095703125,798.2051391601562,790.1465454101562
1155,791.3552856445312,786.5201416015625,799.010986328125,793.3699340820312
1156,791.3552856445312,791.3552856445312,798.6080322265625,794.5787353515625
1157,784.5054931640625,790.952392578125,798.6080322265625,790.952392578125
1158,785.7142944335938,782.893798828125,801.4285888671875,793.3699340820312
1159,790.952392578125,784.1025390625,799.4139404296875,797.8021850585938
1160,798.2051391601562,785.7142944335938,800.2197875976562,794.1758422851562
1161,801.025634765625,786.1171875,799.8168334960938,788.5347900390625
1162,799.8168334960938,790.952392578125,800.6226806640625,788.937744140625
1163,796.1904907226562,787.3259887695312,800.6226806640625,788.937744140625
1164,783.6996459960938,785.3113403320312,792.967041015625,783.6996459960938
1165,777.6557006835938,788.5347900390625,789.7435913085938,784.1025390625
1166,780.879150390625,788.1318969726562,788.1318969726562,787.7289428710938
1167,783.2966918945312,789.3406372070312,792.1611938476562,786.923095703125
1168,787.3259887695312,788.1318969726562,797.3992919921875,792.1611938476562
1169,785.3113403320312,784.5054931640625,798.2051391601562,794.1758422851562
1170,780.879150390625,786.1171875,797.8021850585938,790.952392578125
1171,783.2966918945312,786.5201416015625,799.010986328125,790.1465454101562
1172,785.3113403320312,784.908447265625,799.4139404296875,788.5347900390625
1173,788.1318969726562,787.3259887695312,796.5933837890625,791.7582397460938
1174,788.937744140625,791.7582397460938,791.3552856445312,790.5494384765625
1175,788.937744140625,790.5494384765625,792.967041015625,782.4908447265625
1176,797.3992919921875,792.1611938476562,795.3846435546875,791.7582397460938
1177,809.084228515625,793.7728881835938,795.3846435546875,801.025634765625
1178,813.113525390625,793.7728881835938,797.3992919921875,795.7875366210938
1179,803.040283203125,791.3552856445312,798.6080322265625,796.996337890625
1180,801.8314819335938,790.952392578125,798.6080322265625,807.87548828125
1181,797.8021850585938,791.7582397460938,798.2051391601562,805.8607788085938
1182,782.893798828125,788.5347900390625,796.996337890625,800.2197875976562
1183,782.087890625,790.952392578125,796.1904907226562,797.3992919921875
1184,783.6996459960938,789.3406372070312,793.3699340820312,794.5787353515625
1185,787.7289428710938,788.1318969726562,789.7435913085938,795.7875366210938
1186,787.7289428710938,789.7435913085938,789.7435913085938,789.7435913085938
1187,785.3113403320312,786.5201416015625,790.952392578125,786.5201416015625
1188,784.908447265625,785.7142944335938,790.952392578125,789.7435913085938
1189,782.087890625,784.5054931640625,789.7435913085938,788.5347900390625
1190,781.6849975585938,784.5054931640625,794.981689453125,792.5640869140625
1191,778.8644409179688,788.1318969726562,799.8168334960938,795.3846435546875
1192,777.2527465820312,788.1318969726562,796.996337890625,794.981689453125
1193,783.2966918945312,787.3259887695312,792.967041015625,798.2051391601562
1194,792.5640869140625,795.3846435546875,794.981689453125,799.4139404296875
1195,792.967041015625,794.5787353515625,798.2051391601562,789.3406372070312
1196,782.893798828125,783.2966918945312,793.3699340820312,786.5201416015625
1197,783.6996459960938,779.6703491210938,784.5054931640625,792.1611938476562
1198,788.1318969726562,786.923095703125,784.5054931640625,784.5054931640625
1199,784.908447265625,793.3699340820312,789.7435913085938,783.6996459960938
1200,781.6849975585938,793.3699340820312,794.1758422851562,790.1465454101562
1201,790.1465454101562,792.967041015625,798.6080322265625,788.5347900390625
1202,786.923095703125,794.5787353515625,797.3992919921875,786.923095703125
1203,786.1171875,792.5640869140625,796.5933837890625,792.1611938476562
1204,790.952392578125,792.967041015625,794.5787353515625,794.1758422851562
1205,786.5201416015625,797.8021850585938,788.1318969726562,791.3552856445312
1206,787.7289428710938,799.4139404296875,786.1171875,788.937744140625
1207,792.967041015625,799.4139404296875,789.3406372070312,792.5640869140625
1208,798.2051391601562,794.981689453125,794.5787353515625,799.8168334960938
1209,792.1611938476562,791.3552856445312,792.967041015625,796.1904907226562
1210,797.3992919921875,795.3846435546875,790.1465454101562,788.937744140625
1211,799.010986328125,796.1904907226562,792.1611938476562,790.952392578125
1212,785.7142944335938,796.5933837890625,793.3699340820312,788.5347900390625
1213,779.6703491210938,791.7582397460938,794.981689453125,790.5494384765625
1214,776.8497924804688,790.952392578125,795.3846435546875,795.7875366210938
1215,771.2088012695312,796.996337890625,791.7582397460938,788.1318969726562
1216,776.0439453125,797.3992919921875,791.7582397460938,786.5201416015625
1217,784.908447265625,792.967041015625,794.1758422851562,784.5054931640625
1218,782.4908447265625,794.5787353515625,792.967041015625,782.893798828125
1219,779.6703491210938,788.5347900390625,793.7728881835938,790.952392578125
1220,783.2966918945312,786.923095703125,796.5933837890625,795.7875366210938
1221,784.1025390625,790.5494384765625,795.3846435546875,789.7435913085938
1222,777.6557006835938,786.5201416015625,799.010986328125,785.7142944335938
1223,777.6557006835938,784.5054931640625,802.2344360351562,785.7142944335938
1224,784.1025390625,792.5640869140625,803.8461303710938,789.3406372070312
1225,790.5494384765625,798.6080322265625,805.054931640625,789.3406372070312
1226,796.996337890625,799.4139404296875,803.040283203125,790.1465454101562
1227,796.996337890625,796.5933837890625,800.6226806640625,791.7582397460938
1228,788.5347900390625,792.1611938476562,800.6226806640625,792.1611938476562
1229,789.7435913085938,791.7582397460938,804.2490844726562,792.967041015625
1230,790.5494384765625,790.1465454101562,804.2490844726562,791.3552856445312
1231,787.3259887695312,787.7289428710938,803.4432373046875,799.4139404296875
1232,791.3552856445312,789.7435913085938,801.8314819335938,802.2344360351562
1233,796.996337890625,791.3552856445312,796.5933837890625,788.1318969726562
1234,800.6226806640625,794.5787353515625,793.3699340820312,777.2527465820312
1235,792.967041015625,791.3552856445312,791.7582397460938,773.2234497070312
1236,794.5787353515625,786.5201416015625,790.5494384765625,782.087890625
1237,805.8607788085938,793.7728881835938,796.1904907226562,793.7728881835938
1238,799.8168334960938,793.7728881835938,803.8461303710938,784.908447265625
1239,788.5347900390625,789.3406372070312,803.8461303710938,783.2966918945312
1240,789.3406372070312,790.1465454101562,806.6666870117188,790.952392578125
1241,791.7582397460938,786.1171875,805.4578857421875,792.1611938476562
1242,786.1171875,782.4908447265625,795.3846435546875,790.1465454101562
1243,787.3259887695312,786.923095703125,796.1904907226562,786.1171875
1244,794.981689453125,789.3406372070312,801.4285888671875,788.937744140625
1245,800.6226806640625,787.7289428710938,802.6373901367188,796.5933837890625
1246,801.4285888671875,793.7728881835938,803.4432373046875,801.8314819335938
1247,808.2783813476562,801.025634765625,804.6520385742188,803.040283203125
1248,808.6813354492188,803.4432373046875,798.2051391601562,800.6226806640625
1249,794.981689453125,799.8168334960938,791.3552856445312,797.8021850585938
1250,796.996337890625,793.3699340820312,794.981689453125,799.8168334960938
1251,804.2490844726562,797.8021850585938,796.996337890625,800.2197875976562
1252,800.2197875976562,801.8314819335938,794.1758422851562,792.1611938476562
1253,798.6080322265625,794.981689453125,794.5787353515625,788.1318969726562
1254,798.6080322265625,799.010986328125,797.3992919921875,790.952392578125
1255,791.7582397460938,805.054931640625,798.6080322265625,794.5787353515625
1256,787.3259887695312,799.4139404296875,792.5640869140625,789.7435913085938
1257,790.5494384765625,797.3992919921875,791.3552856445312,786.923095703125
1258,787.3259887695312,796.996337890625,791.3552856445312,785.7142944335938
1259,790.952392578125,796.1904907226562,787.7289428710938,782.087890625
1260,798.2051391601562,795.7875366210938,790.5494384765625,786.1171875
1261,799.010986328125,794.981689453125,792.1611938476562,786.5201416015625
1262,795.3846435546875,792.967041015625,788.937744140625,783.6996459960938
1263,792.5640869140625,792.967041015625,789.3406372070312,782.087890625
1264,793.7728881835938,794.5787353515625,788.937744140625,784.1025390625
1265,795.7875366210938,793.3699340820312,788.5347900390625,790.952392578125
1266,791.7582397460938,788.5347900390625,787.7289428710938,793.7728881835938
1267,788.5347900390625,784.1025390625,787.3259887695312,790.1465454101562
1268,784.5054931640625,785.3113403320312,792.967041015625,786.923095703125
1269,788.5347900390625,791.3552856445312,797.3992919921875,794.5787353515625
1270,798.2051391601562,796.996337890625,798.2051391601562,805.4578857421875
1271,803.040283203125,800.2197875976562,796.1904907226562,809.89013671875
1272,803.040283203125,794.1758422851562,794.981689453125,807.87548828125
1273,806.6666870117188,794.1758422851562,800.6226806640625,803.4432373046875
1274,813.5164794921875,796.996337890625,801.4285888671875,805.4578857421875
1275,813.113525390625,796.1904907226562,800.2197875976562,803.4432373046875
1276,812.3076782226562,798.2051391601562,803.4432373046875,802.6373901367188
1277,807.4725341796875,793.7728881835938,801.025634765625,800.6226806640625
1278,796.996337890625,790.952392578125,794.981689453125,793.3699340820312
1279,790.5494384765625,797.3992919921875,793.7728881835938,786.923095703125
1280,787.7289428710938,799.8168334960938,795.7875366210938,786.1171875
1281,791.3552856445312,802.6373901367188,801.4285888671875,799.8168334960938
1282,789.3406372070312,801.8314819335938,800.6226806640625,800.6226806640625
1283,783.6996459960938,797.8021850585938,793.3699340820312,788.1318969726562
1284,783.6996459960938,797.8021850585938,794.981689453125,791.7582397460938
1285,786.923095703125,798.6080322265625,801.025634765625,794.1758422851562
1286,791.7582397460938,799.8168334960938,799.4139404296875,789.3406372070312
1287,795.3846435546875,799.8168334960938,800.2197875976562,789.7435913085938
1288,786.1171875,794.5787353515625,801.025634765625,789.3406372070312
1289,781.2820434570312,794.981689453125,795.3846435546875,786.923095703125
1290,783.2966918945312,793.3699340820312,792.5640869140625,783.6996459960938
1291,794.981689453125,796.1904907226562,796.996337890625,787.3259887695312
1292,799.4139404296875,803.4432373046875,795.7875366210938,795.3846435546875
1293,792.5640869140625,804.6520385742188,796.996337890625,799.4139404296875
1294,790.952392578125,803.4432373046875,801.4285888671875,794.981689453125
1295,799.4139404296875,805.054931640625,803.040283203125,795.3846435546875
1296,813.113525390625,809.89013671875,801.8314819335938,799.4139404296875
1297,803.4432373046875,810.6959838867188,803.040283203125,792.5640869140625
1298,795.3846435546875,805.8607788085938,805.054931640625,786.923095703125
1299,783.6996459960938,797.8021850585938,794.1758422851562,782.893798828125
1300,766.7765502929688,796.1904907226562,787.3259887695312,773.6264038085938
1301,760.3296508789062,794.981689453125,788.937744140625,760.3296508789062
1302,755.8974609375,805.4578857421875,794.5787353515625,751.8681030273438
1303,745.018310546875,815.5311279296875,794.981689453125,742.6007080078125
1304,732.12451171875,819.5604248046875,795.3846435546875,736.959716796875
1305,706.3369750976562,823.1868286132812,792.1611938476562,713.99267578125
1306,689.8168334960938,826.8131713867188,786.5201416015625,687.8021850585938
1307,682.967041015625,835.6776733398438,781.2820434570312,678.5347900390625
1308,663.6264038085938,834.4688720703125,778.8644409179688,655.1648559570312
1309,651.1355590820312,835.6776733398438,788.5347900390625,643.076904296875
1310,633.4066162109375,844.5421142578125,791.3552856445312,636.2271118164062
1311,620.5128173828125,843.7362670898438,797.3992919921875,621.7216186523438
1312,617.2893676757812,847.7655639648438,805.054931640625,608.4249267578125
1313,617.2893676757812,852.6007080078125,804.2490844726562,596.7399291992188
1314,622.5274658203125,850.1831665039062,801.025634765625,599.5604248046875
1315,613.6630249023438,847.3626098632812,799.8168334960938,603.1868286132812
1316,623.7362670898438,852.1978149414062,802.2344360351562,618.901123046875
1317,648.3150024414062,856.6300659179688,799.4139404296875,633.4066162109375
1318,653.1502075195312,846.1538696289062,801.4285888671875,636.2271118164062
1319,649.120849609375,839.7069702148438,813.113525390625,649.120849609375
1320,644.6886596679688,840.915771484375,817.94873046875,653.1502075195312
1321,654.7619018554688,838.901123046875,816.7399291992188,650.3296508789062
1322,668.8644409179688,838.901123046875,812.7106323242188,660.4029541015625
1323,670.0732421875,836.08056640625,807.87548828125,664.8351440429688
1324,678.5347900390625,832.8571166992188,804.2490844726562,676.1171875
1325,687.3992919921875,831.6483764648438,798.2051391601562,693.040283203125
1326,695.8607788085938,829.2307739257812,801.025634765625,711.97802734375
1327,706.7399291992188,829.6337280273438,803.4432373046875,734.945068359375
1328,718.02197265625,829.2307739257812,801.8314819335938,740.5860595703125
1329,723.6630249023438,827.6190185546875,800.6226806640625,745.4212646484375
1330,724.8717651367188,820.7692260742188,796.1904907226562,753.076904296875
1331,734.5421142578125,814.3223266601562,794.1758422851562,759.120849609375
1332,753.4798583984375,808.6813354492188,793.3699340820312,772.4176025390625
1333,772.4176025390625,802.2344360351562,794.1758422851562,786.1171875
1334,785.7142944335938,795.7875366210938,796.996337890625,797.8021850585938
1335,790.1465454101562,790.5494384765625,794.5787353515625,803.4432373046875
1336,792.5640869140625,786.923095703125,793.7728881835938,797.8021850585938
1337,801.4285888671875,783.2966918945312,795.7875366210938,804.6520385742188
1338,806.2637329101562,780.879150390625,790.1465454101562,821.5750732421875
1339,812.7106323242188,772.4176025390625,786.1171875,832.05126953125
1340,834.06591796875,767.5823974609375,791.3552856445312,838.901123046875
1341,844.5421142578125,767.9853515625,791.7582397460938,844.5421142578125
1342,850.5860595703125,769.5970458984375,788.937744140625,853.8095092773438
1343,856.2271118164062,766.7765502929688,789.3406372070312,853.4066162109375
1344,847.7655639648438,765.1648559570312,789.7435913085938,848.974365234375
1345,847.7655639648438,772.8204956054688,791.7582397460938,850.989013671875
1346,857.032958984375,770.4029541015625,793.3699340820312,857.4359130859375
1347,870.7326049804688,765.970703125,792.5640869140625,865.4945068359375
1348,873.9560546875,767.5823974609375,791.7582397460938,869.9267578125
1349,864.2857055664062,768.3883056640625,786.1171875,863.4798583984375
1350,863.4798583984375,766.7765502929688,785.7142944335938,863.076904296875
1351,861.4652099609375,770.8058471679688,789.3406372070312,872.3442993164062
1352,861.4652099609375,770.4029541015625,789.7435913085938,874.7619018554688
1353,864.2857055664062,763.9560546875,789.7435913085938,875.5677490234375
1354,865.8974609375,766.7765502929688,790.1465454101562,873.5531005859375
1355,867.106201171875,770.4029541015625,791.3552856445312,864.6886596679688
1356,863.4798583984375,770.8058471679688,791.3552856445312,867.912109375
1357,861.8681030273438,769.1941528320312,790.952392578125,869.9267578125
1358,873.5531005859375,771.2088012695312,789.7435913085938,859.4505615234375
1359,874.7619018554688,770.8058471679688,788.5347900390625,853.4066162109375
1360,859.4505615234375,771.6116943359375,788.1318969726562,848.5714111328125
1361,856.6300659179688,777.6557006835938,787.7289428710938,853.4066162109375
1362,864.6886596679688,771.6116943359375,787.7289428710938,857.4359130859375
1363,867.106201171875,769.5970458984375,789.3406372070312,853.8095092773438
1364,858.6447143554688,772.8204956054688,787.3259887695312,853.4066162109375
1365,855.8241577148438,776.0439453125,787.3259887695312,861.8681030273438
1366,855.8241577148438,777.6557006835938,791.7582397460938,860.6593627929688
1367,862.2710571289062,778.8644409179688,792.1611938476562,857.8388061523438
1368,867.912109375,773.2234497070312,795.3846435546875,858.2417602539062
1369,861.8681030273438,774.4322509765625,799.4139404296875,855.4212646484375
1370,857.8388061523438,784.5054931640625,800.6226806640625,854.2124633789062
1371,846.959716796875,780.4761962890625,799.010986328125,848.5714111328125
1372,836.4835205078125,778.4615478515625,797.3992919921875,841.7216186523438
1373,837.2893676757812,780.879150390625,795.3846435546875,839.3040161132812
1374,838.901123046875,780.879150390625,795.3846435546875,837.6923217773438
1375,829.6337280273438,781.2820434570312,796.1904907226562,833.2600708007812
1376,821.5750732421875,783.2966918945312,800.6226806640625,837.2893676757812
1377,821.1721801757812,782.087890625,803.040283203125,840.5128173828125
1378,822.7838745117188,777.2527465820312,800.2197875976562,835.6776733398438
1379,830.4395751953125,775.2380981445312,797.3992919921875,829.2307739257812
1380,830.4395751953125,775.2380981445312,795.3846435546875,826.00732421875
1381,819.5604248046875,778.4615478515625,792.5640869140625,824.7985229492188
1382,817.1428833007812,781.6849975585938,794.5787353515625,821.97802734375
1383,826.00732421875,783.2966918945312,794.5787353515625,821.97802734375
1384,826.4102783203125,783.6996459960938,789.7435913085938,825.2014770507812
1385,824.7985229492188,784.908447265625,792.967041015625,829.2307739257812
1386,818.3516235351562,783.6996459960938,793.7728881835938,821.1721801757812
1387,813.113525390625,778.8644409179688,785.3113403320312,812.3076782226562
1388,819.96337890625,783.6996459960938,786.1171875,823.99267578125
1389,829.2307739257812,788.1318969726562,792.967041015625,834.06591796875
1390,834.8717651367188,790.5494384765625,795.3846435546875,826.00732421875
1391,829.2307739257812,792.967041015625,795.7875366210938,823.99267578125
1392,822.7838745117188,791.7582397460938,796.1904907226562,824.3956298828125
1393,819.1575317382812,793.3699340820312,794.5787353515625,818.7545776367188
1394,816.3369750976562,793.7728881835938,791.3552856445312,810.6959838867188
1395,815.1282348632812,789.3406372070312,793.7728881835938,810.6959838867188
1396,824.3956298828125,786.1171875,796.996337890625,813.113525390625
1397,829.6337280273438,790.1465454101562,797.3992919921875,813.5164794921875
1398,818.7545776367188,795.7875366210938,802.6373901367188,818.7545776367188
1399,809.084228515625,794.981689453125,802.2344360351562,817.94873046875
1400,807.4725341796875,799.010986328125,800.2197875976562,821.5750732421875
1401,803.040283203125,799.8168334960938,802.2344360351562,812.7106323242188
1402,799.4139404296875,792.5640869140625,803.8461303710938,805.8607788085938
1403,809.084228515625,799.4139404296875,800.6226806640625,813.113525390625
1404,817.5457763671875,802.2344360351562,801.8314819335938,809.89013671875
1405,813.113525390625,796.996337890625,803.040283203125,801.4285888671875
1406,809.084228515625,799.8168334960938,796.1904907226562,801.4285888671875
1407,805.8607788085938,799.4139404296875,799.8168334960938,804.6520385742188
1408,804.2490844726562,794.5787353515625,801.4285888671875,802.2344360351562
1409,808.2783813476562,794.981689453125,797.8021850585938,801.025634765625
1410,810.2930297851562,799.8168334960938,798.2051391601562,804.2490844726562
1411,813.113525390625,797.8021850585938,797.8021850585938,801.8314819335938
1412,815.1282348632812,794.5787353515625,798.6080322265625,803.8461303710938
1413,812.7106323242188,792.967041015625,799.8168334960938,804.6520385742188
1414,810.2930297851562,786.923095703125,797.8021850585938,804.2490844726562
1415,809.4871826171875,788.5347900390625,801.8314819335938,799.8168334960938
1416,803.4432373046875,792.5640869140625,801.025634765625,792.967041015625
1417,798.2051391601562,788.5347900390625,793.3699340820312,790.1465454101562
1418,799.8168334960938,789.7435913085938,793.3699340820312,792.967041015625
1419,803.040283203125,790.952392578125,796.1904907226562,804.6520385742188
1420,805.8607788085938,792.967041015625,797.3992919921875,808.2783813476562
1421,800.2197875976562,792.5640869140625,794.1758422851562,804.2490844726562
1422,795.3846435546875,786.923095703125,790.5494384765625,801.4285888671875
1423,798.2051391601562,785.3113403320312,792.967041015625,803.8461303710938
1424,802.6373901367188,785.7142944335938,794.981689453125,805.054931640625
1425,797.8021850585938,785.7142944335938,790.5494384765625,796.996337890625
1426,787.7289428710938,784.908447265625,788.5347900390625,794.1758422851562
1427,786.923095703125,788.937744140625,790.1465454101562,798.6080322265625
1428,784.908447265625,788.5347900390625,788.937744140625,792.967041015625
1429,785.7142944335938,784.908447265625,790.1465454101562,790.5494384765625
1430,792.967041015625,788.937744140625,792.5640869140625,792.5640869140625
1431,791.7582397460938,784.908447265625,790.5494384765625,788.5347900390625
1432,794.5787353515625,784.5054931640625,788.1318969726562,786.5201416015625
1433,794.5787353515625,784.1025390625,790.952392578125,788.937744140625
1434,785.7142944335938,786.5201416015625,792.1611938476562,789.3406372070312
1435,782.893798828125,791.7582397460938,788.1318969726562,789.3406372070312
1436,781.6849975585938,788.1318969726562,787.3259887695312,779.6703491210938
1437,777.2527465820312,792.1611938476562,790.1465454101562,776.4468994140625
1438,771.2088012695312,794.981689453125,787.3259887695312,777.6557006835938
1439,776.8497924804688,793.7728881835938,788.5347900390625,778.05859375
1440,785.3113403320312,789.3406372070312,790.1465454101562,778.8644409179688
1441,787.7289428710938,782.4908447265625,789.7435913085938,780.0732421875
1442,787.7289428710938,784.5054931640625,786.5201416015625,782.087890625
1443,790.5494384765625,784.5054931640625,784.1025390625,778.4615478515625
1444,796.1904907226562,786.923095703125,790.952392578125,785.7142944335938
1445,801.025634765625,787.7289428710938,792.1611938476562,789.3406372070312
1446,797.3992919921875,783.6996459960938,788.1318969726562,786.923095703125
1447,788.937744140625,785.3113403320312,786.5201416015625,786.1171875
1448,794.981689453125,786.5201416015625,790.5494384765625,785.3113403320312
1449,798.6080322265625,792.1611938476562,792.1611938476562,792.5640869140625
1450,792.1611938476562,794.981689453125,789.7435913085938,797.3992919921875
1451,790.952392578125,794.1758422851562,795.3846435546875,796.5933837890625
1452,790.1465454101562,791.7582397460938,796.5933837890625,791.7582397460938
1453,794.1758422851562,787.3259887695312,795.3846435546875,792.1611938476562
1454,791.7582397460938,787.3259887695312,793.3699340820312,796.1904907226562
1455,786.1171875,790.1465454101562,790.5494384765625,793.3699340820312
1456,788.5347900390625,786.1171875,793.7728881835938,787.7289428710938
1457,787.3259887695312,787.3259887695312,794.981689453125,787.3259887695312
1458,781.6849975585938,790.952392578125,794.981689453125,783.6996459960938
1459,782.893798828125,786.5201416015625,793.3699340820312,782.893798828125
1460,776.8497924804688,782.4908447265625,786.5201416015625,779.6703491210938
1461,775.6410522460938,781.6849975585938,781.6849975585938,780.0732421875
1462,784.908447265625,788.1318969726562,786.5201416015625,785.7142944335938
1463,784.5054931640625,787.7289428710938,792.5640869140625,784.5054931640625
1464,792.1611938476562,780.0732421875,788.937744140625,783.6996459960938
1465,794.5787353515625,782.087890625,788.937744140625,789.3406372070312
1466,788.937744140625,787.3259887695312,786.5201416015625,790.952392578125
1467,785.3113403320312,789.7435913085938,782.4908447265625,782.893798828125
1468,789.7435913085938,784.908447265625,787.7289428710938,785.7142944335938
1469,796.5933837890625,786.5201416015625,792.1611938476562,793.3699340820312
1470,792.5640869140625,790.1465454101562,791.3552856445312,787.7289428710938
1471,793.7728881835938,788.1318969726562,792.1611938476562,786.923095703125
1472,799.010986328125,792.967041015625,791.3552856445312,788.937744140625
1473,793.7728881835938,795.7875366210938,791.3552856445312,795.3846435546875
1474,790.1465454101562,793.3699340820312,793.7728881835938,800.6226806640625
1475,790.5494384765625,796.5933837890625,794.5787353515625,796.996337890625
1476,787.7289428710938,795.3846435546875,793.7728881835938,794.1758422851562
1477,794.1758422851562,789.7435913085938,794.1758422851562,789.7435913085938
1478,789.7435913085938,790.1465454101562,795.3846435546875,780.879150390625
1479,780.0732421875,785.7142944335938,792.967041015625,774.4322509765625
1480,787.3259887695312,786.5201416015625,792.1611938476562,776.8497924804688
1481,787.7289428710938,793.3699340820312,791.3552856445312,775.6410522460938
1482,782.087890625,795.3846435546875,786.5201416015625,770.4029541015625
1483,777.2527465820312,793.3699340820312,790.5494384765625,767.5823974609375
1484,774.4322509765625,791.3552856445312,793.3699340820312,771.6116943359375
1485,774.4322509765625,788.937744140625,790.5494384765625,781.6849975585938
1486,774.8351440429688,792.5640869140625,790.5494384765625,782.4908447265625
1487,782.4908447265625,792.1611938476562,793.3699340820312,783.2966918945312
1488,785.3113403320312,790.5494384765625,792.1611938476562,782.4908447265625
1489,786.5201416015625,792.1611938476562,790.5494384765625,783.2966918945312
1490,793.3699340820312,792.967041015625,794.981689453125,789.3406372070312
1491,800.6226806640625,794.5787353515625,795.7875366210938,790.1465454101562
1492,807.4725341796875,797.8021850585938,794.1758422851562,794.5787353515625
1493,807.4725341796875,800.6226806640625,795.3846435546875,797.8021850585938
1494,805.4578857421875,802.6373901367188,795.7875366210938,795.3846435546875
1495,801.8314819335938,801.025634765625,799.4139404296875,797.8021850585938
1496,792.967041015625,792.967041015625,799.4139404296875,804.6520385742188
1497,792.5640869140625,792.5640869140625,801.025634765625,799.8168334960938
1498,796.1904907226562,795.7875366210938,799.4139404296875,791.3552856445312
1499,799.4139404296875,795.3846435546875,797.8021850585938,794.1758422851562
1500,801.8314819335938,792.967041015625,801.8314819335938,795.3846435546875
1501,797.3992919921875,792.5640869140625,799.010986328125,792.5640869140625
1502,796.1904907226562,795.3846435546875,795.7875366210938,794.5787353515625
1503,791.7582397460938,793.7728881835938,795.7875366210938,796.996337890625
1504,779.2673950195312,787.7289428710938,797.3992919921875,787.3259887695312
1505,776.8497924804688,782.087890625,801.8314819335938,785.3113403320312
1506,786.5201416015625,782.087890625,800.2197875976562,793.3699340820312
1507,788.5347900390625,783.6996459960938,799.8168334960938,799.8168334960938
1508,775.2380981445312,782.893798828125,802.2344360351562,795.3846435546875
1509,772.4176025390625,786.5201416015625,797.3992919921875,786.5201416015625
1510,781.6849975585938,792.1611938476562,794.1758422851562,790.952392578125
1511,785.3113403320312,796.1904907226562,798.2051391601562,795.7875366210938
1512,785.3113403320312,796.1904907226562,799.4139404296875,798.2051391601562
1513,788.1318969726562,796.1904907226562,797.3992919921875,799.8168334960938
1514,793.7728881835938,797.3992919921875,797.3992919921875,797.8021850585938
1515,796.996337890625,792.5640869140625,800.2197875976562,793.3699340820312
1516,805.4578857421875,793.3699340820312,800.2197875976562,799.010986328125
1517,808.2783813476562,795.7875366210938,796.1904907226562,802.6373901367188
1518,802.6373901367188,797.3992919921875,799.4139404296875,795.7875366210938
1519,806.2637329101562,800.2197875976562,799.8168334960938,797.8021850585938
1520,806.2637329101562,799.4139404296875,798.2051391601562,802.2344360351562
1521,801.4285888671875,796.996337890625,795.7875366210938,794.5787353515625
1522,797.3992919921875,797.8021850585938,794.5787353515625,795.3846435546875
1523,791.7582397460938,800.6226806640625,792.967041015625,799.4139404296875
1524,789.7435913085938,796.5933837890625,791.3552856445312,796.5933837890625
1525,790.1465454101562,795.7875366210938,794.1758422851562,797.8021850585938
1526,786.923095703125,798.2051391601562,792.1611938476562,802.2344360351562
1527,788.5347900390625,792.967041015625,788.1318969726562,796.996337890625
1528,794.981689453125,792.5640869140625,789.3406372070312,789.7435913085938
1529,790.952392578125,793.3699340820312,788.937744140625,786.923095703125
1530,789.3406372070312,796.1904907226562,792.1611938476562,788.5347900390625
1531,788.5347900390625,797.3992919921875,794.5787353515625,788.1318969726562
1532,783.2966918945312,791.3552856445312,786.923095703125,782.893798828125
1533,782.4908447265625,791.3552856445312,787.3259887695312,783.2966918945312
1534,788.937744140625,792.5640869140625,790.1465454101562,785.3113403320312
1535,786.5201416015625,786.1171875,789.7435913085938,782.4908447265625
1536,783.2966918945312,784.1025390625,792.5640869140625,788.5347900390625
1537,788.937744140625,788.937744140625,792.5640869140625,789.3406372070312
1538,794.981689453125,796.1904907226562,794.5787353515625,790.1465454101562
1539,792.1611938476562,799.8168334960938,799.8168334960938,797.8021850585938
1540,790.952392578125,803.040283203125,807.069580078125,797.3992919921875
1541,792.5640869140625,800.6226806640625,801.025634765625,790.5494384765625
1542,803.040283203125,799.8168334960938,798.6080322265625,799.8168334960938
1543,810.2930297851562,805.4578857421875,801.025634765625,803.040283203125
1544,804.2490844726562,803.040283203125,798.2051391601562,797.3992919921875
1545,800.2197875976562,799.4139404296875,796.996337890625,797.3992919921875
1546,806.2637329101562,802.2344360351562,792.967041015625,801.025634765625
1547,809.084228515625,800.2197875976562,792.967041015625,793.7728881835938
1548,800.6226806640625,796.1904907226562,795.7875366210938,784.5054931640625
1549,794.981689453125,798.6080322265625,798.6080322265625,787.3259887695312
1550,798.2051391601562,799.4139404296875,797.3992919921875,786.1171875
1551,800.6226806640625,797.3992919921875,799.010986328125,788.1318969726562
1552,796.5933837890625,800.2197875976562,800.6226806640625,795.3846435546875
1553,801.4285888671875,803.4432373046875,803.040283203125,798.6080322265625
1554,799.8168334960938,797.8021850585938,802.6373901367188,793.7728881835938
1555,792.1611938476562,796.1904907226562,799.4139404296875,787.3259887695312
1556,786.1171875,796.5933837890625,792.5640869140625,783.2966918945312
1557,786.5201416015625,788.1318969726562,789.7435913085938,786.5201416015625
1558,789.7435913085938,786.5201416015625,792.5640869140625,790.5494384765625
1559,787.7289428710938,790.1465454101562,792.5640869140625,784.1025390625
1560,784.1025390625,790.952392578125,790.1465454101562,782.893798828125
1561,784.908447265625,795.7875366210938,793.3699340820312,781.2820434570312
1562,790.5494384765625,797.8021850585938,795.7875366210938,782.087890625
1563,794.1758422851562,799.010986328125,792.967041015625,789.3406372070312
1564,790.5494384765625,797.3992919921875,792.1611938476562,788.5347900390625
1565,787.7289428710938,796.5933837890625,790.952392578125,784.5054931640625
1566,791.7582397460938,796.5933837890625,789.3406372070312,785.7142944335938
1567,792.5640869140625,793.3699340820312,791.3552856445312,790.1465454101562
1568,788.1318969726562,792.5640869140625,792.5640869140625,791.7582397460938
1569,790.952392578125,786.5201416015625,796.1904907226562,797.3992919921875
1570,799.4139404296875,784.5054931640625,794.5787353515625,794.5787353515625
1571,799.010986328125,792.5640869140625,795.7875366210938,788.937744140625
1572,792.967041015625,794.1758422851562,799.8168334960938,795.7875366210938
1573,792.5640869140625,796.996337890625,798.2051391601562,803.040283203125
1574,790.5494384765625,799.8168334960938,799.010986328125,798.6080322265625
1575,788.937744140625,801.025634765625,801.8314819335938,789.3406372070312
1576,788.1318969726562,800.2197875976562,797.3992919921875,791.7582397460938
1577,790.952392578125,796.1904907226562,796.5933837890625,794.5787353515625
1578,786.923095703125,793.7728881835938,799.8168334960938,790.5494384765625
1579,782.893798828125,792.1611938476562,803.4432373046875,790.952392578125
1580,790.952392578125,792.1611938476562,804.6520385742188,797.8021850585938
1581,796.1904907226562,791.7582397460938,800.6226806640625,799.8168334960938
1582,796.5933837890625,790.5494384765625,801.025634765625,794.1758422851562
1583,794.5787353515625,791.7582397460938,801.8314819335938,795.3846435546875
