timestamp,RAW_TP9,RAW_AF7,RAW_AF8,RAW_TP10
1,798.2051391601562,780.879150390625,779.2673950195312,787.7289428710938
2,801.8314819335938,782.087890625,784.5054931640625,794.981689453125
3,804.6520385742188,782.893798828125,782.893798828125,793.7728881835938
4,805.8607788085938,787.7289428710938,782.893798828125,794.981689453125
5,799.010986328125,788.937744140625,784.5054931640625,797.3992919921875
6,791.7582397460938,784.1025390625,782.087890625,799.8168334960938
7,794.5787353515625,780.879150390625,782.893798828125,800.6226806640625
8,796.1904907226562,780.879150390625,783.2966918945312,792.1611938476562
9,792.1611938476562,782.4908447265625,779.2673950195312,784.908447265625
10,789.7435913085938,781.2820434570312,778.4615478515625,786.923095703125
11,785.7142944335938,778.05859375,782.087890625,785.3113403320312
12,792.967041015625,782.4908447265625,784.5054931640625,789.3406372070312
13,802.6373901367188,787.7289428710938,786.923095703125,796.1904907226562
14,804.6520385742188,788.5347900390625,790.952392578125,793.7728881835938
15,804.6520385742188,786.923095703125,791.7582397460938,791.3552856445312
16,804.6520385742188,788.1318969726562,787.3259887695312,792.5640869140625
17,808.2783813476562,787.3259887695312,786.923095703125,796.1904907226562
18,811.098876953125,786.923095703125,789.3406372070312,802.2344360351562
19,818.3516235351562,788.5347900390625,790.5494384765625,810.2930297851562
20,813.5164794921875,794.981689453125,790.5494384765625,806.2637329101562
21,792.5640869140625,795.7875366210938,787.7289428710938,795.7875366210938
22,790.952392578125,790.952392578125,786.1171875,795.7875366210938
23,801.025634765625,790.952392578125,785.3113403320312,793.7728881835938
24,798.2051391601562,792.967041015625,780.0732421875,786.1171875
25,796.1904907226562,794.1758422851562,778.05859375,789.3406372070312
26,800.2197875976562,794.1758422851562,779.6703491210938,790.952392578125
27,797.8021850585938,794.5787353515625,778.8644409179688,781.2820434570312
28,798.2051391601562,792.5640869140625,782.4908447265625,782.087890625
29,802.2344360351562,791.7582397460938,784.1025390625,784.5054931640625
30,799.4139404296875,790.5494384765625,782.087890625,781.2820434570312
31,796.1904907226562,787.7289428710938,784.1025390625,786.5201416015625
32,789.7435913085938,786.923095703125,788.1318969726562,785.7142944335938
33,788.5347900390625,789.3406372070312,784.1025390625,790.952392578125
34,795.3846435546875,788.5347900390625,782.4908447265625,796.5933837890625
35,788.1318969726562,783.2966918945312,783.6996459960938,787.3259887695312
36,782.893798828125,782.087890625,782.087890625,784.5054931640625
37,793.3699340820312,784.5054931640625,782.893798828125,784.5054931640625
38,798.6080322265625,782.4908447265625,780.4761962890625,785.3113403320312
39,801.025634765625,784.5054931640625,776.4468994140625,784.5054931640625
40,797.3992919921875,787.7289428710938,780.4761962890625,783.2966918945312
41,794.981689453125,790.5494384765625,784.1025390625,784.1025390625
42,794.5787353515625,790.1465454101562,786.1171875,786.1171875
43,786.5201416015625,786.5201416015625,786.5201416015625,784.1025390625
44,788.5347900390625,784.908447265625,783.6996459960938,787.7289428710938
45,786.923095703125,780.4761962890625,776.0439453125,789.7435913085938
46,782.087890625,780.4761962890625,773.2234497070312,781.6849975585938
47,786.923095703125,786.1171875,777.2527465820312,780.0732421875
48,785.3113403320312,782.893798828125,777.6557006835938,780.0732421875
49,784.1025390625,781.6849975585938,776.4468994140625,781.2820434570312
50,786.923095703125,783.2966918945312,777.6557006835938,782.893798828125
51,793.7728881835938,784.908447265625,782.893798828125,782.893798828125
52,792.1611938476562,784.908447265625,781.6849975585938,780.879150390625
53,790.5494384765625,786.923095703125,780.879150390625,787.3259887695312
54,793.7728881835938,782.4908447265625,784.5054931640625,791.7582397460938
55,794.981689453125,776.4468994140625,786.1171875,787.7289428710938
56,798.2051391601562,777.6557006835938,786.923095703125,790.952392578125
57,792.967041015625,778.4615478515625,782.893798828125,788.937744140625
58,793.3699340820312,782.4908447265625,785.7142944335938,784.908447265625
59,792.967041015625,784.5054931640625,788.1318969726562,788.1318969726562
60,791.3552856445312,784.908447265625,779.2673950195312,788.937744140625
61,794.5787353515625,783.6996459960938,779.6703491210938,784.5054931640625
62,795.3846435546875,783.2966918945312,783.2966918945312,780.879150390625
63,799.4139404296875,783.2966918945312,785.3113403320312,787.3259887695312
64,800.2197875976562,782.4908447265625,785.7142944335938,791.7582397460938
65,805.8607788085938,785.3113403320312,784.5054931640625,790.5494384765625
66,799.8168334960938,783.6996459960938,782.087890625,786.1171875
67,785.7142944335938,781.2820434570312,780.0732421875,784.1025390625
68,780.4761962890625,782.893798828125,780.879150390625,786.923095703125
69,780.0732421875,783.6996459960938,782.893798828125,782.893798828125
70,787.3259887695312,782.893798828125,783.6996459960938,782.087890625
71,790.952392578125,786.1171875,786.923095703125,781.6849975585938
72,790.1465454101562,789.7435913085938,784.908447265625,779.6703491210938
73,796.5933837890625,788.1318969726562,781.6849975585938,783.2966918945312
74,797.8021850585938,784.908447265625,786.1171875,784.5054931640625
75,795.7875366210938,781.6849975585938,783.2966918945312,781.2820434570312
76,789.3406372070312,780.879150390625,780.0732421875,778.8644409179688
77,785.3113403320312,785.3113403320312,785.3113403320312,777.6557006835938
78,780.879150390625,786.5201416015625,783.6996459960938,775.6410522460938
79,781.6849975585938,780.879150390625,780.0732421875,782.4908447265625
80,789.7435913085938,782.087890625,783.6996459960938,786.5201416015625
81,793.3699340820312,782.4908447265625,784.5054931640625,779.6703491210938
82,792.1611938476562,782.4908447265625,783.6996459960938,778.05859375
83,792.1611938476562,783.2966918945312,782.893798828125,783.2966918945312
84,792.1611938476562,780.879150390625,780.879150390625,781.2820434570312
85,793.3699340820312,783.2966918945312,780.0732421875,785.3113403320312
86,790.1465454101562,784.5054931640625,782.4908447265625,786.923095703125
87,781.6849975585938,780.0732421875,782.893798828125,777.6557006835938
88,782.087890625,777.2527465820312,779.2673950195312,774.4322509765625
89,785.3113403320312,782.087890625,780.4761962890625,778.05859375
90,784.908447265625,783.6996459960938,780.4761962890625,782.893798828125
91,786.1171875,784.1025390625,778.4615478515625,786.1171875
92,787.7289428710938,785.3113403320312,781.2820434570312,784.1025390625
93,792.967041015625,788.5347900390625,782.893798828125,780.879150390625
94,795.7875366210938,790.952392578125,781.2820434570312,786.5201416015625
95,799.8168334960938,788.5347900390625,779.2673950195312,791.7582397460938
96,798.2051391601562,789.3406372070312,782.893798828125,787.3259887695312
97,790.952392578125,790.5494384765625,781.2820434570312,782.4908447265625
98,787.7289428710938,784.908447265625,776.8497924804688,778.4615478515625
99,790.1465454101562,783.6996459960938,780.0732421875,781.2820434570312
100,800.2197875976562,789.7435913085938,784.5054931640625,790.5494384765625
101,798.2051391601562,787.7289428710938,781.6849975585938,794.5787353515625
102,791.7582397460938,785.7142944335938,779.6703491210938,788.937744140625
103,794.5787353515625,787.3259887695312,778.4615478515625,787.7289428710938
104,794.5787353515625,787.3259887695312,777.2527465820312,784.5054931640625
105,791.7582397460938,784.908447265625,780.4761962890625,782.087890625
106,790.5494384765625,781.6849975585938,777.6557006835938,784.5054931640625
107,785.7142944335938,783.2966918945312,774.8351440429688,778.4615478515625
108,783.6996459960938,783.6996459960938,780.0732421875,772.0146484375
109,787.3259887695312,783.2966918945312,780.0732421875,776.8497924804688
110,790.5494384765625,784.5054931640625,776.8497924804688,780.0732421875
111,792.1611938476562,783.2966918945312,778.05859375,780.4761962890625
112,790.952392578125,786.5201416015625,776.4468994140625,779.6703491210938
113,786.5201416015625,789.3406372070312,775.2380981445312,782.087890625
114,785.3113403320312,785.3113403320312,778.05859375,783.6996459960938
115,789.3406372070312,779.6703491210938,778.8644409179688,783.6996459960938
116,787.3259887695312,778.8644409179688,778.4615478515625,779.6703491210938
117,783.2966918945312,780.0732421875,778.4615478515625,780.879150390625
118,787.3259887695312,778.05859375,781.2820434570312,790.5494384765625
119,791.7582397460938,778.8644409179688,781.6849975585938,785.7142944335938
120,789.3406372070312,782.893798828125,779.2673950195312,778.8644409179688
121,794.981689453125,786.5201416015625,780.0732421875,787.7289428710938
122,800.6226806640625,788.1318969726562,781.6849975585938,791.3552856445312
123,794.1758422851562,784.1025390625,781.6849975585938,786.923095703125
124,791.7582397460938,782.893798828125,783.6996459960938,788.937744140625
125,794.5787353515625,784.908447265625,782.893798828125,787.7289428710938
126,792.1611938476562,780.4761962890625,782.087890625,784.908447265625
127,790.952392578125,779.2673950195312,781.6849975585938,782.893798828125
128,792.1611938476562,785.3113403320312,785.3113403320312,782.087890625
129,791.7582397460938,784.908447265625,789.3406372070312,787.7289428710938
130,796.1904907226562,785.3113403320312,788.1318969726562,792.1611938476562
131,801.4285888671875,785.3113403320312,784.908447265625,793.3699340820312
132,800.2197875976562,783.2966918945312,784.908447265625,792.1611938476562
133,796.996337890625,781.2820434570312,784.908447265625,790.952392578125
134,793.3699340820312,784.908447265625,783.2966918945312,788.937744140625
135,787.7289428710938,787.3259887695312,786.923095703125,788.5347900390625
136,787.7289428710938,787.3259887695312,783.2966918945312,789.3406372070312
137,796.1904907226562,787.7289428710938,782.4908447265625,788.1318969726562
138,793.7728881835938,787.7289428710938,780.0732421875,784.908447265625
139,786.923095703125,784.908447265625,779.2673950195312,784.5054931640625
140,793.7728881835938,787.7289428710938,784.1025390625,790.5494384765625
141,805.054931640625,789.3406372070312,784.1025390625,794.981689453125
142,800.2197875976562,785.7142944335938,780.4761962890625,782.4908447265625
143,792.1611938476562,782.087890625,776.8497924804688,774.8351440429688
144,790.5494384765625,776.4468994140625,776.0439453125,776.8497924804688
145,788.5347900390625,775.6410522460938,774.029296875,772.8204956054688
146,793.7728881835938,779.2673950195312,774.4322509765625,770.8058471679688
147,801.025634765625,780.879150390625,778.05859375,778.4615478515625
148,803.040283203125,782.893798828125,780.879150390625,782.4908447265625
149,796.996337890625,784.5054931640625,785.3113403320312,778.05859375
150,796.1904907226562,785.3113403320312,786.1171875,773.6264038085938
151,796.996337890625,785.3113403320312,782.4908447265625,771.6116943359375
152,793.7728881835938,782.087890625,783.2966918945312,777.2527465820312
153,787.3259887695312,780.0732421875,784.1025390625,778.05859375
154,782.4908447265625,778.8644409179688,784.1025390625,774.8351440429688
155,787.3259887695312,780.0732421875,787.3259887695312,782.4908447265625
156,785.3113403320312,783.6996459960938,788.937744140625,784.1025390625
157,786.5201416015625,779.2673950195312,788.937744140625,782.893798828125
158,792.967041015625,777.2527465820312,785.7142944335938,784.908447265625
159,796.1904907226562,782.893798828125,784.1025390625,788.937744140625
160,794.981689453125,784.5054931640625,786.5201416015625,790.952392578125
161,791.3552856445312,784.908447265625,787.3259887695312,788.5347900390625
162,792.967041015625,784.5054931640625,786.5201416015625,789.3406372070312
163,792.5640869140625,784.5054931640625,788.1318969726562,788.5347900390625
164,786.923095703125,780.4761962890625,787.3259887695312,783.2966918945312
165,788.5347900390625,778.05859375,786.1171875,782.893798828125
166,787.3259887695312,780.879150390625,784.908447265625,780.0732421875
167,785.7142944335938,782.893798828125,778.8644409179688,780.4761962890625
168,791.7582397460938,783.6996459960938,778.4615478515625,783.2966918945312
169,791.3552856445312,784.5054931640625,778.8644409179688,778.4615478515625
170,790.1465454101562,786.5201416015625,776.0439453125,781.6849975585938
171,792.967041015625,787.3259887695312,780.4761962890625,789.7435913085938
172,791.3552856445312,787.7289428710938,784.908447265625,791.3552856445312
173,790.5494384765625,786.5201416015625,783.6996459960938,784.5054931640625
174,792.1611938476562,784.908447265625,784.5054931640625,781.6849975585938
175,788.937744140625,784.908447265625,784.908447265625,778.8644409179688
176,788.5347900390625,782.4908447265625,783.2966918945312,776.8497924804688
177,788.937744140625,774.8351440429688,778.8644409179688,771.6116943359375
178,785.7142944335938,774.029296875,778.05859375,774.4322509765625
179,779.6703491210938,777.2527465820312,780.4761962890625,782.893798828125
180,774.8351440429688,776.0439453125,779.6703491210938,781.2820434570312
181,778.8644409179688,777.2527465820312,781.2820434570312,784.908447265625
182,784.908447265625,779.6703491210938,778.8644409179688,788.937744140625
183,789.3406372070312,777.2527465820312,778.4615478515625,790.1465454101562
184,788.5347900390625,772.8204956054688,781.2820434570312,788.937744140625
185,787.7289428710938,773.6264038085938,783.2966918945312,784.5054931640625
186,790.5494384765625,781.2820434570312,786.923095703125,788.5347900390625
187,798.6080322265625,784.908447265625,787.3259887695312,792.1611938476562
188,796.1904907226562,782.893798828125,783.6996459960938,783.6996459960938
189,787.7289428710938,781.2820434570312,781.2820434570312,780.4761962890625
190,785.3113403320312,780.879150390625,783.6996459960938,784.1025390625
191,782.087890625,781.2820434570312,782.893798828125,786.923095703125
192,780.879150390625,782.087890625,781.6849975585938,782.893798828125
193,790.1465454101562,783.2966918945312,781.2820434570312,778.8644409179688
194,792.5640869140625,783.2966918945312,776.4468994140625,778.05859375
195,782.4908447265625,782.087890625,773.6264038085938,775.2380981445312
196,784.908447265625,783.6996459960938,774.029296875,774.029296875
197,788.937744140625,786.1171875,778.05859375,782.4908447265625
198,783.6996459960938,786.1171875,778.05859375,785.7142944335938
199,781.6849975585938,784.908447265625,778.4615478515625,780.0732421875
200,780.4761962890625,784.1025390625,781.2820434570312,774.8351440429688
201,781.2820434570312,784.1025390625,783.6996459960938,775.6410522460938
202,783.6996459960938,782.087890625,786.1171875,785.7142944335938
203,784.908447265625,782.893798828125,784.908447265625,788.5347900390625
204,785.3113403320312,780.879150390625,782.893798828125,781.6849975585938
205,784.5054931640625,776.8497924804688,785.3113403320312,782.4908447265625
206,786.923095703125,774.8351440429688,783.6996459960938,781.6849975585938
207,792.5640869140625,777.6557006835938,784.908447265625,778.8644409179688
208,797.8021850585938,783.6996459960938,788.5347900390625,784.5054931640625
209,799.010986328125,782.4908447265625,786.1171875,788.937744140625
210,795.3846435546875,778.4615478515625,783.2966918945312,788.1318969726562
211,787.3259887695312,778.4615478515625,781.6849975585938,787.3259887695312
212,787.3259887695312,781.6849975585938,783.6996459960938,790.952392578125
213,795.3846435546875,785.3113403320312,787.3259887695312,798.6080322265625
214,795.3846435546875,786.1171875,788.937744140625,798.6080322265625
215,793.3699340820312,784.5054931640625,786.923095703125,788.5347900390625
216,793.3699340820312,782.4908447265625,790.952392578125,784.1025390625
217,792.1611938476562,781.6849975585938,792.967041015625,786.1171875
218,798.6080322265625,782.087890625,789.3406372070312,788.1318969726562
219,806.6666870117188,785.3113403320312,785.3113403320312,792.5640869140625
220,795.3846435546875,782.4908447265625,783.6996459960938,791.3552856445312
221,782.087890625,781.6849975585938,782.087890625,782.4908447265625
222,787.7289428710938,784.908447265625,779.6703491210938,782.893798828125
223,793.7728881835938,786.5201416015625,786.5201416015625,785.3113403320312
224,794.5787353515625,786.1171875,788.937744140625,784.5054931640625
225,790.5494384765625,782.893798828125,785.7142944335938,786.5201416015625
226,785.3113403320312,779.6703491210938,784.908447265625,782.893798828125
227,788.937744140625,779.2673950195312,786.5201416015625,784.5054931640625
228,794.1758422851562,781.6849975585938,785.7142944335938,791.3552856445312
229,794.5787353515625,782.4908447265625,787.3259887695312,788.1318969726562
230,793.3699340820312,780.879150390625,786.923095703125,784.908447265625
231,792.5640869140625,781.6849975585938,780.879150390625,782.087890625
232,788.937744140625,784.1025390625,780.0732421875,784.908447265625
233,784.908447265625,782.4908447265625,778.05859375,786.5201416015625
234,790.5494384765625,781.6849975585938,779.6703491210938,783.6996459960938
235,799.4139404296875,782.4908447265625,780.879150390625,782.4908447265625
236,796.996337890625,780.0732421875,780.4761962890625,782.893798828125
237,788.1318969726562,776.4468994140625,782.893798828125,786.1171875
238,783.6996459960938,780.4761962890625,783.2966918945312,783.6996459960938
239,792.1611938476562,781.6849975585938,781.6849975585938,788.1318969726562
240,793.3699340820312,781.2820434570312,780.4761962890625,787.7289428710938
241,783.6996459960938,781.6849975585938,781.2820434570312,780.879150390625
242,780.0732421875,777.2527465820312,786.5201416015625,779.6703491210938
243,783.6996459960938,775.2380981445312,790.1465454101562,777.6557006835938
244,784.1025390625,776.4468994140625,790.1465454101562,774.029296875
245,791.7582397460938,779.6703491210938,786.1171875,774.4322509765625
246,796.996337890625,780.879150390625,784.1025390625,777.2527465820312
247,796.996337890625,782.087890625,785.3113403320312,778.05859375
248,799.010986328125,781.6849975585938,787.3259887695312,788.5347900390625
249,797.8021850585938,780.879150390625,783.2966918945312,790.5494384765625
250,799.4139404296875,778.8644409179688,778.05859375,783.6996459960938
251,796.5933837890625,775.6410522460938,780.0732421875,786.923095703125
252,796.996337890625,781.6849975585938,784.5054931640625,792.1611938476562
253,796.5933837890625,782.893798828125,785.7142944335938,794.1758422851562
254,799.4139404296875,780.4761962890625,785.3113403320312,792.967041015625
255,800.2197875976562,781.2820434570312,781.2820434570312,793.7728881835938
256,796.996337890625,781.2820434570312,780.4761962890625,791.3552856445312
257,794.981689453125,780.879150390625,780.879150390625,783.2966918945312
258,796.996337890625,782.893798828125,777.6557006835938,785.7142944335938
259,801.025634765625,783.6996459960938,781.6849975585938,791.7582397460938
260,796.1904907226562,779.6703491210938,784.5054931640625,792.1611938476562
261,789.3406372070312,781.6849975585938,780.4761962890625,788.5347900390625
262,787.3259887695312,778.05859375,781.6849975585938,786.5201416015625
263,786.5201416015625,776.4468994140625,779.6703491210938,786.1171875
264,788.5347900390625,780.0732421875,780.4761962890625,783.6996459960938
265,787.3259887695312,782.4908447265625,781.2820434570312,782.4908447265625
266,792.1611938476562,784.1025390625,777.2527465820312,780.4761962890625
267,796.996337890625,782.893798828125,779.6703491210938,778.05859375
268,794.1758422851562,784.1025390625,781.6849975585938,780.4761962890625
269,792.1611938476562,786.1171875,782.893798828125,784.1025390625
270,796.5933837890625,782.893798828125,780.879150390625,782.4908447265625
271,799.010986328125,778.4615478515625,775.6410522460938,785.7142944335938
272,788.937744140625,777.6557006835938,778.4615478515625,785.7142944335938
273,788.5347900390625,780.879150390625,780.879150390625,784.5054931640625
274,794.5787353515625,784.1025390625,778.05859375,791.3552856445312
275,794.5787353515625,784.908447265625,778.8644409179688,792.1611938476562
276,792.967041015625,785.3113403320312,780.879150390625,788.5347900390625
277,784.5054931640625,781.6849975585938,777.6557006835938,780.4761962890625
278,783.6996459960938,779.6703491210938,777.2527465820312,780.4761962890625
279,787.7289428710938,782.087890625,778.05859375,786.923095703125
280,790.1465454101562,783.2966918945312,782.893798828125,788.5347900390625
281,788.937744140625,784.1025390625,784.908447265625,789.3406372070312
282,784.5054931640625,787.3259887695312,786.1171875,794.981689453125
283,783.6996459960938,787.7289428710938,789.7435913085938,794.5787353515625
284,786.5201416015625,790.5494384765625,792.1611938476562,786.1171875
285,792.1611938476562,787.7289428710938,791.7582397460938,783.6996459960938
286,788.937744140625,781.2820434570312,788.1318969726562,787.3259887695312
287,782.893798828125,781.2820434570312,786.5201416015625,788.937744140625
288,783.2966918945312,779.6703491210938,785.3113403320312,783.2966918945312
289,781.6849975585938,782.4908447265625,786.1171875,784.5054931640625
290,784.5054931640625,788.5347900390625,788.5347900390625,790.1465454101562
291,789.3406372070312,786.1171875,788.937744140625,791.3552856445312
292,791.7582397460938,782.4908447265625,790.1465454101562,785.3113403320312
293,791.3552856445312,786.923095703125,793.3699340820312,783.6996459960938
294,795.3846435546875,790.5494384765625,792.967041015625,786.5201416015625
295,795.7875366210938,786.1171875,788.1318969726562,782.4908447265625
296,789.7435913085938,784.5054931640625,784.1025390625,778.4615478515625
297,789.7435913085938,788.1318969726562,786.5201416015625,782.4908447265625
298,796.996337890625,789.3406372070312,787.3259887695312,784.908447265625
299,799.4139404296875,789.7435913085938,787.3259887695312,777.2527465820312
300,800.6226806640625,789.7435913085938,787.3259887695312,777.2527465820312
301,799.010986328125,787.3259887695312,787.7289428710938,780.879150390625
302,798.6080322265625,788.5347900390625,788.937744140625,781.2820434570312
303,792.967041015625,790.5494384765625,786.5201416015625,781.2820434570312
304,787.3259887695312,786.1171875,784.908447265625,779.6703491210938
305,785.3113403320312,784.908447265625,785.7142944335938,776.8497924804688
306,788.5347900390625,789.3406372070312,786.1171875,778.05859375
307,788.5347900390625,788.5347900390625,788.1318969726562,779.6703491210938
308,785.3113403320312,789.3406372070312,788.1318969726562,778.8644409179688
309,786.1171875,787.3259887695312,787.7289428710938,789.7435913085938
310,786.1171875,784.908447265625,788.5347900390625,795.3846435546875
311,791.3552856445312,786.1171875,786.5201416015625,792.5640869140625
312,791.3552856445312,783.6996459960938,783.2966918945312,789.7435913085938
313,781.6849975585938,782.087890625,783.2966918945312,788.1318969726562
314,778.4615478515625,786.923095703125,784.908447265625,787.7289428710938
315,783.6996459960938,790.1465454101562,782.893798828125,785.7142944335938
316,790.1465454101562,787.3259887695312,784.1025390625,786.5201416015625
317,789.3406372070312,784.5054931640625,784.908447265625,788.5347900390625
318,791.7582397460938,788.1318969726562,782.4908447265625,785.3113403320312
319,795.3846435546875,787.7289428710938,779.2673950195312,780.0732421875
320,793.7728881835938,782.4908447265625,774.8351440429688,776.8497924804688
321,798.2051391601562,784.5054931640625,776.4468994140625,785.7142944335938
322,798.6080322265625,789.7435913085938,782.087890625,788.5347900390625
323,800.2197875976562,790.5494384765625,776.8497924804688,781.2820434570312
324,799.8168334960938,788.937744140625,772.8204956054688,784.5054931640625
325,799.4139404296875,789.7435913085938,778.05859375,787.7289428710938
326,803.040283203125,790.952392578125,780.879150390625,788.937744140625
327,801.8314819335938,792.1611938476562,781.6849975585938,789.3406372070312
328,802.6373901367188,793.7728881835938,785.7142944335938,787.3259887695312
329,797.3992919921875,794.1758422851562,784.908447265625,782.087890625
330,801.8314819335938,791.7582397460938,783.2966918945312,784.908447265625
331,801.025634765625,786.5201416015625,781.6849975585938,784.908447265625
332,794.981689453125,786.1171875,780.879150390625,782.087890625
333,792.1611938476562,784.1025390625,784.5054931640625,789.3406372070312
334,780.879150390625,780.879150390625,783.2966918945312,788.1318969726562
335,779.6703491210938,784.5054931640625,779.2673950195312,782.893798828125
336,779.6703491210938,784.5054931640625,782.087890625,785.3113403320312
337,780.0732421875,780.0732421875,782.087890625,782.4908447265625
338,783.6996459960938,780.4761962890625,782.087890625,779.6703491210938
339,785.3113403320312,780.879150390625,783.2966918945312,784.5054931640625
340,788.5347900390625,780.879150390625,784.5054931640625,785.3113403320312
341,790.1465454101562,780.4761962890625,784.908447265625,784.5054931640625
342,796.1904907226562,780.4761962890625,788.1318969726562,788.5347900390625
343,795.3846435546875,784.908447265625,788.937744140625,787.7289428710938
344,792.967041015625,785.7142944335938,784.908447265625,782.893798828125
345,797.8021850585938,785.7142944335938,780.879150390625,784.5054931640625
346,801.025634765625,787.3259887695312,779.6703491210938,788.937744140625
347,803.4432373046875,788.5347900390625,784.5054931640625,789.7435913085938
348,798.6080322265625,787.7289428710938,780.0732421875,787.7289428710938
349,792.967041015625,786.1171875,776.0439453125,782.087890625
350,791.7582397460938,786.5201416015625,776.4468994140625,780.879150390625
351,790.5494384765625,789.7435913085938,780.0732421875,782.893798828125
352,786.1171875,790.5494384765625,781.2820434570312,788.937744140625
353,786.923095703125,790.952392578125,783.2966918945312,788.5347900390625
354,789.3406372070312,794.5787353515625,786.1171875,783.6996459960938
355,785.3113403320312,792.5640869140625,784.5054931640625,787.7289428710938
356,788.937744140625,787.3259887695312,784.1025390625,790.952392578125
357,792.5640869140625,786.923095703125,783.2966918945312,786.1171875
358,786.923095703125,787.3259887695312,785.7142944335938,783.6996459960938
359,785.7142944335938,788.1318969726562,787.7289428710938,791.3552856445312
360,787.7289428710938,790.5494384765625,784.908447265625,789.3406372070312
361,788.937744140625,789.7435913085938,786.923095703125,780.4761962890625
362,791.7582397460938,786.5201416015625,788.5347900390625,779.2673950195312
363,795.3846435546875,786.5201416015625,786.5201416015625,782.893798828125
364,791.7582397460938,785.3113403320312,785.7142944335938,775.6410522460938
365,789.7435913085938,780.879150390625,788.1318969726562,767.9853515625
366,798.6080322265625,781.2820434570312,788.937744140625,778.05859375
367,807.069580078125,784.5054931640625,789.7435913085938,791.7582397460938
368,807.069580078125,788.1318969726562,792.967041015625,792.5640869140625
369,803.8461303710938,786.1171875,794.1758422851562,784.1025390625
370,803.8461303710938,781.2820434570312,792.1611938476562,782.4908447265625
371,804.6520385742188,780.4761962890625,789.7435913085938,788.937744140625
372,800.6226806640625,781.6849975585938,788.5347900390625,789.7435913085938
373,792.967041015625,779.2673950195312,787.3259887695312,782.4908447265625
374,789.7435913085938,781.2820434570312,780.4761962890625,783.6996459960938
375,784.5054931640625,782.087890625,775.6410522460938,783.6996459960938
376,783.6996459960938,784.1025390625,781.6849975585938,781.6849975585938
377,791.7582397460938,791.7582397460938,782.087890625,786.1171875
378,790.952392578125,787.7289428710938,782.893798828125,784.1025390625
379,782.893798828125,785.7142944335938,784.5054931640625,787.7289428710938
380,778.4615478515625,785.7142944335938,781.6849975585938,785.3113403320312
381,780.879150390625,784.908447265625,777.6557006835938,782.893798828125
382,794.5787353515625,789.3406372070312,778.8644409179688,794.1758422851562
383,796.1904907226562,788.5347900390625,780.4761962890625,794.5787353515625
384,794.1758422851562,788.5347900390625,778.8644409179688,789.7435913085938
385,797.3992919921875,787.7289428710938,780.0732421875,788.1318969726562
386,792.5640869140625,782.893798828125,780.4761962890625,785.7142944335938
387,794.1758422851562,782.893798828125,777.2527465820312,778.4615478515625
388,801.025634765625,781.2820434570312,780.879150390625,779.2673950195312
389,799.8168334960938,782.087890625,788.1318969726562,782.4908447265625
390,796.1904907226562,784.1025390625,788.937744140625,784.5054931640625
391,797.8021850585938,784.908447265625,789.7435913085938,786.5201416015625
392,801.4285888671875,786.5201416015625,791.7582397460938,793.7728881835938
393,800.6226806640625,782.4908447265625,791.7582397460938,800.2197875976562
394,798.2051391601562,782.893798828125,792.5640869140625,802.2344360351562
395,795.7875366210938,786.923095703125,793.3699340820312,800.2197875976562
396,792.1611938476562,786.923095703125,790.952392578125,794.5787353515625
397,792.1611938476562,785.7142944335938,790.5494384765625,796.1904907226562
398,798.6080322265625,784.908447265625,788.937744140625,799.8168334960938
399,800.6226806640625,786.5201416015625,785.3113403320312,794.5787353515625
400,788.1318969726562,783.2966918945312,785.7142944335938,787.7289428710938
401,778.05859375,782.4908447265625,786.5201416015625,785.3113403320312
402,778.8644409179688,784.1025390625,781.2820434570312,780.879150390625
403,782.4908447265625,782.893798828125,778.8644409179688,772.8204956054688
404,785.7142944335938,787.7289428710938,779.6703491210938,773.2234497070312
405,788.937744140625,788.937744140625,778.8644409179688,777.2527465820312
406,786.5201416015625,789.3406372070312,781.6849975585938,780.879150390625
407,788.937744140625,792.1611938476562,781.6849975585938,780.4761962890625
408,798.2051391601562,791.3552856445312,779.6703491210938,780.4761962890625
409,794.1758422851562,785.3113403320312,779.2673950195312,782.893798828125
410,794.1758422851562,783.6996459960938,775.6410522460938,776.0439453125
411,802.2344360351562,786.923095703125,772.8204956054688,775.2380981445312
412,805.4578857421875,788.5347900390625,774.4322509765625,780.0732421875
413,809.4871826171875,788.5347900390625,778.8644409179688,779.6703491210938
414,805.4578857421875,790.1465454101562,783.6996459960938,777.6557006835938
415,795.3846435546875,786.923095703125,787.7289428710938,780.4761962890625
416,787.3259887695312,780.879150390625,786.5201416015625,783.6996459960938
417,788.5347900390625,781.2820434570312,786.1171875,784.908447265625
418,798.6080322265625,786.923095703125,787.7289428710938,792.967041015625
419,803.4432373046875,786.5201416015625,787.7289428710938,795.3846435546875
420,802.2344360351562,782.087890625,791.3552856445312,796.996337890625
421,795.7875366210938,780.879150390625,793.7728881835938,803.8461303710938
422,792.5640869140625,784.1025390625,792.1611938476562,800.2197875976562
423,794.981689453125,785.7142944335938,792.5640869140625,793.7728881835938
424,797.3992919921875,783.2966918945312,795.3846435546875,793.7728881835938
425,792.5640869140625,780.0732421875,795.3846435546875,791.3552856445312
426,780.879150390625,781.6849975585938,793.7728881835938,790.5494384765625
427,774.4322509765625,782.4908447265625,794.981689453125,786.923095703125
428,778.05859375,780.4761962890625,791.3552856445312,781.2820434570312
429,784.908447265625,781.6849975585938,793.7728881835938,785.3113403320312
430,780.879150390625,782.893798828125,792.5640869140625,779.6703491210938
431,779.6703491210938,783.6996459960938,786.1171875,773.2234497070312
432,781.6849975585938,784.908447265625,785.3113403320312,776.4468994140625
433,784.1025390625,786.5201416015625,786.923095703125,780.4761962890625
434,787.7289428710938,786.1171875,788.937744140625,780.0732421875
435,787.3259887695312,784.5054931640625,787.3259887695312,778.05859375
436,783.6996459960938,781.2820434570312,787.7289428710938,782.893798828125
437,785.3113403320312,783.2966918945312,786.923095703125,782.087890625
438,788.5347900390625,787.7289428710938,784.908447265625,782.087890625
439,790.5494384765625,790.1465454101562,784.908447265625,786.5201416015625
440,790.1465454101562,789.7435913085938,784.908447265625,789.7435913085938
441,790.952392578125,787.7289428710938,784.1025390625,791.7582397460938
442,797.3992919921875,789.3406372070312,785.3113403320312,789.7435913085938
443,803.040283203125,789.3406372070312,783.6996459960938,789.7435913085938
444,804.6520385742188,787.3259887695312,788.1318969726562,793.7728881835938
445,804.6520385742188,788.5347900390625,793.7728881835938,795.7875366210938
446,792.5640869140625,786.1171875,785.3113403320312,788.1318969726562
447,782.4908447265625,783.6996459960938,783.6996459960938,783.6996459960938
448,785.3113403320312,784.1025390625,785.3113403320312,777.2527465820312
449,790.5494384765625,786.1171875,784.5054931640625,777.2527465820312
450,792.967041015625,784.908447265625,784.5054931640625,783.2966918945312
451,786.1171875,782.087890625,782.087890625,778.05859375
452,779.2673950195312,781.6849975585938,778.4615478515625,778.05859375
453,781.6849975585938,784.5054931640625,777.6557006835938,775.2380981445312
454,783.6996459960938,780.0732421875,778.4615478515625,770.4029541015625
455,788.1318969726562,780.879150390625,778.8644409179688,774.8351440429688
456,791.7582397460938,784.5054931640625,781.2820434570312,776.4468994140625
457,784.5054931640625,782.893798828125,784.908447265625,775.6410522460938
458,790.1465454101562,786.5201416015625,784.1025390625,782.893798828125
459,794.981689453125,786.5201416015625,782.893798828125,788.5347900390625
460,795.3846435546875,787.3259887695312,785.3113403320312,789.3406372070312
461,797.8021850585938,788.1318969726562,781.2820434570312,786.1171875
462,796.996337890625,789.3406372070312,778.4615478515625,782.893798828125
463,794.981689453125,790.1465454101562,784.1025390625,785.3113403320312
464,791.7582397460938,792.1611938476562,786.5201416015625,789.7435913085938
465,797.3992919921875,791.7582397460938,786.1171875,787.3259887695312
466,803.040283203125,792.1611938476562,789.7435913085938,789.3406372070312
467,801.4285888671875,790.5494384765625,786.923095703125,788.937744140625
468,804.2490844726562,786.1171875,786.1171875,788.5347900390625
469,805.8607788085938,792.1611938476562,786.923095703125,788.5347900390625
470,805.054931640625,794.981689453125,788.5347900390625,792.967041015625
471,806.6666870117188,792.1611938476562,790.1465454101562,789.3406372070312
472,801.025634765625,795.3846435546875,790.1465454101562,784.908447265625
473,796.5933837890625,796.5933837890625,790.1465454101562,786.5201416015625
474,792.1611938476562,794.1758422851562,787.7289428710938,785.7142944335938
475,792.1611938476562,794.1758422851562,787.3259887695312,787.3259887695312
476,790.5494384765625,793.3699340820312,787.7289428710938,780.879150390625
477,784.5054931640625,792.5640869140625,785.3113403320312,773.6264038085938
478,784.1025390625,791.7582397460938,782.087890625,772.4176025390625
479,784.908447265625,787.7289428710938,780.879150390625,779.6703491210938
480,784.1025390625,787.7289428710938,784.5054931640625,781.2820434570312
481,780.879150390625,784.5054931640625,781.2820434570312,774.8351440429688
482,778.4615478515625,781.2820434570312,775.2380981445312,772.8204956054688
483,781.6849975585938,784.5054931640625,776.4468994140625,777.6557006835938
484,786.1171875,785.7142944335938,780.0732421875,781.6849975585938
485,794.981689453125,786.1171875,784.5054931640625,783.2966918945312
486,797.8021850585938,787.7289428710938,786.1171875,790.5494384765625
487,797.8021850585938,788.937744140625,786.1171875,796.5933837890625
488,796.5933837890625,784.908447265625,786.5201416015625,793.3699340820312
489,795.3846435546875,782.087890625,784.5054931640625,790.1465454101562
490,801.025634765625,784.1025390625,783.2966918945312,796.5933837890625
491,805.8607788085938,784.908447265625,787.3259887695312,798.2051391601562
492,799.8168334960938,786.923095703125,791.7582397460938,794.981689453125
493,797.3992919921875,787.7289428710938,796.1904907226562,796.996337890625
494,799.4139404296875,784.908447265625,798.6080322265625,798.2051391601562
495,792.5640869140625,782.893798828125,791.3552856445312,795.3846435546875
496,794.981689453125,783.2966918945312,785.3113403320312,788.5347900390625
497,796.1904907226562,784.908447265625,791.7582397460938,786.923095703125
498,791.7582397460938,783.6996459960938,795.3846435546875,785.3113403320312
499,792.1611938476562,780.4761962890625,792.5640869140625,789.3406372070312
500,788.5347900390625,778.8644409179688,792.967041015625,790.952392578125
501,784.1025390625,782.893798828125,790.5494384765625,784.908447265625
502,784.1025390625,787.7289428710938,790.1465454101562,784.5054931640625
503,784.908447265625,788.5347900390625,796.1904907226562,779.6703491210938
504,785.7142944335938,786.923095703125,798.6080322265625,775.6410522460938
505,795.7875366210938,784.1025390625,794.1758422851562,783.2966918945312
506,802.6373901367188,780.4761962890625,790.5494384765625,788.5347900390625
507,798.2051391601562,785.7142944335938,788.5347900390625,788.5347900390625
508,790.1465454101562,788.1318969726562,788.1318969726562,785.3113403320312
509,792.5640869140625,783.6996459960938,786.923095703125,785.7142944335938
510,798.2051391601562,785.7142944335938,784.1025390625,790.952392578125
511,803.040283203125,790.1465454101562,787.7289428710938,797.8021850585938
512,807.87548828125,792.1611938476562,793.7728881835938,800.6226806640625
513,805.054931640625,792.1611938476562,794.981689453125,807.069580078125
514,796.5933837890625,789.7435913085938,792.1611938476562,807.4725341796875
515,791.3552856445312,788.1318969726562,789.3406372070312,796.1904907226562
516,799.010986328125,787.7289428710938,790.1465454101562,794.1758422851562
517,802.2344360351562,788.937744140625,790.952392578125,794.5787353515625
518,794.981689453125,790.1465454101562,787.3259887695312,790.1465454101562
519,790.952392578125,792.5640869140625,788.1318969726562,785.3113403320312
520,793.7728881835938,796.1904907226562,792.1611938476562,789.3406372070312
521,796.996337890625,797.8021850585938,791.3552856445312,795.7875366210938
522,799.010986328125,792.967041015625,790.1465454101562,790.1465454101562
523,789.3406372070312,789.3406372070312,788.1318969726562,774.029296875
524,781.2820434570312,788.1318969726562,782.893798828125,776.8497924804688
525,787.3259887695312,785.7142944335938,780.0732421875,789.3406372070312
526,788.5347900390625,788.5347900390625,780.879150390625,782.893798828125
527,790.5494384765625,792.967041015625,782.893798828125,784.5054931640625
528,789.3406372070312,795.7875366210938,785.7142944335938,790.1465454101562
529,790.5494384765625,794.981689453125,787.7289428710938,789.7435913085938
530,798.2051391601562,792.967041015625,790.1465454101562,789.7435913085938
531,797.8021850585938,793.7728881835938,791.7582397460938,792.967041015625
532,796.1904907226562,791.7582397460938,792.1611938476562,796.1904907226562
533,794.1758422851562,787.7289428710938,792.1611938476562,793.7728881835938
534,790.5494384765625,784.908447265625,790.5494384765625,793.7728881835938
535,783.2966918945312,786.923095703125,786.1171875,793.3699340820312
536,785.7142944335938,788.5347900390625,787.7289428710938,796.996337890625
537,790.1465454101562,785.3113403320312,790.952392578125,794.981689453125
538,788.1318969726562,784.908447265625,786.5201416015625,784.908447265625
539,784.1025390625,783.6996459960938,784.1025390625,778.4615478515625
540,784.5054931640625,782.087890625,789.7435913085938,776.0439453125
541,791.3552856445312,787.3259887695312,795.7875366210938,787.7289428710938
542,793.3699340820312,787.3259887695312,793.7728881835938,787.7289428710938
543,795.3846435546875,786.1171875,793.3699340820312,784.1025390625
544,793.7728881835938,789.3406372070312,794.1758422851562,782.087890625
545,786.5201416015625,788.1318969726562,787.7289428710938,774.029296875
546,784.1025390625,786.5201416015625,785.7142944335938,772.4176025390625
547,788.937744140625,788.1318969726562,788.5347900390625,778.05859375
548,792.5640869140625,791.7582397460938,785.7142944335938,782.4908447265625
549,786.1171875,789.3406372070312,781.6849975585938,777.6557006835938
550,789.3406372070312,787.7289428710938,782.893798828125,782.087890625
551,794.5787353515625,787.3259887695312,784.908447265625,781.2820434570312
552,796.5933837890625,786.5201416015625,784.908447265625,780.879150390625
553,798.6080322265625,788.5347900390625,785.3113403320312,789.3406372070312
554,794.1758422851562,790.1465454101562,785.7142944335938,789.7435913085938
555,792.5640869140625,789.3406372070312,786.1171875,790.5494384765625
556,796.5933837890625,785.7142944335938,784.5054931640625,792.5640869140625
557,799.8168334960938,787.3259887695312,781.6849975585938,792.967041015625
558,791.7582397460938,787.3259887695312,778.05859375,790.952392578125
559,781.6849975585938,787.3259887695312,776.0439453125,788.937744140625
560,783.6996459960938,786.5201416015625,782.893798828125,790.952392578125
561,787.3259887695312,784.908447265625,788.937744140625,793.7728881835938
562,791.3552856445312,782.087890625,786.923095703125,792.1611938476562
563,792.967041015625,780.879150390625,787.7289428710938,791.3552856445312
564,786.923095703125,782.893798828125,789.7435913085938,788.937744140625
565,785.3113403320312,786.1171875,785.7142944335938,784.1025390625
566,784.908447265625,784.1025390625,783.2966918945312,779.6703491210938
567,787.3259887695312,780.879150390625,787.3259887695312,785.3113403320312
568,789.7435913085938,782.087890625,790.5494384765625,787.7289428710938
569,789.3406372070312,780.879150390625,792.5640869140625,782.087890625
570,791.7582397460938,780.0732421875,786.1171875,785.7142944335938
571,788.1318969726562,780.879150390625,781.2820434570312,781.2820434570312
572,786.1171875,788.1318969726562,780.4761962890625,776.4468994140625
573,788.5347900390625,790.5494384765625,784.5054931640625,780.0732421875
574,782.087890625,786.1171875,788.1318969726562,782.893798828125
575,776.4468994140625,782.4908447265625,789.7435913085938,782.893798828125
576,781.6849975585938,782.893798828125,792.1611938476562,780.0732421875
577,787.3259887695312,780.0732421875,789.7435913085938,779.2673950195312
578,783.2966918945312,778.4615478515625,788.937744140625,774.4322509765625
579,783.6996459960938,784.1025390625,786.923095703125,776.4468994140625
580,782.4908447265625,785.7142944335938,790.952392578125,781.6849975585938
581,777.6557006835938,784.5054931640625,796.1904907226562,783.2966918945312
582,780.879150390625,784.908447265625,795.3846435546875,784.908447265625
583,778.8644409179688,782.087890625,793.7728881835938,783.2966918945312
584,781.6849975585938,784.1025390625,796.1904907226562,787.7289428710938
585,782.4908447265625,782.893798828125,794.981689453125,785.3113403320312
586,779.6703491210938,781.2820434570312,792.1611938476562,786.1171875
587,779.6703491210938,791.7582397460938,792.1611938476562,788.937744140625
588,778.4615478515625,799.010986328125,789.7435913085938,780.879150390625
589,783.2966918945312,801.4285888671875,790.5494384765625,784.5054931640625
590,785.7142944335938,800.2197875976562,789.7435913085938,784.5054931640625
591,786.1171875,800.6226806640625,787.7289428710938,779.2673950195312
592,790.952392578125,803.040283203125,789.3406372070312,778.4615478515625
593,794.1758422851562,799.010986328125,788.1318969726562,782.893798828125
594,793.3699340820312,798.2051391601562,784.908447265625,785.3113403320312
595,791.7582397460938,802.2344360351562,785.7142944335938,780.879150390625
596,790.1465454101562,803.4432373046875,787.3259887695312,776.8497924804688
597,793.7728881835938,801.025634765625,787.3259887695312,781.6849975585938
598,796.1904907226562,803.4432373046875,788.5347900390625,785.7142944335938
599,799.8168334960938,802.2344360351562,787.3259887695312,775.2380981445312
600,805.054931640625,799.010986328125,785.3113403320312,771.6116943359375
601,794.5787353515625,799.4139404296875,784.5054931640625,771.6116943359375
602,789.3406372070312,794.1758422851562,785.3113403320312,773.2234497070312
603,788.937744140625,784.1025390625,785.7142944335938,774.8351440429688
604,780.879150390625,783.2966918945312,786.5201416015625,778.4615478515625
605,772.8204956054688,784.908447265625,784.908447265625,778.05859375
606,770.0,782.4908447265625,785.7142944335938,774.8351440429688
607,768.7911987304688,782.087890625,787.3259887695312,779.6703491210938
608,771.2088012695312,779.2673950195312,786.1171875,780.4761962890625
609,784.1025390625,780.0732421875,787.7289428710938,788.937744140625
610,786.5201416015625,780.4761962890625,787.7289428710938,792.5640869140625
611,785.3113403320312,779.2673950195312,788.5347900390625,787.3259887695312
612,792.1611938476562,779.2673950195312,790.5494384765625,790.952392578125
613,797.8021850585938,778.8644409179688,788.937744140625,796.5933837890625
614,803.4432373046875,782.4908447265625,787.7289428710938,792.5640869140625
615,801.025634765625,783.6996459960938,788.5347900390625,786.923095703125
616,797.8021850585938,785.3113403320312,788.937744140625,783.2966918945312
617,802.6373901367188,788.937744140625,786.923095703125,784.1025390625
618,812.3076782226562,784.908447265625,788.5347900390625,787.3259887695312
619,814.7252807617188,783.6996459960938,795.3846435546875,786.5201416015625
620,812.3076782226562,787.7289428710938,795.3846435546875,794.1758422851562
621,805.054931640625,787.3259887695312,791.3552856445312,797.8021850585938
622,798.6080322265625,787.3259887695312,792.1611938476562,788.937744140625
623,799.8168334960938,788.5347900390625,792.967041015625,788.1318969726562
624,800.6226806640625,788.937744140625,792.1611938476562,789.7435913085938
625,797.8021850585938,787.3259887695312,787.7289428710938,785.7142944335938
626,790.952392578125,783.6996459960938,780.879150390625,774.029296875
627,785.3113403320312,781.6849975585938,779.2673950195312,771.2088012695312
628,785.7142944335938,786.1171875,783.2966918945312,778.05859375
629,786.923095703125,786.1171875,783.2966918945312,782.087890625
630,786.5201416015625,784.1025390625,782.893798828125,781.2820434570312
631,783.2966918945312,788.937744140625,785.3113403320312,778.8644409179688
632,776.0439453125,782.893798828125,782.087890625,777.2527465820312
633,773.2234497070312,776.8497924804688,781.2820434570312,771.6116943359375
634,778.05859375,779.6703491210938,780.4761962890625,771.6116943359375
635,782.087890625,782.893798828125,783.6996459960938,778.05859375
636,782.893798828125,783.6996459960938,783.2966918945312,778.4615478515625
637,784.5054931640625,787.7289428710938,780.879150390625,776.0439453125
638,788.5347900390625,793.7728881835938,784.1025390625,776.8497924804688
639,792.5640869140625,794.981689453125,780.879150390625,781.6849975585938
640,797.8021850585938,793.3699340820312,775.2380981445312,780.879150390625
641,801.8314819335938,795.7875366210938,776.0439453125,784.908447265625
642,801.4285888671875,798.2051391601562,779.6703491210938,791.3552856445312
643,805.8607788085938,801.4285888671875,779.6703491210938,791.3552856445312
644,812.7106323242188,799.010986328125,776.8497924804688,796.5933837890625
645,816.7399291992188,798.6080322265625,778.8644409179688,798.6080322265625
646,817.5457763671875,800.6226806640625,782.893798828125,794.1758422851562
647,809.89013671875,798.6080322265625,781.6849975585938,791.3552856445312
648,809.084228515625,796.996337890625,779.6703491210938,793.3699340820312
649,811.90478515625,797.3992919921875,780.0732421875,792.967041015625
650,810.2930297851562,796.1904907226562,778.8644409179688,788.5347900390625
651,803.8461303710938,792.967041015625,777.6557006835938,784.908447265625
652,795.7875366210938,792.5640869140625,778.05859375,782.893798828125
653,790.952392578125,792.5640869140625,777.2527465820312,784.5054931640625
654,789.7435913085938,789.7435913085938,778.8644409179688,784.908447265625
655,788.5347900390625,790.1465454101562,782.893798828125,791.3552856445312
656,786.5201416015625,790.952392578125,781.6849975585938,790.5494384765625
657,786.1171875,791.3552856445312,777.2527465820312,779.6703491210938
658,783.2966918945312,790.952392578125,781.6849975585938,776.4468994140625
659,784.5054931640625,785.7142944335938,781.2820434570312,779.2673950195312
660,788.1318969726562,784.1025390625,780.0732421875,784.1025390625
661,780.879150390625,781.2820434570312,785.3113403320312,782.4908447265625
662,778.8644409179688,783.6996459960938,781.2820434570312,777.6557006835938
663,786.1171875,786.5201416015625,781.2820434570312,776.0439453125
664,790.952392578125,788.1318969726562,783.2966918945312,778.05859375
665,795.3846435546875,791.3552856445312,783.6996459960938,781.2820434570312
666,794.1758422851562,788.5347900390625,784.1025390625,780.879150390625
667,788.937744140625,785.3113403320312,783.6996459960938,781.6849975585938
668,789.3406372070312,785.3113403320312,786.5201416015625,781.6849975585938
669,792.1611938476562,782.893798828125,788.937744140625,780.0732421875
670,798.2051391601562,786.1171875,788.937744140625,786.5201416015625
671,800.6226806640625,786.5201416015625,786.923095703125,791.7582397460938
672,794.5787353515625,785.7142944335938,787.7289428710938,788.937744140625
673,792.1611938476562,787.3259887695312,788.5347900390625,786.1171875
674,796.5933837890625,787.7289428710938,790.5494384765625,783.6996459960938
675,801.4285888671875,792.5640869140625,790.952392578125,788.1318969726562
676,796.996337890625,793.3699340820312,788.5347900390625,784.5054931640625
677,794.981689453125,790.952392578125,787.7289428710938,779.2673950195312
678,793.7728881835938,790.952392578125,785.7142944335938,776.4468994140625
679,793.3699340820312,787.3259887695312,783.6996459960938,772.0146484375
680,797.3992919921875,784.908447265625,780.879150390625,770.0
681,801.4285888671875,784.908447265625,780.4761962890625,768.3883056640625
682,802.2344360351562,785.7142944335938,781.6849975585938,778.4615478515625
683,793.7728881835938,785.7142944335938,785.3113403320312,780.0732421875
684,795.3846435546875,787.7289428710938,786.5201416015625,773.6264038085938
685,797.8021850585938,788.5347900390625,785.7142944335938,776.0439453125
686,796.1904907226562,787.3259887695312,786.5201416015625,780.0732421875
687,788.937744140625,789.7435913085938,786.1171875,780.879150390625
688,779.2673950195312,788.937744140625,784.5054931640625,777.2527465820312
689,778.8644409179688,786.1171875,781.2820434570312,780.0732421875
690,786.5201416015625,785.3113403320312,780.879150390625,784.908447265625
691,791.7582397460938,783.6996459960938,782.4908447265625,788.937744140625
692,790.5494384765625,785.3113403320312,791.3552856445312,784.908447265625
693,788.937744140625,786.1171875,792.967041015625,784.1025390625
694,790.1465454101562,787.7289428710938,788.937744140625,791.3552856445312
695,792.967041015625,787.7289428710938,792.1611938476562,788.5347900390625
696,794.5787353515625,786.5201416015625,791.7582397460938,787.3259887695312
697,793.7728881835938,788.5347900390625,794.5787353515625,792.967041015625
698,791.3552856445312,786.923095703125,798.2051391601562,792.967041015625
699,790.5494384765625,788.5347900390625,794.981689453125,789.7435913085938
700,792.5640869140625,789.7435913085938,790.5494384765625,788.1318969726562
701,792.967041015625,782.893798828125,793.3699340820312,786.5201416015625
702,790.1465454101562,780.879150390625,795.7875366210938,786.923095703125
703,788.1318969726562,784.5054931640625,792.967041015625,790.5494384765625
704,783.6996459960938,784.908447265625,790.952392578125,792.5640869140625
705,784.5054931640625,780.879150390625,790.1465454101562,794.981689453125
706,787.3259887695312,780.0732421875,789.3406372070312,792.1611938476562
707,782.4908447265625,778.8644409179688,786.923095703125,782.087890625
708,783.2966918945312,777.2527465820312,783.2966918945312,780.0732421875
709,781.6849975585938,777.2527465820312,781.2820434570312,780.4761962890625
710,783.6996459960938,779.6703491210938,784.908447265625,780.879150390625
711,787.7289428710938,782.4908447265625,786.5201416015625,783.6996459960938
712,786.5201416015625,781.6849975585938,787.3259887695312,783.2966918945312
713,783.2966918945312,780.879150390625,787.3259887695312,779.6703491210938
714,786.1171875,782.4908447265625,788.5347900390625,781.6849975585938
715,791.3552856445312,785.3113403320312,788.1318969726562,786.1171875
716,796.1904907226562,785.7142944335938,786.1171875,787.7289428710938
717,798.6080322265625,786.923095703125,785.7142944335938,790.1465454101562
718,795.3846435546875,786.923095703125,788.5347900390625,784.908447265625
719,796.5933837890625,783.6996459960938,787.3259887695312,785.3113403320312
720,791.7582397460938,782.087890625,786.1171875,784.5054931640625
721,790.952392578125,785.3113403320312,790.952392578125,787.3259887695312
722,798.6080322265625,786.5201416015625,792.967041015625,792.967041015625
723,796.1904907226562,787.3259887695312,790.1465454101562,789.3406372070312
724,788.937744140625,789.7435913085938,790.1465454101562,780.879150390625
725,787.3259887695312,790.1465454101562,791.3552856445312,777.2527465820312
726,796.996337890625,787.3259887695312,788.5347900390625,784.1025390625
727,799.4139404296875,787.7289428710938,786.5201416015625,785.3113403320312
728,791.7582397460938,789.3406372070312,784.1025390625,781.6849975585938
729,788.1318969726562,784.908447265625,780.879150390625,781.2820434570312
730,786.1171875,787.7289428710938,780.879150390625,777.6557006835938
731,785.3113403320312,786.5201416015625,781.6849975585938,778.4615478515625
732,782.893798828125,780.879150390625,784.5054931640625,782.4908447265625
733,786.5201416015625,785.7142944335938,786.5201416015625,788.937744140625
734,789.3406372070312,786.923095703125,790.5494384765625,789.7435913085938
735,787.3259887695312,783.6996459960938,787.7289428710938,781.6849975585938
736,786.5201416015625,784.908447265625,784.908447265625,786.923095703125
737,787.7289428710938,787.3259887695312,784.908447265625,788.1318969726562
738,791.7582397460938,787.7289428710938,784.908447265625,781.2820434570312
739,791.7582397460938,782.893798828125,785.7142944335938,783.6996459960938
740,790.5494384765625,779.6703491210938,783.6996459960938,786.5201416015625
741,792.5640869140625,782.4908447265625,783.2966918945312,782.4908447265625
742,796.5933837890625,785.3113403320312,781.6849975585938,780.4761962890625
743,798.6080322265625,788.1318969726562,781.6849975585938,784.1025390625
744,796.5933837890625,789.3406372070312,786.5201416015625,786.1171875
745,790.5494384765625,789.7435913085938,789.7435913085938,784.1025390625
746,794.1758422851562,790.5494384765625,790.1465454101562,786.1171875
747,798.6080322265625,786.923095703125,789.7435913085938,792.5640869140625
748,788.5347900390625,784.1025390625,785.7142944335938,791.7582397460938
749,786.1171875,787.7289428710938,788.5347900390625,788.1318969726562
750,784.908447265625,787.7289428710938,794.981689453125,786.923095703125
751,783.6996459960938,784.5054931640625,792.5640869140625,787.3259887695312
752,792.5640869140625,785.3113403320312,789.7435913085938,791.7582397460938
753,791.7582397460938,782.4908447265625,790.952392578125,792.5640869140625
754,792.1611938476562,783.2966918945312,794.5787353515625,792.967041015625
755,792.5640869140625,786.1171875,797.8021850585938,796.1904907226562
756,794.5787353515625,787.3259887695312,796.5933837890625,793.3699340820312
757,798.2051391601562,784.908447265625,792.967041015625,787.3259887695312
758,799.4139404296875,785.3113403320312,791.7582397460938,791.3552856445312
759,800.2197875976562,788.937744140625,792.967041015625,802.2344360351562
760,791.7582397460938,787.3259887695312,793.3699340820312,799.4139404296875
761,787.3259887695312,788.1318969726562,792.1611938476562,790.5494384765625
762,792.1611938476562,789.7435913085938,789.3406372070312,794.1758422851562
763,795.7875366210938,788.937744140625,794.1758422851562,796.5933837890625
764,802.2344360351562,791.3552856445312,796.1904907226562,796.996337890625
765,799.4139404296875,792.1611938476562,792.1611938476562,794.981689453125
766,792.5640869140625,790.5494384765625,789.7435913085938,791.3552856445312
767,793.7728881835938,789.3406372070312,788.937744140625,789.3406372070312
768,794.1758422851562,786.923095703125,789.3406372070312,784.5054931640625
769,792.1611938476562,785.3113403320312,790.1465454101562,784.5054931640625
770,788.937744140625,785.7142944335938,791.3552856445312,784.1025390625
771,790.952392578125,790.952392578125,792.967041015625,782.893798828125
772,791.7582397460938,794.1758422851562,791.7582397460938,778.05859375
773,788.5347900390625,785.3113403320312,790.1465454101562,770.0
774,786.1171875,778.8644409179688,787.3259887695312,770.8058471679688
775,783.6996459960938,779.6703491210938,783.2966918945312,770.8058471679688
776,790.1465454101562,779.2673950195312,785.3113403320312,769.5970458984375
777,791.7582397460938,784.1025390625,785.7142944335938,774.029296875
778,786.5201416015625,781.2820434570312,786.923095703125,778.8644409179688
779,792.5640869140625,782.893798828125,790.1465454101562,780.4761962890625
780,793.3699340820312,784.908447265625,789.3406372070312,776.4468994140625
781,788.937744140625,782.893798828125,789.7435913085938,778.05859375
782,791.3552856445312,782.4908447265625,792.1611938476562,780.4761962890625
783,795.3846435546875,784.1025390625,792.5640869140625,782.4908447265625
784,800.2197875976562,786.1171875,790.5494384765625,786.1171875
785,796.5933837890625,784.5054931640625,790.1465454101562,789.7435913085938
786,790.952392578125,784.5054931640625,788.1318969726562,788.937744140625
787,791.3552856445312,786.5201416015625,787.7289428710938,787.3259887695312
788,792.5640869140625,789.3406372070312,791.7582397460938,790.5494384765625
789,798.6080322265625,790.952392578125,791.3552856445312,796.996337890625
790,798.6080322265625,792.1611938476562,787.7289428710938,798.2051391601562
791,792.967041015625,793.7728881835938,787.7289428710938,789.7435913085938
792,790.1465454101562,790.952392578125,789.3406372070312,787.7289428710938
793,786.1171875,785.7142944335938,788.5347900390625,786.923095703125
794,788.5347900390625,788.5347900390625,788.937744140625,790.1465454101562
795,789.7435913085938,791.7582397460938,787.3259887695312,791.3552856445312
796,790.952392578125,789.3406372070312,785.7142944335938,788.1318969726562
797,794.1758422851562,791.7582397460938,786.5201416015625,795.3846435546875
798,797.8021850585938,796.1904907226562,795.3846435546875,802.2344360351562
799,788.1318969726562,790.5494384765625,801.025634765625,790.5494384765625
800,775.6410522460938,780.0732421875,796.5933837890625,780.0732421875
801,777.6557006835938,780.0732421875,793.7728881835938,787.3259887695312
802,776.0439453125,784.5054931640625,794.981689453125,786.5201416015625
803,776.8497924804688,782.087890625,791.7582397460938,777.6557006835938
804,787.3259887695312,783.6996459960938,790.5494384765625,781.6849975585938
805,790.5494384765625,787.3259887695312,792.1611938476562,784.5054931640625
806,784.1025390625,788.1318969726562,789.3406372070312,780.879150390625
807,787.3259887695312,785.3113403320312,786.5201416015625,779.6703491210938
808,790.5494384765625,783.2966918945312,788.937744140625,780.879150390625
809,787.7289428710938,782.893798828125,789.7435913085938,785.7142944335938
810,787.3259887695312,783.6996459960938,785.3113403320312,784.908447265625
811,788.937744140625,786.923095703125,784.5054931640625,780.0732421875
812,787.3259887695312,786.923095703125,786.5201416015625,786.1171875
813,784.1025390625,782.087890625,786.1171875,784.908447265625
814,784.908447265625,784.5054931640625,790.1465454101562,782.4908447265625
815,789.3406372070312,789.3406372070312,789.3406372070312,784.1025390625
816,787.3259887695312,788.937744140625,784.908447265625,776.4468994140625
817,788.937744140625,788.5347900390625,788.5347900390625,784.1025390625
818,792.967041015625,788.5347900390625,786.923095703125,786.1171875
819,792.5640869140625,790.5494384765625,783.6996459960938,788.1318969726562
820,792.5640869140625,790.5494384765625,789.3406372070312,791.3552856445312
821,790.952392578125,793.3699340820312,788.5347900390625,786.923095703125
822,786.923095703125,794.1758422851562,786.923095703125,784.1025390625
823,791.7582397460938,790.5494384765625,786.1171875,784.5054931640625
824,799.010986328125,790.1465454101562,783.2966918945312,792.1611938476562
825,800.2197875976562,792.967041015625,785.3113403320312,791.7582397460938
826,797.3992919921875,792.1611938476562,784.908447265625,784.1025390625
827,792.967041015625,790.5494384765625,784.5054931640625,783.2966918945312
828,783.6996459960938,789.7435913085938,782.4908447265625,780.4761962890625
829,784.908447265625,788.1318969726562,780.4761962890625,777.2527465820312
830,790.1465454101562,789.3406372070312,778.05859375,773.6264038085938
831,794.1758422851562,790.5494384765625,784.1025390625,773.6264038085938
832,793.3699340820312,789.3406372070312,784.908447265625,771.6116943359375
833,788.1318969726562,784.5054931640625,782.4908447265625,769.5970458984375
834,788.5347900390625,787.7289428710938,782.087890625,777.2527465820312
835,790.5494384765625,792.967041015625,780.879150390625,784.908447265625
836,787.7289428710938,791.3552856445312,780.0732421875,786.1171875
837,780.0732421875,792.5640869140625,776.4468994140625,778.8644409179688
838,782.893798828125,791.7582397460938,771.6116943359375,776.0439453125
839,786.1171875,790.1465454101562,772.8204956054688,777.2527465820312
840,786.5201416015625,791.3552856445312,778.05859375,780.0732421875
841,784.908447265625,787.7289428710938,778.8644409179688,776.8497924804688
842,779.6703491210938,785.7142944335938,780.0732421875,772.0146484375
843,782.087890625,788.937744140625,781.2820434570312,780.879150390625
844,788.937744140625,789.7435913085938,782.087890625,784.908447265625
845,790.5494384765625,790.1465454101562,784.908447265625,785.7142944335938
846,786.5201416015625,790.1465454101562,786.1171875,782.893798828125
847,785.7142944335938,787.3259887695312,786.5201416015625,784.908447265625
848,784.5054931640625,783.6996459960938,783.2966918945312,786.1171875
849,784.1025390625,781.6849975585938,780.4761962890625,778.8644409179688
850,786.1171875,782.087890625,782.4908447265625,780.0732421875
851,782.087890625,779.2673950195312,782.4908447265625,774.8351440429688
852,778.4615478515625,779.6703491210938,783.6996459960938,776.0439453125
853,783.6996459960938,784.5054931640625,786.1171875,781.6849975585938
854,786.1171875,784.1025390625,786.1171875,782.087890625
855,791.3552856445312,786.5201416015625,788.5347900390625,789.7435913085938
856,791.7582397460938,787.7289428710938,787.3259887695312,788.1318969726562
857,785.3113403320312,786.5201416015625,785.3113403320312,782.4908447265625
858,788.937744140625,790.952392578125,786.5201416015625,789.7435913085938
859,791.3552856445312,792.1611938476562,790.1465454101562,793.7728881835938
860,792.1611938476562,789.7435913085938,789.3406372070312,789.7435913085938
861,799.010986328125,786.5201416015625,790.952392578125,789.7435913085938
862,797.8021850585938,788.1318969726562,787.7289428710938,786.5201416015625
863,789.7435913085938,790.952392578125,786.5201416015625,787.7289428710938
864,794.5787353515625,793.7728881835938,791.7582397460938,785.7142944335938
865,796.1904907226562,792.967041015625,788.5347900390625,784.908447265625
866,792.5640869140625,789.3406372070312,788.5347900390625,788.1318969726562
867,796.996337890625,792.1611938476562,791.3552856445312,791.3552856445312
868,796.5933837890625,792.5640869140625,791.3552856445312,792.1611938476562
869,791.7582397460938,790.952392578125,788.5347900390625,785.3113403320312
870,794.981689453125,789.3406372070312,788.1318969726562,786.5201416015625
871,795.3846435546875,789.7435913085938,787.3259887695312,792.5640869140625
872,789.7435913085938,788.5347900390625,786.923095703125,787.7289428710938
873,788.1318969726562,785.3113403320312,784.5054931640625,783.6996459960938
874,784.908447265625,784.5054931640625,783.2966918945312,782.893798828125
875,786.923095703125,782.087890625,780.0732421875,786.1171875
876,794.1758422851562,782.087890625,780.879150390625,794.1758422851562
877,793.3699340820312,780.879150390625,783.6996459960938,790.5494384765625
878,784.1025390625,777.6557006835938,784.5054931640625,780.0732421875
879,782.087890625,777.2527465820312,786.923095703125,776.0439453125
880,790.952392578125,782.4908447265625,788.1318969726562,780.4761962890625
881,796.5933837890625,784.5054931640625,788.5347900390625,784.1025390625
882,792.5640869140625,778.05859375,782.087890625,778.4615478515625
883,783.6996459960938,775.2380981445312,782.4908447265625,776.4468994140625
884,785.3113403320312,779.6703491210938,787.3259887695312,778.8644409179688
885,792.1611938476562,777.6557006835938,788.1318969726562,786.5201416015625
886,786.923095703125,776.8497924804688,783.2966918945312,792.1611938476562
887,782.4908447265625,781.2820434570312,782.087890625,783.2966918945312
888,785.7142944335938,780.879150390625,783.2966918945312,779.6703491210938
889,784.1025390625,783.6996459960938,785.3113403320312,783.6996459960938
890,785.7142944335938,783.6996459960938,787.7289428710938,781.2820434570312
891,790.5494384765625,782.4908447265625,783.2966918945312,777.6557006835938
892,792.967041015625,786.1171875,780.879150390625,776.8497924804688
893,786.923095703125,784.1025390625,782.087890625,775.2380981445312
894,784.5054931640625,782.893798828125,783.2966918945312,778.4615478515625
895,788.1318969726562,782.893798828125,781.6849975585938,776.4468994140625
896,793.7728881835938,783.2966918945312,779.6703491210938,776.0439453125
897,797.8021850585938,786.5201416015625,782.4908447265625,781.6849975585938
898,790.952392578125,785.3113403320312,785.3113403320312,777.6557006835938
899,786.5201416015625,785.7142944335938,783.2966918945312,773.2234497070312
900,783.6996459960938,785.7142944335938,780.879150390625,774.4322509765625
901,781.6849975585938,785.7142944335938,779.6703491210938,774.8351440429688
902,784.5054931640625,785.7142944335938,780.0732421875,773.6264038085938
903,788.937744140625,789.7435913085938,785.3113403320312,774.4322509765625
904,782.4908447265625,786.923095703125,784.1025390625,777.2527465820312
905,781.2820434570312,784.5054931640625,782.4908447265625,779.2673950195312
906,788.1318969726562,786.1171875,784.5054931640625,777.2527465820312
907,789.7435913085938,786.1171875,780.4761962890625,772.8204956054688
908,790.952392578125,790.5494384765625,784.1025390625,770.4029541015625
909,793.7728881835938,790.5494384765625,789.3406372070312,771.2088012695312
910,796.1904907226562,789.7435913085938,785.3113403320312,771.2088012695312
911,800.6226806640625,790.952392578125,788.937744140625,775.2380981445312
912,800.6226806640625,788.937744140625,794.981689453125,783.6996459960938
913,794.981689453125,790.952392578125,794.5787353515625,784.5054931640625
914,790.5494384765625,791.3552856445312,794.981689453125,778.8644409179688
915,789.3406372070312,791.3552856445312,792.967041015625,774.8351440429688
916,792.5640869140625,785.7142944335938,787.7289428710938,784.5054931640625
917,788.5347900390625,780.4761962890625,788.937744140625,786.923095703125
918,782.4908447265625,783.2966918945312,792.1611938476562,777.6557006835938
919,780.4761962890625,786.1171875,788.937744140625,776.0439453125
920,784.908447265625,788.5347900390625,787.3259887695312,786.1171875
921,786.5201416015625,785.3113403320312,786.923095703125,785.3113403320312
922,782.893798828125,780.0732421875,788.1318969726562,778.8644409179688
923,790.1465454101562,782.4908447265625,790.1465454101562,783.2966918945312
924,795.7875366210938,789.3406372070312,793.7728881835938,783.6996459960938
925,792.1611938476562,788.1318969726562,790.952392578125,780.879150390625
926,792.967041015625,785.3113403320312,784.5054931640625,781.6849975585938
927,799.010986328125,782.4908447265625,784.908447265625,788.5347900390625
928,797.3992919921875,786.1171875,788.5347900390625,792.1611938476562
929,789.3406372070312,786.5201416015625,787.7289428710938,785.3113403320312
930,790.952392578125,787.7289428710938,787.7289428710938,784.908447265625
931,794.1758422851562,789.7435913085938,787.3259887695312,792.967041015625
932,795.7875366210938,785.7142944335938,789.3406372070312,798.2051391601562
933,801.025634765625,788.5347900390625,791.3552856445312,794.981689453125
934,797.3992919921875,790.952392578125,786.923095703125,788.5347900390625
935,791.3552856445312,789.7435913085938,782.087890625,786.923095703125
936,799.010986328125,787.7289428710938,787.7289428710938,790.1465454101562
937,800.2197875976562,787.3259887695312,790.952392578125,789.3406372070312
938,800.6226806640625,787.7289428710938,788.5347900390625,792.1611938476562
939,799.010986328125,791.7582397460938,786.923095703125,792.1611938476562
940,792.967041015625,789.7435913085938,783.6996459960938,779.2673950195312
941,798.2051391601562,785.7142944335938,777.2527465820312,777.6557006835938
942,794.1758422851562,782.087890625,774.4322509765625,776.8497924804688
943,792.5640869140625,779.2673950195312,778.8644409179688,784.1025390625
944,790.1465454101562,782.4908447265625,779.6703491210938,791.3552856445312
945,781.6849975585938,783.6996459960938,778.4615478515625,785.7142944335938
946,786.5201416015625,784.5054931640625,779.6703491210938,789.7435913085938
947,794.5787353515625,785.3113403320312,784.5054931640625,794.5787353515625
948,796.1904907226562,787.3259887695312,785.3113403320312,795.7875366210938
949,796.1904907226562,788.937744140625,784.908447265625,792.5640869140625
950,797.8021850585938,786.5201416015625,784.908447265625,789.7435913085938
951,796.996337890625,785.7142944335938,784.5054931640625,790.5494384765625
952,797.3992919921875,783.2966918945312,784.1025390625,787.3259887695312
953,796.1904907226562,783.6996459960938,784.5054931640625,783.6996459960938
954,788.5347900390625,782.4908447265625,782.4908447265625,780.0732421875
955,781.6849975585938,779.6703491210938,778.4615478515625,774.4322509765625
956,778.05859375,778.05859375,779.6703491210938,774.029296875
957,785.7142944335938,782.087890625,779.6703491210938,779.2673950195312
958,791.7582397460938,786.923095703125,781.2820434570312,782.893798828125
959,790.952392578125,786.923095703125,781.6849975585938,784.1025390625
960,786.923095703125,788.1318969726562,784.1025390625,783.2966918945312
961,782.4908447265625,789.7435913085938,788.937744140625,783.6996459960938
962,788.937744140625,788.1318969726562,789.7435913085938,787.7289428710938
963,791.7582397460938,788.1318969726562,789.7435913085938,788.937744140625
964,786.1171875,787.3259887695312,784.908447265625,785.3113403320312
965,785.3113403320312,784.908447265625,784.5054931640625,781.6849975585938
966,788.5347900390625,782.4908447265625,789.3406372070312,783.6996459960938
967,790.5494384765625,785.3113403320312,790.1465454101562,787.7289428710938
968,792.967041015625,790.1465454101562,788.5347900390625,788.5347900390625
969,798.2051391601562,790.5494384765625,790.1465454101562,788.5347900390625
970,796.996337890625,789.7435913085938,789.3406372070312,794.5787353515625
971,792.967041015625,791.3552856445312,788.1318969726562,794.981689453125
972,797.3992919921875,790.952392578125,786.1171875,786.923095703125
973,800.6226806640625,788.937744140625,782.893798828125,789.7435913085938
974,805.8607788085938,789.3406372070312,779.2673950195312,795.7875366210938
975,807.069580078125,791.3552856445312,779.2673950195312,793.7728881835938
976,794.981689453125,792.967041015625,778.8644409179688,783.2966918945312
977,793.7728881835938,790.952392578125,780.4761962890625,783.2966918945312
978,798.2051391601562,789.7435913085938,783.6996459960938,786.923095703125
979,799.010986328125,791.3552856445312,780.879150390625,788.937744140625
980,796.1904907226562,792.967041015625,781.2820434570312,782.893798828125
981,787.3259887695312,786.1171875,779.2673950195312,773.6264038085938
982,789.7435913085938,787.7289428710938,773.6264038085938,778.4615478515625
983,794.1758422851562,793.7728881835938,777.2527465820312,784.908447265625
984,794.981689453125,792.967041015625,782.4908447265625,792.1611938476562
985,789.3406372070312,788.5347900390625,781.6849975585938,788.1318969726562
986,789.3406372070312,786.5201416015625,778.05859375,779.6703491210938
987,799.8168334960938,788.1318969726562,779.2673950195312,782.087890625
988,805.054931640625,782.893798828125,781.6849975585938,786.5201416015625
989,802.2344360351562,780.4761962890625,779.2673950195312,787.3259887695312
990,802.2344360351562,783.6996459960938,774.8351440429688,785.3113403320312
991,800.6226806640625,788.1318969726562,776.4468994140625,785.3113403320312
992,800.2197875976562,788.937744140625,776.0439453125,784.5054931640625
993,800.6226806640625,784.908447265625,777.2527465820312,790.1465454101562
994,800.2197875976562,782.893798828125,779.2673950195312,792.1611938476562
995,800.6226806640625,780.879150390625,780.4761962890625,783.6996459960938
996,793.7728881835938,782.893798828125,784.908447265625,784.5054931640625
997,784.5054931640625,781.6849975585938,784.1025390625,782.893798828125
998,786.5201416015625,778.8644409179688,778.05859375,780.4761962890625
999,798.2051391601562,780.0732421875,774.4322509765625,786.5201416015625
1000,792.1611938476562,779.2673950195312,777.2527465820312,789.3406372070312
1001,784.5054931640625,780.0732421875,782.087890625,784.1025390625
1002,786.5201416015625,778.4615478515625,784.1025390625,782.087890625
1003,789.7435913085938,780.879150390625,784.1025390625,788.1318969726562
1004,795.3846435546875,788.1318969726562,788.1318969726562,796.1904907226562
1005,794.981689453125,786.1171875,789.7435913085938,797.8021850585938
1006,793.3699340820312,787.3259887695312,786.1171875,788.5347900390625
1007,794.5787353515625,790.5494384765625,788.937744140625,785.3113403320312
1008,787.7289428710938,788.937744140625,790.1465454101562,787.7289428710938
1009,785.3113403320312,785.7142944335938,786.923095703125,784.5054931640625
1010,789.7435913085938,786.5201416015625,784.1025390625,782.087890625
1011,783.2966918945312,785.7142944335938,780.4761962890625,780.4761962890625
1012,779.2673950195312,779.6703491210938,778.05859375,780.4761962890625
1013,783.6996459960938,782.4908447265625,779.2673950195312,787.7289428710938
1014,789.7435913085938,785.7142944335938,779.6703491210938,788.5347900390625
1015,791.7582397460938,786.923095703125,781.2820434570312,786.5201416015625
1016,792.5640869140625,790.1465454101562,788.937744140625,797.8021850585938
1017,792.5640869140625,792.967041015625,791.7582397460938,799.8168334960938
1018,794.5787353515625,793.7728881835938,787.3259887695312,792.1611938476562
1019,799.4139404296875,796.1904907226562,791.3552856445312,796.1904907226562
1020,800.2197875976562,792.1611938476562,790.1465454101562,800.6226806640625
1021,794.981689453125,784.908447265625,787.3259887695312,791.7582397460938
1022,790.1465454101562,787.3259887695312,789.3406372070312,782.4908447265625
1023,790.5494384765625,788.937744140625,787.3259887695312,784.5054931640625
1024,790.5494384765625,789.7435913085938,787.3259887695312,795.7875366210938
1025,792.1611938476562,790.952392578125,788.1318969726562,797.3992919921875
1026,793.7728881835938,791.7582397460938,789.3406372070312,789.7435913085938
1027,790.1465454101562,793.7728881835938,784.5054931640625,787.7289428710938
1028,788.5347900390625,791.7582397460938,781.2820434570312,791.3552856445312
1029,788.1318969726562,789.7435913085938,784.908447265625,788.937744140625
1030,790.1465454101562,790.952392578125,786.923095703125,789.7435913085938
1031,786.923095703125,784.908447265625,791.3552856445312,789.7435913085938
1032,783.6996459960938,780.879150390625,792.1611938476562,786.1171875
1033,790.952392578125,782.893798828125,785.7142944335938,785.3113403320312
1034,796.5933837890625,784.908447265625,785.7142944335938,787.3259887695312
1035,799.8168334960938,787.7289428710938,787.3259887695312,791.3552856445312
1036,799.8168334960938,786.1171875,788.5347900390625,789.7435913085938
1037,794.1758422851562,783.2966918945312,787.7289428710938,789.3406372070312
1038,792.5640869140625,782.893798828125,784.5054931640625,785.3113403320312
1039,794.1758422851562,784.5054931640625,785.7142944335938,788.1318969726562
1040,796.996337890625,786.923095703125,790.1465454101562,796.996337890625
1041,795.7875366210938,791.7582397460938,794.5787353515625,796.996337890625
1042,791.7582397460938,792.967041015625,796.5933837890625,794.5787353515625
1043,790.1465454101562,787.7289428710938,795.3846435546875,786.923095703125
1044,792.5640869140625,786.1171875,794.1758422851562,785.7142944335938
1045,792.5640869140625,788.937744140625,794.1758422851562,790.5494384765625
1046,786.923095703125,790.952392578125,790.5494384765625,789.7435913085938
1047,787.7289428710938,792.1611938476562,788.937744140625,792.1611938476562
1048,788.5347900390625,791.3552856445312,788.937744140625,789.7435913085938
1049,786.923095703125,781.2820434570312,780.879150390625,779.6703491210938
1050,790.5494384765625,777.2527465820312,774.8351440429688,780.4761962890625
1051,792.1611938476562,779.2673950195312,778.05859375,786.5201416015625
1052,790.5494384765625,780.879150390625,780.4761962890625,780.879150390625
1053,790.1465454101562,782.893798828125,777.2527465820312,775.2380981445312
1054,788.1318969726562,783.6996459960938,777.2527465820312,784.5054931640625
1055,792.5640869140625,783.2966918945312,778.8644409179688,792.967041015625
1056,796.5933837890625,781.2820434570312,779.6703491210938,788.937744140625
1057,790.5494384765625,780.879150390625,780.0732421875,789.3406372070312
1058,788.1318969726562,786.923095703125,780.0732421875,790.5494384765625
1059,788.5347900390625,790.952392578125,782.087890625,790.952392578125
1060,796.1904907226562,792.967041015625,786.5201416015625,796.996337890625
1061,804.2490844726562,794.981689453125,786.923095703125,796.5933837890625
1062,795.7875366210938,792.5640869140625,784.908447265625,786.923095703125
1063,791.3552856445312,788.1318969726562,785.3113403320312,777.6557006835938
1064,796.5933837890625,789.3406372070312,783.6996459960938,776.0439453125
1065,797.8021850585938,792.967041015625,783.2966918945312,780.0732421875
1066,803.040283203125,791.3552856445312,784.1025390625,791.3552856445312
1067,801.8314819335938,787.3259887695312,780.0732421875,788.1318969726562
1068,793.7728881835938,789.3406372070312,783.2966918945312,772.0146484375
1069,786.923095703125,792.1611938476562,784.908447265625,773.6264038085938
1070,787.7289428710938,791.7582397460938,783.6996459960938,779.2673950195312
1071,796.5933837890625,794.1758422851562,788.5347900390625,783.6996459960938
1072,798.2051391601562,795.3846435546875,788.937744140625,782.4908447265625
1073,793.3699340820312,791.7582397460938,784.1025390625,779.2673950195312
1074,788.5347900390625,788.1318969726562,788.5347900390625,775.2380981445312
1075,786.5201416015625,786.5201416015625,792.5640869140625,770.8058471679688
1076,784.5054931640625,792.5640869140625,789.3406372070312,772.8204956054688
1077,788.5347900390625,793.3699340820312,783.6996459960938,777.2527465820312
1078,788.937744140625,790.952392578125,781.2820434570312,779.6703491210938
1079,786.923095703125,794.1758422851562,786.5201416015625,776.4468994140625
1080,786.1171875,793.7728881835938,784.908447265625,777.2527465820312
1081,786.5201416015625,791.3552856445312,784.5054931640625,781.6849975585938
1082,794.1758422851562,791.3552856445312,787.3259887695312,781.6849975585938
1083,789.3406372070312,791.3552856445312,785.7142944335938,778.05859375
1084,788.5347900390625,790.952392578125,790.5494384765625,781.6849975585938
1085,792.967041015625,791.3552856445312,792.1611938476562,788.5347900390625
1086,793.7728881835938,793.3699340820312,788.937744140625,794.5787353515625
1087,796.5933837890625,794.1758422851562,787.3259887695312,794.1758422851562
1088,791.3552856445312,791.7582397460938,787.3259887695312,783.6996459960938
1089,788.5347900390625,790.1465454101562,789.7435913085938,783.6996459960938
1090,794.5787353515625,790.1465454101562,791.7582397460938,789.3406372070312
1091,799.4139404296875,792.967041015625,790.952392578125,786.5201416015625
1092,792.967041015625,791.7582397460938,787.3259887695312,780.0732421875
1093,787.3259887695312,792.5640869140625,785.3113403320312,782.4908447265625
1094,787.3259887695312,792.967041015625,787.3259887695312,787.3259887695312
1095,784.5054931640625,789.3406372070312,789.3406372070312,785.7142944335938
1096,788.5347900390625,789.7435913085938,787.7289428710938,786.5201416015625
1097,796.1904907226562,791.3552856445312,786.923095703125,788.5347900390625
1098,796.996337890625,792.1611938476562,788.5347900390625,789.3406372070312
1099,791.7582397460938,790.952392578125,787.3259887695312,787.3259887695312
1100,787.7289428710938,788.937744140625,782.087890625,782.087890625
1101,784.908447265625,786.5201416015625,780.0732421875,780.879150390625
1102,784.1025390625,787.3259887695312,779.2673950195312,777.2527465820312
1103,787.3259887695312,790.1465454101562,782.087890625,777.2527465820312
1104,787.3259887695312,791.7582397460938,786.923095703125,780.0732421875
1105,784.5054931640625,787.7289428710938,786.923095703125,776.4468994140625
1106,788.5347900390625,786.1171875,784.5054931640625,778.4615478515625
1107,792.1611938476562,790.5494384765625,786.1171875,782.893798828125
1108,786.923095703125,789.7435913085938,785.7142944335938,778.8644409179688
1109,785.3113403320312,788.937744140625,783.6996459960938,776.8497924804688
1110,786.1171875,788.1318969726562,782.893798828125,781.2820434570312
1111,785.7142944335938,787.7289428710938,786.1171875,786.1171875
1112,784.1025390625,782.893798828125,785.3113403320312,781.2820434570312
1113,780.0732421875,779.6703491210938,780.879150390625,775.2380981445312
1114,776.8497924804688,782.087890625,783.6996459960938,779.6703491210938
1115,781.6849975585938,784.5054931640625,784.1025390625,783.6996459960938
1116,783.2966918945312,786.923095703125,779.2673950195312,783.2966918945312
1117,787.7289428710938,786.923095703125,780.879150390625,783.2966918945312
1118,790.5494384765625,786.923095703125,782.4908447265625,782.4908447265625
1119,784.5054931640625,785.7142944335938,777.6557006835938,781.6849975585938
1120,778.4615478515625,786.923095703125,775.6410522460938,781.6849975585938
1121,781.6849975585938,791.7582397460938,781.2820434570312,782.893798828125
1122,790.1465454101562,795.3846435546875,784.5054931640625,784.908447265625
1123,792.1611938476562,791.7582397460938,781.2820434570312,782.893798828125
1124,792.967041015625,786.923095703125,780.0732421875,792.967041015625
1125,781.2820434570312,788.5347900390625,780.0732421875,788.937744140625
1126,781.6849975585938,787.3259887695312,780.0732421875,783.2966918945312
1127,787.7289428710938,786.5201416015625,780.879150390625,785.3113403320312
1128,786.1171875,789.3406372070312,781.6849975585938,778.4615478515625
1129,784.1025390625,790.1465454101562,781.2820434570312,777.6557006835938
1130,782.087890625,789.3406372070312,779.6703491210938,777.2527465820312
1131,788.5347900390625,786.1171875,779.6703491210938,779.6703491210938
1132,792.1611938476562,788.1318969726562,781.2820434570312,785.3113403320312
1133,794.981689453125,791.7582397460938,783.2966918945312,785.7142944335938
1134,798.6080322265625,789.7435913085938,782.4908447265625,783.2966918945312
1135,794.5787353515625,789.3406372070312,782.893798828125,784.908447265625
1136,791.3552856445312,790.1465454101562,784.908447265625,787.3259887695312
1137,791.7582397460938,788.5347900390625,785.7142944335938,784.908447265625
1138,791.7582397460938,786.1171875,787.7289428710938,786.1171875
1139,790.1465454101562,782.4908447265625,787.7289428710938,785.3113403320312
1140,788.937744140625,784.908447265625,784.1025390625,780.0732421875
1141,792.967041015625,787.7289428710938,782.4908447265625,785.3113403320312
1142,798.2051391601562,788.5347900390625,785.3113403320312,791.7582397460938
1143,793.7728881835938,790.1465454101562,787.3259887695312,791.3552856445312
1144,789.3406372070312,788.5347900390625,788.5347900390625,787.3259887695312
1145,787.3259887695312,786.1171875,787.3259887695312,787.3259887695312
1146,789.7435913085938,784.1025390625,784.908447265625,790.1465454101562
1147,793.3699340820312,782.893798828125,783.6996459960938,791.3552856445312
1148,794.1758422851562,782.893798828125,783.6996459960938,790.5494384765625
1149,796.996337890625,780.879150390625,784.5054931640625,790.1465454101562
1150,796.996337890625,781.2820434570312,783.2966918945312,792.5640869140625
1151,795.3846435546875,785.7142944335938,784.1025390625,792.967041015625
1152,794.5787353515625,786.5201416015625,780.879150390625,782.893798828125
1153,797.8021850585938,784.908447265625,779.2673950195312,782.893798828125
1154,797.3992919921875,788.937744140625,783.2966918945312,786.5201416015625
1155,794.5787353515625,788.5347900390625,783.2966918945312,779.2673950195312
1156,794.5787353515625,787.3259887695312,782.893798828125,775.6410522460938
1157,798.2051391601562,786.5201416015625,782.893798828125,780.879150390625
1158,801.4285888671875,787.3259887695312,784.5054931640625,778.8644409179688
1159,800.2197875976562,785.7142944335938,781.6849975585938,779.6703491210938
1160,796.1904907226562,786.1171875,780.4761962890625,783.2966918945312
1161,793.3699340820312,788.937744140625,786.1171875,782.893798828125
1162,794.981689453125,788.1318969726562,788.5347900390625,788.5347900390625
1163,798.2051391601562,785.3113403320312,784.5054931640625,788.1318969726562
1164,794.1758422851562,782.087890625,781.6849975585938,782.893798828125
1165,787.3259887695312,786.1171875,784.5054931640625,788.5347900390625
1166,787.7289428710938,794.5787353515625,784.1025390625,787.3259887695312
1167,787.3259887695312,796.1904907226562,782.087890625,782.4908447265625
1168,784.5054931640625,790.952392578125,782.893798828125,781.2820434570312
1169,786.923095703125,789.7435913085938,782.087890625,780.4761962890625
1170,789.7435913085938,791.3552856445312,780.0732421875,779.6703491210938
1171,785.3113403320312,792.5640869140625,780.0732421875,779.2673950195312
1172,782.4908447265625,790.952392578125,780.4761962890625,779.6703491210938
1173,788.5347900390625,789.7435913085938,780.4761962890625,780.0732421875
1174,796.1904907226562,792.5640869140625,780.0732421875,781.6849975585938
1175,797.8021850585938,793.3699340820312,780.879150390625,781.2820434570312
1176,792.967041015625,789.3406372070312,780.4761962890625,778.4615478515625
1177,789.7435913085938,787.7289428710938,782.4908447265625,779.6703491210938
1178,794.5787353515625,787.7289428710938,784.5054931640625,782.087890625
1179,797.3992919921875,785.7142944335938,781.2820434570312,780.0732421875
1180,786.923095703125,781.6849975585938,778.8644409179688,775.2380981445312
1181,789.7435913085938,784.1025390625,779.6703491210938,780.879150390625
1182,797.3992919921875,787.3259887695312,780.4761962890625,783.2966918945312
1183,797.3992919921875,789.7435913085938,782.4908447265625,784.1025390625
1184,794.981689453125,790.5494384765625,781.2820434570312,780.879150390625
1185,790.1465454101562,786.923095703125,783.6996459960938,779.2673950195312
1186,787.7289428710938,786.1171875,788.5347900390625,785.7142944335938
1187,786.5201416015625,788.5347900390625,783.2966918945312,777.6557006835938
1188,794.981689453125,790.952392578125,784.1025390625,779.6703491210938
1189,800.2197875976562,789.3406372070312,787.3259887695312,778.8644409179688
1190,792.5640869140625,787.3259887695312,781.6849975585938,768.3883056640625
1191,789.7435913085938,788.5347900390625,782.893798828125,770.4029541015625
1192,784.1025390625,790.5494384765625,786.923095703125,776.0439453125
1193,782.087890625,790.1465454101562,786.1171875,779.2673950195312
1194,788.5347900390625,792.1611938476562,787.7289428710938,786.5201416015625
1195,787.7289428710938,791.7582397460938,788.937744140625,785.7142944335938
1196,783.2966918945312,791.7582397460938,787.3259887695312,786.5201416015625
1197,778.05859375,792.5640869140625,782.893798828125,789.3406372070312
1198,782.4908447265625,794.1758422851562,784.5054931640625,780.879150390625
1199,788.5347900390625,791.7582397460938,787.3259887695312,779.2673950195312
1200,788.937744140625,788.1318969726562,786.1171875,780.0732421875
1201,793.7728881835938,791.7582397460938,784.908447265625,776.8497924804688
1202,795.7875366210938,796.5933837890625,786.1171875,781.6849975585938
1203,794.5787353515625,798.2051391601562,783.6996459960938,783.2966918945312
1204,796.5933837890625,795.3846435546875,783.6996459960938,783.2966918945312
1205,799.010986328125,793.7728881835938,787.3259887695312,780.879150390625
1206,794.5787353515625,794.1758422851562,782.893798828125,778.8644409179688
1207,794.981689453125,795.3846435546875,786.1171875,782.087890625
1208,798.6080322265625,792.1611938476562,786.5201416015625,789.7435913085938
1209,795.3846435546875,790.952392578125,783.6996459960938,793.7728881835938
1210,794.981689453125,789.7435913085938,786.1171875,786.5201416015625
1211,792.5640869140625,786.923095703125,783.6996459960938,781.6849975585938
1212,787.3259887695312,787.7289428710938,786.923095703125,780.4761962890625
1213,787.7289428710938,788.5347900390625,785.7142944335938,781.6849975585938
1214,791.7582397460938,784.908447265625,780.0732421875,779.6703491210938
1215,794.1758422851562,787.7289428710938,780.4761962890625,779.2673950195312
1216,788.5347900390625,792.5640869140625,785.7142944335938,778.4615478515625
1217,782.087890625,791.3552856445312,783.6996459960938,774.8351440429688
1218,785.7142944335938,789.3406372070312,785.7142944335938,778.8644409179688
1219,790.1465454101562,788.5347900390625,788.5347900390625,782.4908447265625
1220,790.5494384765625,784.1025390625,785.3113403320312,784.1025390625
1221,792.967041015625,785.7142944335938,787.7289428710938,782.893798828125
1222,789.7435913085938,788.5347900390625,783.2966918945312,780.0732421875
1223,787.7289428710938,788.1318969726562,782.893798828125,786.5201416015625
1224,786.1171875,788.937744140625,784.908447265625,791.3552856445312
1225,787.3259887695312,786.923095703125,782.4908447265625,789.7435913085938
1226,786.5201416015625,786.1171875,781.2820434570312,782.4908447265625
1227,786.923095703125,786.923095703125,784.1025390625,778.8644409179688
1228,788.5347900390625,785.3113403320312,786.5201416015625,781.2820434570312
1229,789.7435913085938,788.937744140625,784.908447265625,785.7142944335938
1230,793.7728881835938,788.1318969726562,788.5347900390625,788.5347900390625
1231,792.1611938476562,783.6996459960938,787.7289428710938,795.3846435546875
1232,789.3406372070312,784.908447265625,784.1025390625,798.2051391601562
1233,789.7435913085938,785.3113403320312,786.923095703125,790.5494384765625
1234,790.952392578125,786.923095703125,787.7289428710938,788.937744140625
1235,790.952392578125,786.5201416015625,786.5201416015625,784.1025390625
1236,795.3846435546875,785.3113403320312,784.1025390625,780.879150390625
1237,790.1465454101562,788.5347900390625,783.2966918945312,778.4615478515625
1238,787.7289428710938,789.3406372070312,785.3113403320312,779.2673950195312
1239,792.5640869140625,788.5347900390625,784.1025390625,784.5054931640625
1240,793.7728881835938,789.3406372070312,782.893798828125,784.908447265625
1241,797.3992919921875,789.3406372070312,786.1171875,782.893798828125
1242,788.5347900390625,783.6996459960938,788.1318969726562,781.2820434570312
1243,782.4908447265625,784.908447265625,784.908447265625,782.4908447265625
1244,788.937744140625,789.7435913085938,783.2966918945312,780.4761962890625
1245,788.937744140625,788.937744140625,781.2820434570312,781.2820434570312
1246,793.7728881835938,786.5201416015625,780.4761962890625,787.3259887695312
1247,792.967041015625,787.3259887695312,784.908447265625,789.7435913085938
1248,791.7582397460938,787.3259887695312,786.5201416015625,790.5494384765625
1249,796.996337890625,786.1171875,788.1318969726562,789.3406372070312
1250,797.8021850585938,786.5201416015625,789.7435913085938,790.952392578125
1251,799.4139404296875,784.908447265625,787.7289428710938,796.5933837890625
1252,795.3846435546875,782.4908447265625,788.1318969726562,790.1465454101562
1253,796.1904907226562,786.1171875,792.5640869140625,790.952392578125
1254,795.7875366210938,788.1318969726562,791.3552856445312,800.2197875976562
1255,790.5494384765625,786.1171875,790.1465454101562,800.6226806640625
1256,789.7435913085938,785.7142944335938,788.5347900390625,794.1758422851562
1257,790.1465454101562,783.6996459960938,785.7142944335938,788.5347900390625
1258,788.5347900390625,782.893798828125,782.087890625,788.5347900390625
1259,787.7289428710938,786.5201416015625,784.5054931640625,792.1611938476562
1260,792.5640869140625,786.5201416015625,788.5347900390625,792.5640869140625
1261,794.981689453125,782.087890625,784.908447265625,787.7289428710938
1262,798.6080322265625,780.4761962890625,783.2966918945312,782.087890625
1263,796.5933837890625,784.1025390625,786.923095703125,781.6849975585938
1264,793.3699340820312,788.1318969726562,786.923095703125,784.908447265625
1265,799.010986328125,789.3406372070312,786.923095703125,791.7582397460938
1266,800.2197875976562,790.1465454101562,787.7289428710938,791.3552856445312
1267,794.5787353515625,789.3406372070312,788.5347900390625,783.2966918945312
1268,792.967041015625,784.5054931640625,785.3113403320312,780.879150390625
1269,796.996337890625,788.5347900390625,780.0732421875,782.893798828125
1270,796.1904907226562,790.952392578125,785.3113403320312,788.1318969726562
1271,797.3992919921875,784.1025390625,786.923095703125,781.6849975585938
1272,797.8021850585938,786.5201416015625,788.1318969726562,778.4615478515625
1273,794.1758422851562,790.5494384765625,790.5494384765625,783.6996459960938
1274,791.3552856445312,790.952392578125,786.923095703125,786.1171875
1275,783.6996459960938,789.3406372070312,786.5201416015625,786.1171875
1276,784.5054931640625,786.923095703125,786.923095703125,786.1171875
1277,791.7582397460938,786.5201416015625,787.3259887695312,786.5201416015625
1278,787.7289428710938,785.7142944335938,785.3113403320312,783.6996459960938
1279,780.879150390625,788.5347900390625,785.3113403320312,785.3113403320312
1280,784.1025390625,789.7435913085938,787.3259887695312,790.1465454101562
1281,791.7582397460938,788.1318969726562,786.1171875,794.981689453125
1282,790.5494384765625,791.3552856445312,786.5201416015625,796.1904907226562
1283,794.1758422851562,793.3699340820312,790.1465454101562,792.1611938476562
1284,795.3846435546875,789.7435913085938,790.5494384765625,788.937744140625
1285,790.952392578125,788.1318969726562,788.1318969726562,785.3113403320312
1286,792.5640869140625,788.5347900390625,787.7289428710938,785.7142944335938
1287,796.1904907226562,786.923095703125,785.7142944335938,782.893798828125
1288,799.8168334960938,786.5201416015625,782.893798828125,780.4761962890625
1289,800.2197875976562,786.923095703125,784.5054931640625,792.1611938476562
1290,801.025634765625,788.1318969726562,786.5201416015625,792.967041015625
1291,799.010986328125,788.1318969726562,786.923095703125,787.3259887695312
1292,799.010986328125,788.1318969726562,790.952392578125,791.3552856445312
1293,800.6226806640625,788.937744140625,789.3406372070312,794.981689453125
1294,798.6080322265625,790.5494384765625,789.3406372070312,789.7435913085938
1295,796.996337890625,790.952392578125,790.1465454101562,782.087890625
1296,803.040283203125,791.3552856445312,790.1465454101562,783.6996459960938
1297,804.6520385742188,792.967041015625,792.5640869140625,784.1025390625
1298,801.8314819335938,792.967041015625,792.967041015625,785.3113403320312
1299,802.2344360351562,794.1758422851562,789.3406372070312,792.1611938476562
1300,803.8461303710938,791.3552856445312,785.3113403320312,791.7582397460938
1301,803.040283203125,790.5494384765625,784.908447265625,792.967041015625
1302,801.025634765625,788.937744140625,783.2966918945312,796.5933837890625
1303,799.4139404296875,783.2966918945312,782.893798828125,791.7582397460938
1304,791.7582397460938,783.6996459960938,777.6557006835938,783.6996459960938
1305,784.908447265625,782.893798828125,777.6557006835938,780.4761962890625
1306,782.893798828125,782.087890625,781.2820434570312,782.087890625
1307,788.937744140625,783.6996459960938,783.6996459960938,785.3113403320312
1308,788.1318969726562,781.2820434570312,786.1171875,781.2820434570312
1309,780.879150390625,782.4908447265625,781.6849975585938,777.2527465820312
1310,781.2820434570312,784.5054931640625,783.6996459960938,777.2527465820312
1311,787.3259887695312,784.908447265625,787.3259887695312,781.6849975585938
1312,792.5640869140625,786.1171875,789.3406372070312,793.7728881835938
1313,791.7582397460938,784.1025390625,787.7289428710938,792.5640869140625
1314,784.1025390625,784.1025390625,787.3259887695312,784.1025390625
1315,782.087890625,784.5054931640625,789.3406372070312,786.5201416015625
1316,784.5054931640625,782.087890625,787.7289428710938,789.7435913085938
1317,784.908447265625,782.087890625,788.1318969726562,784.908447265625
1318,788.1318969726562,783.6996459960938,789.7435913085938,779.2673950195312
1319,788.937744140625,785.3113403320312,790.1465454101562,778.4615478515625
1320,787.7289428710938,788.937744140625,790.5494384765625,779.2673950195312
1321,789.7435913085938,791.3552856445312,791.3552856445312,778.4615478515625
1322,795.3846435546875,794.5787353515625,790.5494384765625,776.4468994140625
1323,795.3846435546875,791.7582397460938,792.5640869140625,781.2820434570312
1324,791.7582397460938,788.937744140625,796.996337890625,780.879150390625
1325,792.967041015625,792.5640869140625,794.981689453125,778.8644409179688
1326,790.1465454101562,794.1758422851562,790.1465454101562,783.2966918945312
1327,784.1025390625,790.1465454101562,790.1465454101562,786.923095703125
1328,783.6996459960938,788.1318969726562,789.3406372070312,788.1318969726562
1329,784.1025390625,787.7289428710938,786.5201416015625,783.6996459960938
1330,782.087890625,781.2820434570312,785.7142944335938,776.8497924804688
1331,789.7435913085938,784.1025390625,786.1171875,775.2380981445312
1332,801.8314819335938,790.1465454101562,787.3259887695312,786.923095703125
1333,795.7875366210938,786.923095703125,787.7289428710938,785.7142944335938
1334,792.1611938476562,786.1171875,789.7435913085938,781.2820434570312
1335,796.996337890625,787.7289428710938,791.3552856445312,786.5201416015625
1336,796.1904907226562,790.5494384765625,790.5494384765625,790.952392578125
1337,796.996337890625,789.3406372070312,790.1465454101562,788.1318969726562
1338,804.6520385742188,786.923095703125,787.7289428710938,782.4908447265625
1339,803.8461303710938,786.1171875,790.5494384765625,788.5347900390625
1340,792.967041015625,788.1318969726562,785.7142944335938,783.6996459960938
1341,792.1611938476562,788.937744140625,779.2673950195312,774.4322509765625
1342,796.1904907226562,786.1171875,781.2820434570312,779.6703491210938
1343,796.5933837890625,786.923095703125,784.908447265625,786.1171875
1344,797.3992919921875,787.3259887695312,785.7142944335938,788.937744140625
1345,795.7875366210938,788.1318969726562,790.5494384765625,787.7289428710938
1346,798.2051391601562,792.5640869140625,794.1758422851562,790.5494384765625
1347,798.2051391601562,790.5494384765625,791.3552856445312,789.3406372070312
1348,797.8021850585938,784.908447265625,791.7582397460938,787.3259887695312
1349,793.3699340820312,783.6996459960938,792.5640869140625,784.908447265625
1350,785.7142944335938,785.7142944335938,793.3699340820312,789.7435913085938
1351,785.7142944335938,788.937744140625,791.7582397460938,790.1465454101562
1352,787.7289428710938,781.6849975585938,787.3259887695312,786.923095703125
1353,790.952392578125,776.0439453125,784.5054931640625,780.879150390625
1354,788.937744140625,778.05859375,787.3259887695312,780.879150390625
1355,782.087890625,780.0732421875,788.5347900390625,785.3113403320312
1356,782.087890625,780.879150390625,786.1171875,779.6703491210938
1357,786.923095703125,782.087890625,785.7142944335938,780.879150390625
1358,790.5494384765625,785.3113403320312,785.7142944335938,784.908447265625
1359,790.952392578125,786.5201416015625,784.908447265625,784.5054931640625
1360,790.5494384765625,788.1318969726562,783.2966918945312,783.6996459960938
1361,793.7728881835938,788.937744140625,786.5201416015625,786.1171875
1362,789.3406372070312,786.5201416015625,786.5201416015625,783.2966918945312
1363,787.7289428710938,786.5201416015625,787.7289428710938,784.1025390625
1364,790.5494384765625,786.5201416015625,788.937744140625,786.1171875
1365,790.5494384765625,786.5201416015625,785.3113403320312,780.0732421875
1366,790.1465454101562,793.7728881835938,782.4908447265625,786.5201416015625
1367,788.1318969726562,794.5787353515625,781.2820434570312,784.908447265625
1368,787.7289428710938,788.937744140625,783.2966918945312,775.6410522460938
1369,787.7289428710938,789.7435913085938,786.923095703125,778.4615478515625
1370,784.5054931640625,787.7289428710938,791.3552856445312,783.6996459960938
1371,786.5201416015625,786.923095703125,786.923095703125,779.2673950195312
1372,789.7435913085938,787.3259887695312,784.5054931640625,777.6557006835938
1373,788.5347900390625,786.1171875,784.908447265625,785.7142944335938
1374,787.3259887695312,790.1465454101562,783.2966918945312,786.1171875
1375,786.923095703125,792.1611938476562,786.5201416015625,785.3113403320312
1376,787.3259887695312,784.1025390625,788.1318969726562,782.4908447265625
1377,786.5201416015625,782.4908447265625,782.893798828125,782.4908447265625
1378,781.6849975585938,786.5201416015625,781.2820434570312,785.3113403320312
1379,778.4615478515625,783.6996459960938,780.0732421875,780.0732421875
1380,776.8497924804688,779.6703491210938,779.2673950195312,774.029296875
1381,772.8204956054688,780.0732421875,780.4761962890625,776.8497924804688
1382,773.6264038085938,778.05859375,780.4761962890625,777.6557006835938
1383,780.0732421875,780.4761962890625,782.087890625,776.8497924804688
1384,780.879150390625,784.5054931640625,783.6996459960938,781.2820434570312
1385,784.1025390625,784.1025390625,781.6849975585938,780.879150390625
1386,786.5201416015625,783.2966918945312,781.6849975585938,779.6703491210938
1387,786.923095703125,783.6996459960938,781.2820434570312,778.8644409179688
1388,788.937744140625,784.5054931640625,779.2673950195312,780.0732421875
1389,789.3406372070312,785.7142944335938,777.6557006835938,781.2820434570312
1390,788.937744140625,786.1171875,776.8497924804688,778.05859375
1391,788.5347900390625,790.952392578125,780.0732421875,777.6557006835938
1392,785.7142944335938,790.952392578125,782.893798828125,780.0732421875
1393,785.7142944335938,787.7289428710938,780.4761962890625,779.6703491210938
1394,792.967041015625,788.1318969726562,778.8644409179688,778.8644409179688
1395,792.1611938476562,791.7582397460938,783.2966918945312,782.4908447265625
1396,781.6849975585938,792.5640869140625,784.5054931640625,782.087890625
1397,781.6849975585938,790.5494384765625,779.6703491210938,781.2820434570312
1398,786.5201416015625,790.1465454101562,776.8497924804688,784.908447265625
1399,785.7142944335938,787.3259887695312,776.0439453125,786.1171875
1400,787.3259887695312,786.1171875,777.6557006835938,792.967041015625
1401,788.5347900390625,787.3259887695312,778.8644409179688,791.3552856445312
1402,781.2820434570312,780.879150390625,776.8497924804688,782.893798828125
1403,784.908447265625,781.2820434570312,780.879150390625,788.5347900390625
1404,789.7435913085938,784.5054931640625,785.3113403320312,792.5640869140625
1405,785.3113403320312,781.6849975585938,784.1025390625,787.3259887695312
1406,785.7142944335938,781.2820434570312,780.0732421875,786.1171875
1407,783.6996459960938,781.6849975585938,782.087890625,785.7142944335938
1408,784.1025390625,784.908447265625,789.7435913085938,785.7142944335938
1409,787.3259887695312,787.3259887695312,787.7289428710938,785.3113403320312
1410,790.5494384765625,789.3406372070312,784.1025390625,786.5201416015625
1411,788.5347900390625,786.1171875,784.1025390625,788.1318969726562
1412,793.7728881835938,786.5201416015625,785.7142944335938,792.967041015625
1413,797.8021850585938,791.7582397460938,788.1318969726562,794.1758422851562
1414,795.7875366210938,792.1611938476562,784.908447265625,788.5347900390625
1415,797.8021850585938,794.5787353515625,785.3113403320312,790.1465454101562
1416,793.3699340820312,794.5787353515625,781.6849975585938,787.3259887695312
1417,786.5201416015625,791.3552856445312,779.2673950195312,780.4761962890625
1418,786.923095703125,791.3552856445312,784.908447265625,780.879150390625
1419,790.1465454101562,789.3406372070312,786.1171875,782.893798828125
1420,796.996337890625,788.937744140625,783.6996459960938,789.7435913085938
1421,795.3846435546875,791.7582397460938,787.7289428710938,790.1465454101562
1422,788.1318969726562,789.7435913085938,786.1171875,778.8644409179688
1423,790.5494384765625,785.3113403320312,779.2673950195312,778.4615478515625
1424,791.3552856445312,786.5201416015625,783.2966918945312,791.3552856445312
1425,791.7582397460938,787.7289428710938,781.6849975585938,789.7435913085938
1426,790.5494384765625,783.2966918945312,778.05859375,783.2966918945312
1427,787.3259887695312,785.7142944335938,779.6703491210938,784.908447265625
1428,789.7435913085938,789.7435913085938,782.4908447265625,782.4908447265625
1429,791.7582397460938,789.7435913085938,787.3259887695312,780.0732421875
1430,791.7582397460938,788.5347900390625,784.908447265625,779.6703491210938
1431,793.3699340820312,785.7142944335938,782.4908447265625,778.4615478515625
1432,798.6080322265625,791.3552856445312,787.3259887695312,785.7142944335938
1433,799.8168334960938,793.3699340820312,788.937744140625,789.3406372070312
1434,801.8314819335938,788.5347900390625,788.1318969726562,789.7435913085938
1435,804.6520385742188,788.1318969726562,786.923095703125,791.7582397460938
1436,801.8314819335938,789.7435913085938,784.1025390625,785.7142944335938
1437,797.3992919921875,788.5347900390625,782.4908447265625,784.1025390625
1438,796.1904907226562,788.5347900390625,783.6996459960938,787.7289428710938
1439,801.4285888671875,787.3259887695312,784.908447265625,792.1611938476562
1440,807.069580078125,787.7289428710938,784.5054931640625,791.3552856445312
1441,806.6666870117188,789.7435913085938,786.5201416015625,787.7289428710938
1442,802.2344360351562,788.1318969726562,786.923095703125,786.923095703125
1443,795.7875366210938,786.5201416015625,786.923095703125,781.2820434570312
1444,793.3699340820312,784.908447265625,784.5054931640625,778.8644409179688
1445,794.981689453125,781.6849975585938,782.893798828125,787.7289428710938
1446,796.1904907226562,780.879150390625,782.4908447265625,790.5494384765625
1447,797.3992919921875,784.5054931640625,780.0732421875,784.5054931640625
1448,791.7582397460938,785.7142944335938,783.2966918945312,785.3113403320312
1449,790.1465454101562,788.1318969726562,789.3406372070312,781.6849975585938
1450,799.8168334960938,793.3699340820312,788.5347900390625,786.923095703125
1451,800.2197875976562,790.952392578125,786.923095703125,793.3699340820312
1452,798.2051391601562,786.923095703125,789.3406372070312,787.7289428710938
1453,796.1904907226562,782.087890625,785.3113403320312,783.2966918945312
1454,787.7289428710938,780.0732421875,785.3113403320312,780.879150390625
1455,789.7435913085938,784.1025390625,790.5494384765625,781.6849975585938
1456,793.3699340820312,785.3113403320312,790.1465454101562,782.087890625
1457,793.7728881835938,783.6996459960938,789.3406372070312,782.893798828125
1458,792.5640869140625,783.2966918945312,786.1171875,781.2820434570312
1459,788.937744140625,786.923095703125,785.3113403320312,780.4761962890625
1460,790.952392578125,786.923095703125,786.1171875,782.4908447265625
1461,793.7728881835938,787.7289428710938,786.1171875,784.5054931640625
1462,790.5494384765625,789.7435913085938,788.937744140625,787.3259887695312
1463,786.5201416015625,789.7435913085938,788.5347900390625,785.7142944335938
1464,783.6996459960938,788.1318969726562,786.923095703125,778.05859375
1465,784.5054931640625,787.7289428710938,787.7289428710938,776.4468994140625
1466,784.908447265625,791.3552856445312,787.3259887695312,779.6703491210938
1467,784.1025390625,790.1465454101562,785.7142944335938,779.2673950195312
1468,784.908447265625,786.5201416015625,784.5054931640625,776.8497924804688
1469,784.908447265625,786.1171875,787.3259887695312,775.2380981445312
1470,783.2966918945312,788.5347900390625,789.3406372070312,782.087890625
1471,784.5054931640625,785.3113403320312,787.7289428710938,782.087890625
1472,786.1171875,780.4761962890625,785.3113403320312,776.0439453125
1473,788.5347900390625,777.6557006835938,786.5201416015625,779.6703491210938
1474,791.7582397460938,783.2966918945312,784.5054931640625,783.6996459960938
1475,792.5640869140625,786.1171875,783.6996459960938,780.0732421875
1476,799.010986328125,783.6996459960938,787.3259887695312,785.3113403320312
1477,796.996337890625,787.3259887695312,784.908447265625,787.7289428710938
1478,785.7142944335938,787.7289428710938,782.4908447265625,786.923095703125
1479,788.5347900390625,788.1318969726562,782.4908447265625,784.908447265625
1480,790.5494384765625,787.3259887695312,782.893798828125,782.4908447265625
1481,789.7435913085938,787.3259887695312,782.893798828125,784.1025390625
1482,790.5494384765625,783.6996459960938,783.2966918945312,781.2820434570312
1483,786.923095703125,784.5054931640625,782.4908447265625,777.6557006835938
1484,790.1465454101562,788.5347900390625,781.2820434570312,782.893798828125
1485,790.5494384765625,786.1171875,782.4908447265625,786.5201416015625
1486,791.3552856445312,788.1318969726562,785.7142944335938,784.908447265625
1487,798.2051391601562,788.5347900390625,786.1171875,785.7142944335938
1488,796.5933837890625,784.5054931640625,785.3113403320312,782.4908447265625
1489,788.937744140625,784.5054931640625,788.1318969726562,782.4908447265625
1490,783.6996459960938,786.1171875,790.1465454101562,786.5201416015625
1491,789.3406372070312,787.7289428710938,787.7289428710938,785.7142944335938
1492,794.5787353515625,788.1318969726562,786.5201416015625,787.7289428710938
1493,792.967041015625,787.3259887695312,783.6996459960938,784.908447265625
1494,792.1611938476562,788.5347900390625,782.893798828125,783.2966918945312
1495,796.996337890625,789.7435913085938,785.7142944335938,787.3259887695312
1496,803.8461303710938,788.1318969726562,785.3113403320312,796.5933837890625
1497,801.4285888671875,787.7289428710938,782.4908447265625,798.2051391601562
1498,795.3846435546875,786.5201416015625,782.087890625,792.1611938476562
1499,798.2051391601562,789.3406372070312,787.3259887695312,793.3699340820312
1500,803.040283203125,794.5787353515625,791.7582397460938,799.8168334960938
1501,803.4432373046875,789.3406372070312,787.3259887695312,795.3846435546875
1502,802.6373901367188,788.1318969726562,784.1025390625,788.5347900390625
1503,803.040283203125,788.937744140625,787.7289428710938,791.7582397460938
1504,796.5933837890625,786.1171875,780.879150390625,785.3113403320312
1505,790.1465454101562,785.7142944335938,776.8497924804688,779.2673950195312
1506,784.908447265625,785.3113403320312,779.6703491210938,778.05859375
1507,786.1171875,784.1025390625,777.2527465820312,778.4615478515625
1508,790.952392578125,782.087890625,776.8497924804688,784.5054931640625
1509,791.7582397460938,782.4908447265625,782.4908447265625,786.5201416015625
1510,793.3699340820312,784.5054931640625,785.7142944335938,785.3113403320312
1511,795.7875366210938,786.5201416015625,788.1318969726562,787.3259887695312
1512,798.6080322265625,787.7289428710938,785.3113403320312,789.3406372070312
1513,798.6080322265625,789.3406372070312,784.5054931640625,790.1465454101562
1514,788.1318969726562,785.3113403320312,783.2966918945312,787.3259887695312
1515,784.5054931640625,780.879150390625,779.2673950195312,791.7582397460938
1516,788.5347900390625,780.0732421875,783.2966918945312,800.2197875976562
1517,789.3406372070312,778.05859375,784.1025390625,790.5494384765625
1518,792.5640869140625,784.5054931640625,782.087890625,785.7142944335938
1519,790.952392578125,790.952392578125,785.3113403320312,795.3846435546875
1520,784.5054931640625,786.923095703125,784.908447265625,794.5787353515625
1521,787.3259887695312,786.923095703125,788.1318969726562,790.5494384765625
1522,794.1758422851562,790.952392578125,791.3552856445312,791.7582397460938
1523,800.2197875976562,792.1611938476562,789.7435913085938,796.5933837890625
1524,792.967041015625,792.1611938476562,789.7435913085938,796.5933837890625
1525,789.7435913085938,793.3699340820312,793.3699340820312,785.3113403320312
1526,792.967041015625,792.1611938476562,791.3552856445312,780.4761962890625
1527,793.7728881835938,789.3406372070312,788.937744140625,784.5054931640625
1528,790.5494384765625,789.3406372070312,786.1171875,784.1025390625
1529,787.3259887695312,789.3406372070312,783.6996459960938,783.2966918945312
1530,784.1025390625,788.937744140625,786.923095703125,781.6849975585938
1531,784.1025390625,788.1318969726562,791.3552856445312,780.4761962890625
1532,785.3113403320312,789.3406372070312,792.1611938476562,778.4615478515625
1533,784.5054931640625,792.967041015625,789.7435913085938,775.2380981445312
1534,788.5347900390625,795.3846435546875,788.5347900390625,782.087890625
1535,788.937744140625,795.3846435546875,786.5201416015625,786.923095703125
1536,782.087890625,794.1758422851562,784.1025390625,778.05859375
1537,783.2966918945312,788.5347900390625,783.2966918945312,778.05859375
1538,794.1758422851562,787.3259887695312,785.7142944335938,787.3259887695312
1539,800.6226806640625,788.937744140625,788.5347900390625,790.1465454101562
1540,796.1904907226562,786.1171875,790.5494384765625,790.5494384765625
1541,792.5640869140625,786.5201416015625,791.3552856445312,792.967041015625
1542,799.4139404296875,788.5347900390625,791.7582397460938,796.5933837890625
1543,806.6666870117188,792.1611938476562,792.967041015625,793.3699340820312
1544,804.6520385742188,790.1465454101562,788.5347900390625,784.1025390625
1545,800.6226806640625,784.908447265625,784.5054931640625,779.2673950195312
1546,792.1611938476562,786.5201416015625,787.7289428710938,782.4908447265625
1547,785.7142944335938,786.1171875,788.937744140625,788.5347900390625
1548,786.923095703125,786.5201416015625,789.7435913085938,792.1611938476562
1549,786.923095703125,788.5347900390625,789.3406372070312,793.7728881835938
1550,784.1025390625,787.7289428710938,786.923095703125,791.7582397460938
1551,785.3113403320312,789.3406372070312,786.1171875,786.5201416015625
1552,783.6996459960938,788.1318969726562,781.6849975585938,777.2527465820312
1553,783.6996459960938,786.1171875,778.8644409179688,774.4322509765625
1554,790.1465454101562,787.7289428710938,778.8644409179688,774.8351440429688
1555,788.5347900390625,789.3406372070312,779.6703491210938,774.8351440429688
1556,787.3259887695312,788.1318969726562,783.6996459960938,772.8204956054688
1557,784.5054931640625,784.5054931640625,779.6703491210938,771.6116943359375
1558,782.4908447265625,786.1171875,779.6703491210938,779.6703491210938
1559,787.3259887695312,791.3552856445312,783.6996459960938,782.087890625
1560,789.7435913085938,788.937744140625,783.6996459960938,782.087890625
1561,786.5201416015625,785.7142944335938,785.7142944335938,780.879150390625
1562,788.937744140625,787.7289428710938,786.923095703125,781.2820434570312
1563,793.7728881835938,786.5201416015625,784.5054931640625,782.893798828125
1564,794.981689453125,782.4908447265625,787.7289428710938,788.1318969726562
1565,794.981689453125,784.1025390625,786.5201416015625,789.7435913085938
1566,793.7728881835938,784.5054931640625,782.893798828125,786.1171875
1567,789.7435913085938,781.6849975585938,786.923095703125,785.7142944335938
1568,792.1611938476562,779.2673950195312,786.5201416015625,784.5054931640625
1569,794.1758422851562,779.2673950195312,788.1318969726562,792.5640869140625
1570,784.1025390625,778.4615478515625,789.3406372070312,790.952392578125
1571,777.2527465820312,775.2380981445312,788.5347900390625,782.087890625
1572,779.2673950195312,773.2234497070312,789.3406372070312,784.1025390625
1573,783.6996459960938,772.8204956054688,787.7289428710938,782.893798828125
1574,788.5347900390625,774.4322509765625,787.7289428710938,785.3113403320312
1575,790.5494384765625,780.4761962890625,789.3406372070312,788.937744140625
1576,787.3259887695312,780.879150390625,789.3406372070312,787.7289428710938
1577,784.5054931640625,780.879150390625,787.3259887695312,785.7142944335938
1578,784.1025390625,783.2966918945312,785.7142944335938,782.087890625
1579,783.6996459960938,779.2673950195312,785.3113403320312,782.087890625
1580,784.908447265625,784.1025390625,783.6996459960938,783.6996459960938
1581,787.7289428710938,791.3552856445312,787.7289428710938,786.5201416015625
1582,783.6996459960938,789.3406372070312,788.5347900390625,778.05859375
1583,786.5201416015625,788.5347900390625,784.908447265625,774.8351440429688
1584,796.996337890625,788.937744140625,784.908447265625,775.2380981445312
1585,800.2197875976562,787.7289428710938,783.6996459960938,773.6264038085938
1586,792.1611938476562,789.3406372070312,778.4615478515625,774.029296875
1587,789.3406372070312,791.7582397460938,779.6703491210938,774.4322509765625
1588,790.5494384765625,788.1318969726562,784.1025390625,776.4468994140625
1589,794.5787353515625,786.5201416015625,783.6996459960938,776.0439453125
1590,796.5933837890625,786.923095703125,782.087890625,782.893798828125
1591,792.967041015625,785.7142944335938,781.2820434570312,781.6849975585938
1592,792.5640869140625,780.4761962890625,780.4761962890625,780.0732421875
1593,794.1758422851562,775.6410522460938,781.6849975585938,786.5201416015625
1594,792.967041015625,776.0439453125,786.923095703125,782.4908447265625
1595,786.5201416015625,774.8351440429688,786.1171875,778.05859375
1596,787.3259887695312,776.8497924804688,787.7289428710938,779.2673950195312
1597,789.3406372070312,781.2820434570312,792.1611938476562,782.4908447265625
1598,786.923095703125,781.2820434570312,789.3406372070312,791.3552856445312
1599,788.5347900390625,782.087890625,790.952392578125,795.7875366210938
1600,791.3552856445312,782.893798828125,790.5494384765625,796.1904907226562
1601,790.1465454101562,782.087890625,788.1318969726562,794.981689453125
1602,782.087890625,777.6557006835938,785.7142944335938,785.3113403320312
1603,781.6849975585938,774.8351440429688,781.6849975585938,780.879150390625
1604,785.7142944335938,780.4761962890625,783.6996459960938,789.7435913085938
