timestamp,RAW_TP9,RAW_AF7,RAW_AF8,RAW_TP10
1,789.3406372070312,795.7875366210938,799.8168334960938,788.937744140625
2,786.923095703125,789.3406372070312,792.1611938476562,788.5347900390625
3,786.923095703125,794.1758422851562,787.3259887695312,782.4908447265625
4,784.5054931640625,797.3992919921875,786.923095703125,780.879150390625
5,784.908447265625,792.1611938476562,787.7289428710938,785.3113403320312
6,785.3113403320312,788.5347900390625,786.5201416015625,784.5054931640625
7,783.6996459960938,788.937744140625,792.1611938476562,781.6849975585938
8,783.2966918945312,787.3259887695312,792.5640869140625,785.7142944335938
9,783.2966918945312,789.7435913085938,785.7142944335938,790.5494384765625
10,784.5054931640625,789.7435913085938,781.6849975585938,793.7728881835938
11,786.923095703125,788.1318969726562,785.7142944335938,788.5347900390625
12,788.937744140625,788.1318969726562,791.3552856445312,786.5201416015625
13,794.5787353515625,790.1465454101562,787.7289428710938,802.6373901367188
14,796.996337890625,795.7875366210938,790.5494384765625,807.87548828125
15,795.7875366210938,793.3699340820312,795.3846435546875,794.5787353515625
16,796.5933837890625,786.923095703125,793.7728881835938,784.5054931640625
17,799.4139404296875,787.7289428710938,792.1611938476562,782.893798828125
18,797.3992919921875,792.967041015625,793.7728881835938,782.4908447265625
19,790.1465454101562,792.5640869140625,794.981689453125,782.893798828125
20,786.923095703125,793.3699340820312,792.967041015625,786.5201416015625
21,785.7142944335938,795.7875366210938,795.3846435546875,794.5787353515625
22,784.5054931640625,794.1758422851562,792.967041015625,796.1904907226562
23,782.087890625,793.7728881835938,790.1465454101562,790.952392578125
24,782.4908447265625,790.5494384765625,787.7289428710938,797.3992919921875
25,780.4761962890625,789.3406372070312,790.952392578125,801.8314819335938
26,784.908447265625,795.3846435546875,797.8021850585938,796.1904907226562
27,790.1465454101562,795.3846435546875,795.3846435546875,797.3992919921875
28,789.7435913085938,792.1611938476562,796.1904907226562,799.8168334960938
29,792.967041015625,789.3406372070312,801.025634765625,796.1904907226562
30,789.3406372070312,789.3406372070312,801.025634765625,792.967041015625
31,791.7582397460938,791.7582397460938,799.4139404296875,794.981689453125
32,797.3992919921875,792.967041015625,794.981689453125,795.3846435546875
33,794.5787353515625,791.7582397460938,794.5787353515625,790.1465454101562
34,794.5787353515625,790.5494384765625,798.6080322265625,794.1758422851562
35,788.1318969726562,789.7435913085938,796.1904907226562,798.2051391601562
36,783.2966918945312,789.3406372070312,792.1611938476562,792.5640869140625
37,785.3113403320312,785.7142944335938,791.7582397460938,788.937744140625
38,788.5347900390625,787.3259887695312,791.3552856445312,787.7289428710938
39,789.7435913085938,788.937744140625,789.7435913085938,794.1758422851562
40,790.952392578125,790.5494384765625,792.5640869140625,801.8314819335938
41,792.5640869140625,789.7435913085938,792.967041015625,791.7582397460938
42,794.1758422851562,786.923095703125,796.1904907226562,781.2820434570312
43,791.7582397460938,788.1318969726562,799.010986328125,784.5054931640625
44,787.3259887695312,786.1171875,794.981689453125,786.923095703125
45,789.7435913085938,788.937744140625,791.7582397460938,786.5201416015625
46,790.952392578125,786.1171875,790.952392578125,785.7142944335938
47,790.952392578125,786.923095703125,790.1465454101562,783.6996459960938
48,796.5933837890625,790.5494384765625,790.5494384765625,780.879150390625
49,798.2051391601562,789.7435913085938,798.6080322265625,781.6849975585938
50,795.7875366210938,795.7875366210938,800.2197875976562,790.5494384765625
51,798.2051391601562,796.5933837890625,795.3846435546875,797.3992919921875
52,794.5787353515625,792.1611938476562,796.5933837890625,788.5347900390625
53,790.952392578125,792.967041015625,796.5933837890625,785.7142944335938
54,796.5933837890625,794.5787353515625,797.8021850585938,788.937744140625
55,796.5933837890625,782.4908447265625,799.4139404296875,793.3699340820312
56,792.1611938476562,784.1025390625,796.1904907226562,794.981689453125
57,793.7728881835938,794.981689453125,800.2197875976562,795.3846435546875
58,791.7582397460938,795.3846435546875,799.010986328125,792.5640869140625
59,795.7875366210938,792.967041015625,799.8168334960938,796.1904907226562
60,797.3992919921875,790.5494384765625,797.8021850585938,799.8168334960938
61,795.3846435546875,792.967041015625,790.5494384765625,792.5640869140625
62,794.981689453125,796.996337890625,797.3992919921875,788.937744140625
63,793.3699340820312,793.3699340820312,801.4285888671875,788.1318969726562
64,796.5933837890625,791.3552856445312,796.5933837890625,784.5054931640625
65,797.8021850585938,792.967041015625,796.5933837890625,780.4761962890625
66,792.967041015625,789.7435913085938,795.3846435546875,787.3259887695312
67,796.5933837890625,791.3552856445312,794.1758422851562,798.6080322265625
68,796.5933837890625,795.7875366210938,792.5640869140625,788.5347900390625
69,797.8021850585938,800.6226806640625,793.7728881835938,779.2673950195312
70,804.2490844726562,794.1758422851562,804.6520385742188,784.5054931640625
71,794.981689453125,780.0732421875,796.996337890625,776.0439453125
72,791.3552856445312,783.6996459960938,788.5347900390625,778.8644409179688
73,790.5494384765625,788.937744140625,793.3699340820312,786.923095703125
74,788.937744140625,792.5640869140625,790.5494384765625,781.2820434570312
75,796.5933837890625,792.1611938476562,790.952392578125,788.1318969726562
76,803.8461303710938,788.937744140625,792.5640869140625,792.967041015625
77,803.8461303710938,791.7582397460938,793.3699340820312,790.952392578125
78,796.1904907226562,793.3699340820312,787.3259887695312,799.4139404296875
79,794.5787353515625,786.5201416015625,781.2820434570312,795.7875366210938
80,796.5933837890625,784.1025390625,784.908447265625,782.893798828125
81,794.981689453125,791.7582397460938,789.3406372070312,788.1318969726562
82,794.5787353515625,794.5787353515625,788.5347900390625,796.5933837890625
83,798.2051391601562,790.952392578125,791.3552856445312,799.010986328125
84,799.010986328125,788.937744140625,790.1465454101562,797.8021850585938
85,799.4139404296875,794.1758422851562,788.1318969726562,800.2197875976562
86,802.2344360351562,794.981689453125,788.937744140625,794.981689453125
87,798.2051391601562,788.1318969726562,788.937744140625,790.952392578125
88,793.3699340820312,783.6996459960938,787.7289428710938,794.981689453125
89,797.8021850585938,786.1171875,786.1171875,799.8168334960938
90,796.5933837890625,784.908447265625,786.923095703125,800.6226806640625
91,786.923095703125,785.3113403320312,784.908447265625,788.937744140625
92,789.7435913085938,789.7435913085938,785.3113403320312,784.1025390625
93,793.7728881835938,794.981689453125,790.5494384765625,787.7289428710938
94,794.1758422851562,794.1758422851562,792.967041015625,788.5347900390625
95,793.3699340820312,793.7728881835938,791.3552856445312,788.5347900390625
96,792.967041015625,794.1758422851562,792.967041015625,794.1758422851562
97,786.5201416015625,796.5933837890625,796.1904907226562,795.3846435546875
98,785.3113403320312,793.7728881835938,793.7728881835938,792.967041015625
99,788.1318969726562,793.3699340820312,790.1465454101562,792.1611938476562
100,787.3259887695312,796.996337890625,791.7582397460938,784.908447265625
101,797.3992919921875,794.5787353515625,792.5640869140625,790.1465454101562
102,800.6226806640625,796.1904907226562,792.1611938476562,793.3699340820312
103,793.7728881835938,795.7875366210938,790.952392578125,788.937744140625
104,791.3552856445312,796.996337890625,792.5640869140625,785.3113403320312
105,787.7289428710938,798.6080322265625,799.010986328125,790.1465454101562
106,792.1611938476562,800.6226806640625,799.4139404296875,804.2490844726562
107,797.3992919921875,792.1611938476562,798.6080322265625,805.054931640625
108,796.1904907226562,785.3113403320312,801.8314819335938,803.8461303710938
109,794.981689453125,793.3699340820312,801.4285888671875,810.2930297851562
110,797.8021850585938,791.3552856445312,802.6373901367188,806.6666870117188
111,800.2197875976562,791.3552856445312,801.8314819335938,797.3992919921875
112,802.2344360351562,796.5933837890625,794.1758422851562,801.4285888671875
113,798.2051391601562,792.967041015625,791.3552856445312,804.6520385742188
114,785.7142944335938,796.1904907226562,797.3992919921875,789.3406372070312
115,787.7289428710938,803.4432373046875,803.040283203125,784.908447265625
116,796.1904907226562,801.025634765625,804.2490844726562,792.1611938476562
117,796.996337890625,784.5054931640625,801.4285888671875,797.3992919921875
118,796.5933837890625,781.6849975585938,802.2344360351562,796.996337890625
119,795.7875366210938,795.7875366210938,804.6520385742188,794.5787353515625
120,788.5347900390625,799.4139404296875,804.2490844726562,790.952392578125
121,788.1318969726562,793.3699340820312,805.054931640625,791.7582397460938
122,788.937744140625,794.5787353515625,801.8314819335938,796.1904907226562
123,778.4615478515625,795.7875366210938,790.5494384765625,782.087890625
124,782.087890625,792.967041015625,794.1758422851562,779.6703491210938
125,795.7875366210938,796.1904907226562,799.4139404296875,790.952392578125
126,793.3699340820312,799.010986328125,800.6226806640625,783.6996459960938
127,785.3113403320312,794.1758422851562,800.2197875976562,779.6703491210938
128,782.087890625,794.5787353515625,792.1611938476562,781.6849975585938
129,783.2966918945312,795.3846435546875,789.7435913085938,784.908447265625
130,784.1025390625,793.3699340820312,796.996337890625,783.6996459960938
131,785.3113403320312,794.1758422851562,796.1904907226562,783.6996459960938
132,791.7582397460938,796.5933837890625,792.967041015625,794.981689453125
133,792.1611938476562,798.6080322265625,789.7435913085938,794.1758422851562
134,786.923095703125,795.3846435546875,787.7289428710938,790.5494384765625
135,786.1171875,791.7582397460938,794.1758422851562,799.8168334960938
136,790.952392578125,788.1318969726562,795.3846435546875,802.2344360351562
137,791.3552856445312,788.1318969726562,792.5640869140625,794.5787353515625
138,790.5494384765625,796.996337890625,796.5933837890625,797.8021850585938
139,790.1465454101562,798.2051391601562,797.3992919921875,800.6226806640625
140,789.3406372070312,790.952392578125,795.3846435546875,796.1904907226562
141,790.1465454101562,789.3406372070312,791.3552856445312,795.7875366210938
142,789.7435913085938,794.981689453125,786.923095703125,794.5787353515625
143,786.5201416015625,796.5933837890625,791.3552856445312,789.3406372070312
144,784.5054931640625,795.3846435546875,794.1758422851562,790.1465454101562
145,785.7142944335938,794.5787353515625,789.7435913085938,790.952392578125
146,785.3113403320312,782.4908447265625,791.3552856445312,792.1611938476562
147,786.5201416015625,784.1025390625,795.3846435546875,792.5640869140625
148,787.7289428710938,793.3699340820312,793.3699340820312,792.5640869140625
149,779.6703491210938,791.7582397460938,792.967041015625,792.967041015625
150,780.4761962890625,798.6080322265625,793.7728881835938,798.2051391601562
151,790.5494384765625,796.1904907226562,793.3699340820312,807.4725341796875
152,793.7728881835938,792.5640869140625,796.1904907226562,807.4725341796875
153,789.7435913085938,792.967041015625,794.981689453125,790.5494384765625
154,789.3406372070312,786.923095703125,788.937744140625,780.879150390625
155,794.1758422851562,790.952392578125,790.1465454101562,784.1025390625
156,797.8021850585938,796.996337890625,791.7582397460938,786.5201416015625
157,796.1904907226562,795.3846435546875,787.7289428710938,782.087890625
158,792.967041015625,794.5787353515625,787.3259887695312,782.4908447265625
159,785.7142944335938,788.5347900390625,790.952392578125,786.923095703125
160,784.5054931640625,789.3406372070312,793.3699340820312,790.1465454101562
161,786.1171875,798.6080322265625,792.5640869140625,787.3259887695312
162,790.5494384765625,802.2344360351562,793.7728881835938,786.5201416015625
163,792.5640869140625,794.981689453125,795.7875366210938,795.7875366210938
164,792.5640869140625,785.7142944335938,791.3552856445312,792.967041015625
165,792.967041015625,788.937744140625,792.1611938476562,786.5201416015625
166,787.7289428710938,794.981689453125,790.5494384765625,784.908447265625
167,788.5347900390625,792.967041015625,789.7435913085938,788.937744140625
168,790.952392578125,790.5494384765625,795.3846435546875,794.5787353515625
169,789.7435913085938,794.5787353515625,795.7875366210938,793.7728881835938
170,791.3552856445312,796.5933837890625,789.3406372070312,795.7875366210938
171,789.3406372070312,794.5787353515625,789.7435913085938,801.8314819335938
172,785.7142944335938,790.5494384765625,796.996337890625,792.5640869140625
173,790.5494384765625,790.952392578125,794.5787353515625,782.087890625
174,789.3406372070312,793.7728881835938,791.7582397460938,782.087890625
175,782.4908447265625,793.7728881835938,795.7875366210938,780.0732421875
176,789.7435913085938,796.996337890625,796.996337890625,786.5201416015625
177,796.5933837890625,794.981689453125,796.5933837890625,791.7582397460938
178,795.3846435546875,788.1318969726562,794.981689453125,786.5201416015625
179,789.3406372070312,789.3406372070312,795.3846435546875,787.3259887695312
180,786.1171875,789.3406372070312,796.996337890625,788.1318969726562
181,785.3113403320312,786.1171875,798.2051391601562,787.3259887695312
182,780.879150390625,786.923095703125,794.5787353515625,791.3552856445312
183,780.879150390625,790.952392578125,793.3699340820312,790.1465454101562
184,787.3259887695312,788.1318969726562,794.1758422851562,786.923095703125
185,786.1171875,788.1318969726562,792.967041015625,789.7435913085938
186,783.6996459960938,787.7289428710938,791.7582397460938,797.8021850585938
187,788.937744140625,790.5494384765625,789.3406372070312,791.3552856445312
188,798.6080322265625,790.1465454101562,794.1758422851562,789.7435913085938
189,798.6080322265625,785.3113403320312,797.3992919921875,799.4139404296875
190,791.7582397460938,790.5494384765625,795.3846435546875,795.7875366210938
191,787.7289428710938,788.937744140625,791.3552856445312,786.923095703125
192,789.3406372070312,788.1318969726562,793.7728881835938,788.1318969726562
193,792.5640869140625,786.923095703125,798.2051391601562,794.1758422851562
194,788.1318969726562,782.087890625,793.3699340820312,796.5933837890625
195,782.893798828125,784.5054931640625,787.7289428710938,795.3846435546875
196,786.5201416015625,793.7728881835938,789.3406372070312,792.1611938476562
197,792.5640869140625,799.010986328125,792.5640869140625,797.8021850585938
198,790.952392578125,795.3846435546875,792.5640869140625,797.8021850585938
199,791.7582397460938,789.7435913085938,794.5787353515625,786.923095703125
200,792.967041015625,789.7435913085938,794.981689453125,784.908447265625
201,794.981689453125,795.7875366210938,794.5787353515625,789.7435913085938
202,796.1904907226562,791.7582397460938,797.3992919921875,794.5787353515625
203,790.1465454101562,790.952392578125,797.3992919921875,792.967041015625
204,789.3406372070312,789.7435913085938,791.3552856445312,791.3552856445312
205,788.5347900390625,785.7142944335938,790.952392578125,790.952392578125
206,788.5347900390625,792.5640869140625,792.5640869140625,788.5347900390625
207,788.937744140625,793.7728881835938,794.981689453125,783.2966918945312
208,784.5054931640625,791.7582397460938,799.8168334960938,784.5054931640625
209,782.893798828125,788.937744140625,796.996337890625,789.3406372070312
210,775.6410522460938,788.1318969726562,794.1758422851562,784.908447265625
211,772.4176025390625,787.3259887695312,788.937744140625,782.4908447265625
212,786.1171875,789.7435913085938,786.5201416015625,792.5640869140625
213,791.3552856445312,789.7435913085938,795.3846435546875,791.3552856445312
214,787.7289428710938,790.1465454101562,792.967041015625,788.1318969726562
215,791.3552856445312,790.952392578125,792.1611938476562,792.5640869140625
216,793.3699340820312,792.5640869140625,794.5787353515625,787.3259887695312
217,793.7728881835938,790.5494384765625,796.996337890625,786.5201416015625
218,792.5640869140625,784.908447265625,797.3992919921875,798.2051391601562
219,794.1758422851562,788.1318969726562,793.7728881835938,800.2197875976562
220,797.8021850585938,792.1611938476562,790.952392578125,805.4578857421875
221,793.7728881835938,799.8168334960938,787.7289428710938,802.6373901367188
222,780.4761962890625,796.5933837890625,792.5640869140625,785.7142944335938
223,782.893798828125,794.5787353515625,794.1758422851562,790.5494384765625
224,790.952392578125,797.3992919921875,788.937744140625,796.996337890625
225,788.5347900390625,791.7582397460938,790.1465454101562,794.981689453125
226,790.952392578125,787.3259887695312,799.010986328125,799.010986328125
227,802.6373901367188,786.923095703125,799.010986328125,802.2344360351562
228,809.89013671875,786.5201416015625,798.6080322265625,807.4725341796875
229,807.069580078125,790.952392578125,799.4139404296875,809.89013671875
230,801.4285888671875,797.8021850585938,793.7728881835938,800.2197875976562
231,801.4285888671875,793.7728881835938,796.1904907226562,794.5787353515625
232,800.2197875976562,794.5787353515625,796.996337890625,792.5640869140625
233,799.8168334960938,800.2197875976562,799.4139404296875,789.3406372070312
234,800.6226806640625,800.6226806640625,799.4139404296875,787.3259887695312
235,797.3992919921875,790.952392578125,793.7728881835938,795.3846435546875
236,793.7728881835938,787.7289428710938,796.996337890625,803.040283203125
237,792.5640869140625,796.5933837890625,799.010986328125,793.7728881835938
238,793.7728881835938,799.4139404296875,793.3699340820312,785.7142944335938
239,794.5787353515625,794.1758422851562,795.3846435546875,791.7582397460938
240,795.7875366210938,790.952392578125,801.025634765625,801.4285888671875
241,792.5640869140625,796.1904907226562,802.2344360351562,803.4432373046875
242,786.5201416015625,799.4139404296875,796.5933837890625,794.981689453125
243,789.3406372070312,799.4139404296875,791.3552856445312,795.7875366210938
244,795.3846435546875,799.8168334960938,793.7728881835938,796.5933837890625
245,795.7875366210938,794.1758422851562,795.3846435546875,785.3113403320312
246,792.967041015625,790.1465454101562,796.1904907226562,785.3113403320312
247,789.7435913085938,794.1758422851562,791.3552856445312,795.3846435546875
248,793.7728881835938,796.1904907226562,791.3552856445312,799.8168334960938
249,798.2051391601562,793.7728881835938,796.5933837890625,800.6226806640625
250,796.996337890625,793.7728881835938,797.3992919921875,805.4578857421875
251,791.3552856445312,794.5787353515625,792.1611938476562,804.2490844726562
252,794.5787353515625,795.3846435546875,789.3406372070312,797.8021850585938
253,796.996337890625,792.1611938476562,794.1758422851562,794.981689453125
254,790.1465454101562,792.5640869140625,791.7582397460938,790.952392578125
255,790.1465454101562,793.3699340820312,788.937744140625,788.1318969726562
256,789.7435913085938,791.7582397460938,788.937744140625,786.1171875
257,787.7289428710938,784.908447265625,789.7435913085938,785.3113403320312
258,790.1465454101562,782.4908447265625,794.1758422851562,796.996337890625
259,790.5494384765625,790.1465454101562,790.952392578125,802.2344360351562
260,794.1758422851562,793.3699340820312,789.3406372070312,801.025634765625
261,798.6080322265625,788.1318969726562,792.5640869140625,796.1904907226562
262,796.5933837890625,786.1171875,788.5347900390625,788.5347900390625
263,795.3846435546875,793.3699340820312,790.1465454101562,794.1758422851562
264,795.7875366210938,799.010986328125,803.040283203125,790.5494384765625
265,795.3846435546875,799.010986328125,805.4578857421875,785.3113403320312
266,794.981689453125,797.3992919921875,804.6520385742188,790.1465454101562
267,790.1465454101562,796.996337890625,798.6080322265625,787.3259887695312
268,796.5933837890625,796.1904907226562,794.5787353515625,787.7289428710938
269,800.6226806640625,797.8021850585938,801.025634765625,791.7582397460938
270,796.5933837890625,795.3846435546875,796.996337890625,801.025634765625
271,795.7875366210938,791.3552856445312,795.3846435546875,801.8314819335938
272,790.5494384765625,791.3552856445312,797.8021850585938,786.1171875
273,790.1465454101562,790.5494384765625,794.5787353515625,781.6849975585938
274,793.3699340820312,787.7289428710938,793.3699340820312,783.6996459960938
275,793.7728881835938,792.1611938476562,789.7435913085938,791.7582397460938
276,792.967041015625,802.6373901367188,790.1465454101562,796.1904907226562
277,792.967041015625,798.2051391601562,794.5787353515625,792.5640869140625
278,796.5933837890625,793.3699340820312,790.1465454101562,790.952392578125
279,798.6080322265625,796.996337890625,792.1611938476562,789.3406372070312
280,794.1758422851562,795.7875366210938,794.981689453125,788.1318969726562
281,796.5933837890625,784.908447265625,790.952392578125,794.1758422851562
282,800.6226806640625,788.5347900390625,791.3552856445312,801.8314819335938
283,791.7582397460938,803.4432373046875,791.7582397460938,791.3552856445312
284,788.5347900390625,797.8021850585938,790.1465454101562,783.6996459960938
285,795.3846435546875,794.1758422851562,790.952392578125,785.7142944335938
286,803.040283203125,799.010986328125,793.7728881835938,786.5201416015625
287,808.2783813476562,795.7875366210938,794.5787353515625,788.1318969726562
288,809.084228515625,791.7582397460938,796.1904907226562,796.1904907226562
289,806.2637329101562,794.1758422851562,796.5933837890625,801.025634765625
290,803.8461303710938,796.5933837890625,791.7582397460938,799.4139404296875
291,797.8021850585938,795.3846435546875,792.967041015625,797.8021850585938
292,796.5933837890625,800.6226806640625,798.2051391601562,795.7875366210938
293,797.8021850585938,798.6080322265625,796.5933837890625,804.2490844726562
294,794.5787353515625,795.7875366210938,794.1758422851562,806.2637329101562
295,795.7875366210938,804.2490844726562,793.7728881835938,797.8021850585938
296,796.1904907226562,805.8607788085938,796.1904907226562,795.7875366210938
297,793.3699340820312,798.2051391601562,801.8314819335938,794.981689453125
298,792.1611938476562,796.1904907226562,800.2197875976562,799.4139404296875
299,789.7435913085938,798.6080322265625,796.996337890625,795.7875366210938
300,792.967041015625,797.3992919921875,802.6373901367188,795.7875366210938
301,795.7875366210938,804.6520385742188,804.6520385742188,805.8607788085938
302,788.5347900390625,806.6666870117188,801.4285888671875,805.054931640625
303,782.893798828125,795.3846435546875,799.4139404296875,799.010986328125
304,786.923095703125,789.7435913085938,795.3846435546875,803.040283203125
305,792.5640869140625,790.1465454101562,794.981689453125,809.4871826171875
306,785.7142944335938,796.996337890625,799.010986328125,804.2490844726562
307,787.7289428710938,800.2197875976562,801.025634765625,798.6080322265625
308,794.5787353515625,799.4139404296875,800.2197875976562,804.6520385742188
309,793.7728881835938,798.6080322265625,798.6080322265625,805.4578857421875
310,795.7875366210938,796.996337890625,794.5787353515625,794.1758422851562
311,805.054931640625,796.996337890625,798.2051391601562,790.1465454101562
312,805.8607788085938,797.8021850585938,800.6226806640625,792.967041015625
313,796.996337890625,793.3699340820312,790.952392578125,797.3992919921875
314,792.1611938476562,786.5201416015625,792.967041015625,796.5933837890625
315,788.937744140625,786.923095703125,797.8021850585938,792.967041015625
316,790.1465454101562,784.908447265625,793.7728881835938,798.2051391601562
317,790.952392578125,789.7435913085938,792.5640869140625,795.3846435546875
318,782.893798828125,800.2197875976562,792.5640869140625,789.7435913085938
319,778.4615478515625,796.5933837890625,792.1611938476562,792.5640869140625
320,784.5054931640625,794.5787353515625,795.3846435546875,790.952392578125
321,793.7728881835938,799.4139404296875,802.6373901367188,794.1758422851562
322,792.1611938476562,796.996337890625,800.6226806640625,798.6080322265625
323,785.3113403320312,792.967041015625,794.5787353515625,798.2051391601562
324,788.1318969726562,793.3699340820312,796.5933837890625,798.6080322265625
325,796.1904907226562,793.7728881835938,802.6373901367188,805.054931640625
326,798.2051391601562,790.952392578125,795.7875366210938,799.4139404296875
327,791.3552856445312,788.1318969726562,788.1318969726562,794.5787353515625
328,781.6849975585938,783.2966918945312,786.1171875,791.3552856445312
329,777.6557006835938,784.1025390625,789.3406372070312,789.3406372070312
330,776.0439453125,794.1758422851562,794.5787353515625,786.5201416015625
331,777.2527465820312,796.5933837890625,787.3259887695312,788.5347900390625
332,786.5201416015625,799.010986328125,784.5054931640625,799.4139404296875
333,781.6849975585938,797.3992919921875,794.1758422851562,794.5787353515625
334,776.4468994140625,796.5933837890625,795.7875366210938,794.1758422851562
335,777.6557006835938,799.010986328125,792.1611938476562,796.5933837890625
336,776.4468994140625,794.1758422851562,796.1904907226562,792.5640869140625
337,774.4322509765625,792.1611938476562,803.4432373046875,789.7435913085938
338,774.4322509765625,792.5640869140625,799.4139404296875,788.5347900390625
339,779.2673950195312,790.5494384765625,796.1904907226562,793.3699340820312
340,777.6557006835938,788.1318969726562,796.1904907226562,788.1318969726562
341,772.0146484375,788.5347900390625,796.1904907226562,787.3259887695312
342,776.8497924804688,785.7142944335938,793.7728881835938,795.7875366210938
343,774.4322509765625,784.908447265625,787.7289428710938,794.5787353515625
344,769.1941528320312,785.7142944335938,794.981689453125,785.7142944335938
345,774.4322509765625,785.3113403320312,799.010986328125,776.0439453125
346,780.0732421875,787.3259887695312,795.3846435546875,777.2527465820312
347,779.2673950195312,786.1171875,798.2051391601562,782.087890625
348,779.2673950195312,786.1171875,799.4139404296875,782.4908447265625
349,782.893798828125,788.1318969726562,795.7875366210938,780.879150390625
350,782.4908447265625,786.923095703125,792.967041015625,784.1025390625
351,785.3113403320312,786.5201416015625,794.1758422851562,792.967041015625
352,786.923095703125,788.1318969726562,799.010986328125,800.2197875976562
353,786.923095703125,790.1465454101562,801.025634765625,798.6080322265625
354,786.5201416015625,791.7582397460938,799.8168334960938,799.010986328125
355,788.937744140625,789.7435913085938,792.5640869140625,803.040283203125
356,790.5494384765625,793.7728881835938,791.7582397460938,794.981689453125
357,795.3846435546875,797.8021850585938,796.5933837890625,787.7289428710938
358,803.4432373046875,794.5787353515625,802.2344360351562,793.7728881835938
359,795.7875366210938,794.5787353515625,803.8461303710938,794.5787353515625
360,786.1171875,795.7875366210938,799.4139404296875,789.3406372070312
361,791.7582397460938,798.2051391601562,799.8168334960938,794.1758422851562
362,796.5933837890625,801.4285888671875,798.6080322265625,791.7582397460938
363,792.967041015625,800.6226806640625,796.1904907226562,788.5347900390625
364,791.7582397460938,795.3846435546875,794.5787353515625,793.7728881835938
365,786.923095703125,787.3259887695312,792.1611938476562,795.3846435546875
366,786.5201416015625,789.3406372070312,796.1904907226562,789.3406372070312
367,787.7289428710938,794.981689453125,798.2051391601562,786.923095703125
368,787.7289428710938,795.7875366210938,794.5787353515625,783.6996459960938
369,785.7142944335938,794.1758422851562,788.1318969726562,778.4615478515625
370,786.923095703125,793.7728881835938,792.5640869140625,784.908447265625
371,791.7582397460938,791.7582397460938,799.8168334960938,794.1758422851562
372,795.7875366210938,787.7289428710938,803.4432373046875,800.2197875976562
373,791.7582397460938,787.3259887695312,799.4139404296875,795.7875366210938
374,787.3259887695312,782.4908447265625,790.5494384765625,796.5933837890625
375,794.5787353515625,783.2966918945312,794.5787353515625,798.6080322265625
376,802.6373901367188,792.5640869140625,798.6080322265625,796.996337890625
377,798.2051391601562,788.937744140625,796.996337890625,801.8314819335938
378,793.3699340820312,788.937744140625,790.952392578125,802.6373901367188
379,794.981689453125,789.3406372070312,790.5494384765625,792.967041015625
380,796.996337890625,787.7289428710938,793.3699340820312,785.3113403320312
381,796.5933837890625,796.5933837890625,795.3846435546875,784.908447265625
382,796.996337890625,798.6080322265625,796.996337890625,786.5201416015625
383,796.5933837890625,790.952392578125,792.5640869140625,789.3406372070312
384,794.1758422851562,791.3552856445312,788.5347900390625,793.7728881835938
385,793.7728881835938,794.1758422851562,791.7582397460938,794.5787353515625
386,799.010986328125,795.3846435546875,796.1904907226562,789.7435913085938
387,803.040283203125,794.1758422851562,798.6080322265625,788.937744140625
388,799.8168334960938,788.937744140625,796.5933837890625,786.923095703125
389,800.2197875976562,792.1611938476562,796.996337890625,796.5933837890625
390,797.3992919921875,797.8021850585938,800.2197875976562,800.2197875976562
391,796.5933837890625,796.996337890625,801.8314819335938,796.996337890625
392,799.4139404296875,794.5787353515625,801.025634765625,803.040283203125
393,800.2197875976562,791.7582397460938,796.5933837890625,799.8168334960938
394,799.010986328125,793.3699340820312,791.7582397460938,794.981689453125
395,792.5640869140625,799.4139404296875,794.5787353515625,794.5787353515625
396,784.5054931640625,796.996337890625,801.4285888671875,792.1611938476562
397,782.087890625,794.5787353515625,797.8021850585938,785.3113403320312
398,788.1318969726562,793.3699340820312,800.2197875976562,784.5054931640625
399,790.5494384765625,792.1611938476562,803.040283203125,790.5494384765625
400,788.5347900390625,786.5201416015625,796.5933837890625,788.1318969726562
401,785.7142944335938,788.937744140625,796.1904907226562,790.1465454101562
402,780.879150390625,798.6080322265625,798.6080322265625,794.1758422851562
403,779.2673950195312,797.3992919921875,801.8314819335938,792.1611938476562
404,778.8644409179688,791.3552856445312,797.3992919921875,787.3259887695312
405,778.05859375,790.952392578125,795.3846435546875,784.908447265625
406,778.05859375,791.7582397460938,798.2051391601562,782.4908447265625
407,782.4908447265625,790.952392578125,797.3992919921875,778.05859375
408,788.5347900390625,792.5640869140625,797.3992919921875,782.893798828125
409,790.952392578125,789.3406372070312,798.6080322265625,787.7289428710938
410,791.7582397460938,791.3552856445312,799.4139404296875,786.5201416015625
411,793.7728881835938,795.3846435546875,799.010986328125,785.7142944335938
412,804.6520385742188,791.3552856445312,797.3992919921875,801.025634765625
413,809.4871826171875,794.981689453125,793.7728881835938,807.069580078125
414,801.4285888671875,799.010986328125,795.7875366210938,789.3406372070312
415,797.8021850585938,796.5933837890625,797.8021850585938,786.5201416015625
416,795.7875366210938,797.8021850585938,790.1465454101562,786.1171875
417,793.7728881835938,793.3699340820312,787.7289428710938,782.4908447265625
418,792.5640869140625,790.5494384765625,793.3699340820312,787.3259887695312
419,800.2197875976562,794.5787353515625,794.5787353515625,793.7728881835938
420,801.4285888671875,794.981689453125,792.967041015625,790.952392578125
421,793.3699340820312,791.3552856445312,790.5494384765625,780.879150390625
422,790.952392578125,794.5787353515625,792.1611938476562,772.0146484375
423,796.1904907226562,796.996337890625,794.981689453125,781.6849975585938
424,796.996337890625,794.1758422851562,793.3699340820312,782.893798828125
425,782.893798828125,790.1465454101562,792.967041015625,775.2380981445312
426,777.6557006835938,791.7582397460938,792.1611938476562,782.4908447265625
427,782.087890625,787.3259887695312,782.4908447265625,790.5494384765625
428,778.05859375,778.4615478515625,785.7142944335938,792.1611938476562
429,774.4322509765625,781.6849975585938,797.8021850585938,790.952392578125
430,774.8351440429688,786.923095703125,795.3846435546875,791.3552856445312
431,775.2380981445312,791.7582397460938,793.3699340820312,792.5640869140625
432,778.4615478515625,788.1318969726562,792.967041015625,798.2051391601562
433,786.923095703125,787.7289428710938,788.937744140625,799.4139404296875
434,795.7875366210938,791.7582397460938,789.7435913085938,799.4139404296875
435,797.8021850585938,786.923095703125,786.5201416015625,805.054931640625
436,803.4432373046875,782.893798828125,781.2820434570312,805.054931640625
437,807.87548828125,786.1171875,782.893798828125,796.996337890625
438,805.054931640625,788.937744140625,781.6849975585938,795.7875366210938
439,810.6959838867188,789.3406372070312,782.087890625,797.8021850585938
440,823.1868286132812,796.5933837890625,788.937744140625,803.4432373046875
441,822.7838745117188,788.5347900390625,785.7142944335938,798.6080322265625
442,815.93408203125,778.4615478515625,778.4615478515625,792.1611938476562
443,820.7692260742188,787.7289428710938,778.8644409179688,799.4139404296875
444,819.1575317382812,796.5933837890625,778.8644409179688,801.4285888671875
445,807.069580078125,799.8168334960938,784.908447265625,799.8168334960938
446,797.8021850585938,799.010986328125,792.1611938476562,792.967041015625
447,793.3699340820312,795.7875366210938,793.7728881835938,788.937744140625
448,794.5787353515625,798.2051391601562,802.2344360351562,798.6080322265625
449,793.7728881835938,800.6226806640625,803.4432373046875,803.4432373046875
450,789.7435913085938,795.3846435546875,798.2051391601562,798.6080322265625
451,785.7142944335938,790.952392578125,795.7875366210938,799.8168334960938
452,785.3113403320312,795.3846435546875,794.981689453125,794.981689453125
453,785.3113403320312,796.5933837890625,797.8021850585938,786.1171875
454,782.087890625,795.3846435546875,799.4139404296875,789.7435913085938
455,785.3113403320312,794.1758422851562,797.8021850585938,794.1758422851562
456,785.7142944335938,794.1758422851562,794.1758422851562,792.1611938476562
457,783.2966918945312,790.952392578125,791.3552856445312,788.1318969726562
458,787.7289428710938,788.937744140625,788.5347900390625,792.1611938476562
459,795.7875366210938,797.3992919921875,794.5787353515625,800.2197875976562
460,798.2051391601562,791.7582397460938,798.6080322265625,798.6080322265625
461,797.3992919921875,786.923095703125,793.7728881835938,789.3406372070312
462,804.2490844726562,792.967041015625,795.7875366210938,796.996337890625
463,809.89013671875,791.3552856445312,797.8021850585938,800.2197875976562
464,808.2783813476562,793.3699340820312,801.8314819335938,796.996337890625
465,804.6520385742188,792.5640869140625,805.054931640625,798.6080322265625
466,805.4578857421875,789.3406372070312,803.040283203125,801.4285888671875
467,805.054931640625,791.3552856445312,802.2344360351562,805.054931640625
468,795.3846435546875,789.3406372070312,799.4139404296875,797.3992919921875
469,798.6080322265625,789.7435913085938,800.2197875976562,799.4139404296875
470,805.8607788085938,797.8021850585938,802.2344360351562,806.2637329101562
471,799.4139404296875,798.6080322265625,794.1758422851562,807.4725341796875
472,795.3846435546875,785.7142944335938,786.923095703125,805.8607788085938
473,795.3846435546875,785.3113403320312,789.7435913085938,800.2197875976562
474,794.981689453125,791.7582397460938,792.5640869140625,802.2344360351562
475,792.967041015625,797.3992919921875,793.3699340820312,799.010986328125
476,791.7582397460938,802.2344360351562,791.3552856445312,792.1611938476562
477,795.3846435546875,796.5933837890625,789.3406372070312,792.967041015625
478,794.1758422851562,795.7875366210938,784.908447265625,797.3992919921875
479,796.1904907226562,802.6373901367188,783.6996459960938,800.6226806640625
480,796.5933837890625,803.8461303710938,784.908447265625,792.5640869140625
481,794.5787353515625,802.6373901367188,786.923095703125,784.908447265625
482,794.5787353515625,802.6373901367188,788.1318969726562,789.7435913085938
483,794.5787353515625,796.996337890625,785.7142944335938,796.996337890625
484,799.4139404296875,789.7435913085938,790.1465454101562,790.5494384765625
485,802.6373901367188,797.3992919921875,788.5347900390625,789.3406372070312
486,797.8021850585938,803.8461303710938,784.1025390625,791.3552856445312
487,795.3846435546875,802.6373901367188,789.7435913085938,782.087890625
488,798.6080322265625,802.2344360351562,791.3552856445312,779.6703491210938
489,796.1904907226562,806.6666870117188,787.7289428710938,778.4615478515625
490,790.952392578125,809.084228515625,784.1025390625,780.879150390625
491,790.952392578125,807.069580078125,788.937744140625,779.6703491210938
492,794.981689453125,798.6080322265625,784.5054931640625,784.5054931640625
493,800.6226806640625,792.967041015625,783.6996459960938,797.3992919921875
494,799.8168334960938,788.937744140625,791.3552856445312,792.1611938476562
495,794.5787353515625,789.3406372070312,792.1611938476562,789.7435913085938
496,792.1611938476562,790.952392578125,792.1611938476562,794.5787353515625
497,795.3846435546875,790.5494384765625,792.5640869140625,797.8021850585938
498,792.967041015625,794.981689453125,794.5787353515625,798.2051391601562
499,789.7435913085938,794.981689453125,795.3846435546875,796.996337890625
500,789.7435913085938,792.1611938476562,800.2197875976562,798.2051391601562
501,789.3406372070312,790.5494384765625,800.6226806640625,796.5933837890625
502,789.3406372070312,792.1611938476562,799.8168334960938,792.5640869140625
503,792.967041015625,794.981689453125,805.4578857421875,793.7728881835938
504,797.3992919921875,793.3699340820312,806.6666870117188,798.2051391601562
505,796.5933837890625,791.7582397460938,803.8461303710938,797.3992919921875
506,798.6080322265625,791.7582397460938,800.2197875976562,794.5787353515625
507,795.3846435546875,787.3259887695312,799.4139404296875,788.937744140625
508,788.1318969726562,785.3113403320312,800.2197875976562,793.3699340820312
509,785.3113403320312,793.7728881835938,799.4139404296875,800.2197875976562
510,784.908447265625,804.6520385742188,801.8314819335938,797.3992919921875
511,787.7289428710938,798.2051391601562,800.6226806640625,796.1904907226562
512,787.3259887695312,791.7582397460938,796.1904907226562,790.952392578125
513,789.7435913085938,799.010986328125,798.2051391601562,795.3846435546875
514,794.5787353515625,797.8021850585938,794.5787353515625,799.8168334960938
515,794.1758422851562,795.7875366210938,796.1904907226562,797.8021850585938
516,786.1171875,793.7728881835938,800.6226806640625,796.5933837890625
517,776.4468994140625,790.5494384765625,799.4139404296875,790.5494384765625
518,775.6410522460938,790.1465454101562,798.2051391601562,784.1025390625
519,779.6703491210938,792.967041015625,796.996337890625,790.952392578125
520,780.879150390625,791.3552856445312,794.981689453125,795.7875366210938
521,774.8351440429688,788.937744140625,795.3846435546875,786.5201416015625
522,776.0439453125,792.5640869140625,792.5640869140625,784.908447265625
523,779.6703491210938,790.5494384765625,792.967041015625,784.5054931640625
524,774.8351440429688,788.937744140625,798.2051391601562,784.5054931640625
525,776.0439453125,790.5494384765625,792.967041015625,784.1025390625
526,780.879150390625,789.3406372070312,790.5494384765625,781.6849975585938
527,783.6996459960938,792.5640869140625,792.967041015625,786.5201416015625
528,782.087890625,787.7289428710938,790.952392578125,784.908447265625
529,783.6996459960938,780.4761962890625,788.5347900390625,779.6703491210938
530,788.5347900390625,790.1465454101562,790.5494384765625,788.1318969726562
531,788.1318969726562,797.3992919921875,793.3699340820312,796.1904907226562
532,794.981689453125,797.3992919921875,792.967041015625,796.996337890625
533,794.1758422851562,797.8021850585938,796.5933837890625,798.2051391601562
534,785.7142944335938,796.5933837890625,797.8021850585938,794.5787353515625
535,790.5494384765625,794.5787353515625,794.5787353515625,799.8168334960938
536,801.025634765625,794.1758422851562,794.1758422851562,807.4725341796875
537,803.8461303710938,796.5933837890625,796.996337890625,801.4285888671875
538,797.8021850585938,796.996337890625,798.2051391601562,801.025634765625
539,794.981689453125,789.3406372070312,800.2197875976562,798.2051391601562
540,796.5933837890625,784.5054931640625,796.1904907226562,794.5787353515625
541,797.8021850585938,791.7582397460938,795.3846435546875,795.3846435546875
542,789.7435913085938,798.2051391601562,798.6080322265625,796.5933837890625
543,778.4615478515625,789.3406372070312,797.3992919921875,790.5494384765625
544,780.0732421875,792.5640869140625,794.981689453125,784.908447265625
545,784.5054931640625,799.010986328125,791.3552856445312,785.3113403320312
546,785.7142944335938,792.1611938476562,788.937744140625,792.1611938476562
547,782.4908447265625,790.1465454101562,790.952392578125,791.3552856445312
548,783.6996459960938,790.952392578125,794.1758422851562,786.923095703125
549,791.3552856445312,794.5787353515625,797.3992919921875,792.967041015625
550,789.7435913085938,789.3406372070312,794.5787353515625,792.1611938476562
551,791.7582397460938,780.4761962890625,797.3992919921875,791.7582397460938
552,789.7435913085938,785.7142944335938,796.5933837890625,789.7435913085938
553,786.5201416015625,791.7582397460938,786.5201416015625,787.3259887695312
554,787.3259887695312,789.3406372070312,787.3259887695312,795.7875366210938
555,792.1611938476562,788.5347900390625,788.1318969726562,808.2783813476562
556,791.3552856445312,794.5787353515625,787.7289428710938,804.2490844726562
557,785.7142944335938,798.6080322265625,792.1611938476562,792.1611938476562
558,785.7142944335938,797.3992919921875,788.937744140625,791.3552856445312
559,787.3259887695312,792.5640869140625,784.5054931640625,795.3846435546875
560,791.7582397460938,780.0732421875,789.7435913085938,794.981689453125
561,795.3846435546875,777.6557006835938,793.3699340820312,793.3699340820312
562,792.967041015625,794.5787353515625,791.7582397460938,789.3406372070312
563,778.05859375,794.981689453125,787.7289428710938,774.4322509765625
564,772.8204956054688,792.1611938476562,781.2820434570312,772.0146484375
565,778.8644409179688,796.1904907226562,783.2966918945312,780.879150390625
566,778.05859375,794.981689453125,794.5787353515625,789.3406372070312
567,780.879150390625,795.7875366210938,791.7582397460938,795.7875366210938
568,782.087890625,790.1465454101562,788.1318969726562,796.1904907226562
569,788.1318969726562,786.923095703125,795.3846435546875,801.8314819335938
570,789.3406372070312,789.7435913085938,793.3699340820312,801.4285888671875
571,786.1171875,794.5787353515625,794.5787353515625,789.3406372070312
572,792.967041015625,794.1758422851562,796.5933837890625,784.1025390625
573,794.1758422851562,792.967041015625,797.8021850585938,785.7142944335938
574,794.981689453125,791.3552856445312,792.1611938476562,791.3552856445312
575,791.3552856445312,791.7582397460938,792.1611938476562,794.1758422851562
576,786.1171875,793.3699340820312,803.040283203125,793.3699340820312
577,786.5201416015625,783.6996459960938,801.8314819335938,795.3846435546875
578,790.952392578125,782.087890625,796.1904907226562,793.7728881835938
579,795.7875366210938,797.8021850585938,800.6226806640625,792.5640869140625
580,789.3406372070312,801.8314819335938,802.2344360351562,786.1171875
581,789.7435913085938,795.3846435546875,800.2197875976562,798.6080322265625
582,793.3699340820312,788.937744140625,800.6226806640625,809.4871826171875
583,786.5201416015625,786.923095703125,799.4139404296875,796.1904907226562
584,784.5054931640625,788.5347900390625,796.5933837890625,800.2197875976562
585,784.908447265625,789.7435913085938,796.1904907226562,805.4578857421875
586,788.1318969726562,796.996337890625,794.5787353515625,803.4432373046875
587,792.967041015625,796.996337890625,789.3406372070312,795.7875366210938
588,800.2197875976562,787.7289428710938,789.7435913085938,793.7728881835938
589,800.2197875976562,784.908447265625,786.923095703125,797.3992919921875
590,795.7875366210938,793.7728881835938,785.7142944335938,791.7582397460938
591,795.3846435546875,795.3846435546875,790.1465454101562,788.1318969726562
592,795.3846435546875,790.5494384765625,793.7728881835938,786.5201416015625
593,794.5787353515625,791.3552856445312,792.967041015625,790.1465454101562
594,786.923095703125,793.7728881835938,795.7875366210938,789.7435913085938
595,780.4761962890625,792.967041015625,801.025634765625,789.3406372070312
596,783.6996459960938,788.937744140625,801.8314819335938,789.3406372070312
597,787.3259887695312,791.7582397460938,796.996337890625,788.937744140625
598,787.7289428710938,797.3992919921875,793.3699340820312,788.5347900390625
599,790.5494384765625,797.3992919921875,791.3552856445312,786.923095703125
600,788.1318969726562,795.7875366210938,791.3552856445312,786.5201416015625
601,792.5640869140625,791.7582397460938,794.1758422851562,781.6849975585938
602,801.8314819335938,793.3699340820312,796.996337890625,786.5201416015625
603,802.2344360351562,797.3992919921875,796.996337890625,791.3552856445312
604,801.4285888671875,798.2051391601562,792.967041015625,796.1904907226562
605,796.1904907226562,800.6226806640625,794.5787353515625,792.1611938476562
606,788.937744140625,799.010986328125,795.7875366210938,776.8497924804688
607,794.1758422851562,799.8168334960938,792.5640869140625,785.7142944335938
608,803.040283203125,797.8021850585938,788.1318969726562,798.6080322265625
609,798.2051391601562,791.7582397460938,790.5494384765625,797.8021850585938
610,790.952392578125,795.3846435546875,795.3846435546875,797.8021850585938
611,792.967041015625,794.981689453125,793.3699340820312,794.5787353515625
612,790.5494384765625,786.923095703125,796.1904907226562,794.1758422851562
613,788.937744140625,788.5347900390625,798.2051391601562,796.5933837890625
614,786.923095703125,795.3846435546875,794.5787353515625,794.5787353515625
615,785.3113403320312,797.3992919921875,792.5640869140625,797.8021850585938
616,789.7435913085938,799.4139404296875,796.5933837890625,792.967041015625
617,788.5347900390625,796.996337890625,798.6080322265625,780.0732421875
618,790.1465454101562,793.3699340820312,792.1611938476562,776.4468994140625
619,799.010986328125,791.7582397460938,788.1318969726562,782.4908447265625
620,796.5933837890625,790.952392578125,799.010986328125,790.1465454101562
621,790.952392578125,785.3113403320312,802.6373901367188,790.952392578125
622,796.996337890625,782.087890625,796.996337890625,794.1758422851562
623,793.3699340820312,782.4908447265625,790.1465454101562,790.952392578125
624,790.1465454101562,782.4908447265625,793.3699340820312,784.1025390625
625,792.1611938476562,793.3699340820312,800.6226806640625,786.5201416015625
626,788.1318969726562,799.010986328125,794.981689453125,785.3113403320312
627,785.7142944335938,795.7875366210938,794.5787353515625,780.879150390625
628,790.1465454101562,794.981689453125,794.5787353515625,780.879150390625
629,790.1465454101562,790.952392578125,788.1318969726562,782.087890625
630,790.5494384765625,790.5494384765625,791.3552856445312,787.3259887695312
631,795.3846435546875,792.967041015625,792.967041015625,792.967041015625
632,790.952392578125,792.1611938476562,792.967041015625,789.3406372070312
633,790.1465454101562,788.1318969726562,791.3552856445312,781.2820434570312
634,792.1611938476562,790.952392578125,789.7435913085938,779.2673950195312
635,794.5787353515625,800.2197875976562,794.1758422851562,778.05859375
636,791.7582397460938,803.8461303710938,797.8021850585938,777.6557006835938
637,784.5054931640625,801.8314819335938,794.5787353515625,779.2673950195312
638,789.3406372070312,793.7728881835938,792.1611938476562,790.5494384765625
639,795.3846435546875,792.1611938476562,793.7728881835938,801.025634765625
640,788.1318969726562,799.010986328125,793.7728881835938,792.5640869140625
641,786.1171875,803.040283203125,789.3406372070312,785.7142944335938
642,801.8314819335938,799.010986328125,790.1465454101562,794.5787353515625
643,804.6520385742188,794.1758422851562,792.1611938476562,804.2490844726562
644,788.937744140625,799.010986328125,787.7289428710938,793.7728881835938
645,787.3259887695312,799.010986328125,777.6557006835938,788.5347900390625
646,793.7728881835938,794.1758422851562,791.3552856445312,795.3846435546875
647,786.923095703125,795.7875366210938,809.084228515625,797.8021850585938
648,786.1171875,799.010986328125,810.2930297851562,799.8168334960938
649,792.967041015625,802.6373901367188,803.8461303710938,794.981689453125
650,791.7582397460938,802.2344360351562,802.2344360351562,787.7289428710938
651,792.5640869140625,802.6373901367188,802.2344360351562,788.1318969726562
652,799.010986328125,798.6080322265625,797.3992919921875,787.7289428710938
653,798.2051391601562,784.5054931640625,798.6080322265625,786.1171875
654,792.1611938476562,785.3113403320312,798.2051391601562,795.3846435546875
655,792.5640869140625,798.2051391601562,795.3846435546875,799.4139404296875
656,794.981689453125,798.2051391601562,796.1904907226562,785.7142944335938
657,796.1904907226562,791.3552856445312,796.1904907226562,782.893798828125
658,792.5640869140625,793.3699340820312,798.2051391601562,789.3406372070312
659,788.5347900390625,798.2051391601562,802.2344360351562,792.1611938476562
660,787.7289428710938,796.996337890625,791.7582397460938,791.3552856445312
661,789.3406372070312,796.1904907226562,790.5494384765625,792.1611938476562
662,791.3552856445312,794.981689453125,799.8168334960938,798.6080322265625
663,791.3552856445312,788.1318969726562,803.040283203125,805.054931640625
664,793.3699340820312,787.7289428710938,805.054931640625,801.025634765625
665,790.1465454101562,790.1465454101562,802.6373901367188,792.1611938476562
666,789.3406372070312,797.3992919921875,801.8314819335938,797.3992919921875
667,794.5787353515625,801.025634765625,800.6226806640625,793.3699340820312
668,796.5933837890625,795.3846435546875,796.1904907226562,791.7582397460938
669,791.3552856445312,792.5640869140625,792.1611938476562,796.5933837890625
670,791.3552856445312,792.1611938476562,791.3552856445312,794.5787353515625
671,793.3699340820312,790.952392578125,795.3846435546875,793.7728881835938
672,790.952392578125,786.1171875,790.952392578125,790.952392578125
673,789.3406372070312,788.1318969726562,797.8021850585938,796.1904907226562
674,796.1904907226562,790.5494384765625,805.8607788085938,805.054931640625
675,799.4139404296875,793.7728881835938,801.025634765625,804.6520385742188
676,792.5640869140625,799.010986328125,796.996337890625,796.1904907226562
677,789.7435913085938,791.7582397460938,791.7582397460938,797.8021850585938
678,788.1318969726562,787.3259887695312,792.967041015625,800.2197875976562
679,785.7142944335938,789.7435913085938,792.1611938476562,790.5494384765625
680,783.2966918945312,790.1465454101562,791.3552856445312,786.1171875
681,784.5054931640625,792.1611938476562,795.7875366210938,790.952392578125
682,787.7289428710938,794.5787353515625,799.4139404296875,791.7582397460938
683,782.4908447265625,791.3552856445312,802.2344360351562,785.3113403320312
684,782.893798828125,789.3406372070312,800.6226806640625,781.2820434570312
685,784.908447265625,789.3406372070312,796.996337890625,785.3113403320312
686,781.2820434570312,790.1465454101562,795.7875366210938,785.7142944335938
687,785.3113403320312,793.7728881835938,792.1611938476562,787.7289428710938
688,790.952392578125,795.7875366210938,792.5640869140625,787.3259887695312
689,791.7582397460938,792.5640869140625,794.5787353515625,792.967041015625
690,790.5494384765625,791.3552856445312,790.952392578125,794.981689453125
691,789.3406372070312,792.967041015625,788.1318969726562,794.1758422851562
692,792.5640869140625,787.7289428710938,789.7435913085938,798.2051391601562
693,794.981689453125,791.7582397460938,795.7875366210938,795.3846435546875
694,791.7582397460938,802.2344360351562,798.2051391601562,794.981689453125
695,790.5494384765625,794.5787353515625,796.5933837890625,796.1904907226562
696,790.952392578125,783.6996459960938,796.1904907226562,793.7728881835938
697,787.3259887695312,786.923095703125,794.1758422851562,794.981689453125
698,786.5201416015625,787.3259887695312,793.7728881835938,796.996337890625
699,787.3259887695312,784.908447265625,795.3846435546875,796.996337890625
700,787.7289428710938,788.1318969726562,790.5494384765625,798.6080322265625
701,787.3259887695312,790.1465454101562,788.1318969726562,795.7875366210938
702,780.879150390625,792.1611938476562,795.3846435546875,790.5494384765625
703,781.6849975585938,795.3846435546875,800.2197875976562,792.1611938476562
704,783.2966918945312,794.981689453125,797.8021850585938,794.981689453125
705,778.05859375,796.996337890625,794.5787353515625,798.2051391601562
706,779.6703491210938,795.7875366210938,792.967041015625,796.5933837890625
707,780.0732421875,796.1904907226562,788.937744140625,787.7289428710938
708,777.6557006835938,800.2197875976562,787.3259887695312,784.5054931640625
709,780.4761962890625,794.5787353515625,792.1611938476562,790.5494384765625
710,780.879150390625,785.7142944335938,799.8168334960938,792.967041015625
711,779.6703491210938,786.5201416015625,797.8021850585938,791.7582397460938
712,777.2527465820312,793.3699340820312,790.952392578125,794.5787353515625
713,776.8497924804688,798.6080322265625,791.7582397460938,792.1611938476562
714,785.7142944335938,801.8314819335938,797.3992919921875,786.1171875
715,792.5640869140625,798.2051391601562,797.8021850585938,793.7728881835938
716,790.952392578125,790.952392578125,793.3699340820312,802.2344360351562
717,785.3113403320312,793.7728881835938,791.7582397460938,796.1904907226562
718,782.893798828125,795.3846435546875,793.3699340820312,790.5494384765625
719,783.6996459960938,791.7582397460938,792.1611938476562,793.3699340820312
720,780.879150390625,784.5054931640625,787.3259887695312,790.952392578125
721,778.4615478515625,786.1171875,783.2966918945312,791.3552856445312
722,778.05859375,788.1318969726562,781.2820434570312,796.5933837890625
723,777.6557006835938,784.908447265625,779.2673950195312,795.3846435546875
724,782.087890625,788.1318969726562,783.2966918945312,801.025634765625
725,784.5054931640625,785.7142944335938,788.5347900390625,798.6080322265625
726,782.4908447265625,789.3406372070312,790.5494384765625,788.5347900390625
727,778.4615478515625,788.1318969726562,788.1318969726562,794.1758422851562
728,780.0732421875,790.1465454101562,786.1171875,799.4139404296875
729,781.6849975585938,794.981689453125,787.3259887695312,784.5054931640625
730,781.6849975585938,786.923095703125,792.1611938476562,785.3113403320312
731,781.2820434570312,790.5494384765625,794.1758422851562,792.5640869140625
732,780.4761962890625,797.3992919921875,789.3406372070312,786.5201416015625
733,784.1025390625,795.3846435546875,792.967041015625,785.7142944335938
734,784.908447265625,790.5494384765625,795.3846435546875,783.2966918945312
735,783.2966918945312,786.923095703125,796.1904907226562,784.908447265625
736,782.893798828125,786.1171875,797.3992919921875,781.6849975585938
737,785.7142944335938,787.7289428710938,797.3992919921875,773.2234497070312
738,786.923095703125,797.3992919921875,795.7875366210938,778.05859375
739,784.5054931640625,800.6226806640625,792.1611938476562,788.1318969726562
740,788.5347900390625,801.4285888671875,791.3552856445312,784.5054931640625
741,792.5640869140625,802.2344360351562,791.3552856445312,782.4908447265625
742,787.7289428710938,795.3846435546875,785.7142944335938,782.087890625
743,781.2820434570312,790.5494384765625,785.3113403320312,782.4908447265625
744,785.3113403320312,790.5494384765625,790.1465454101562,788.1318969726562
745,791.7582397460938,794.1758422851562,791.3552856445312,788.5347900390625
746,797.3992919921875,800.6226806640625,794.1758422851562,795.7875366210938
747,795.7875366210938,796.996337890625,796.5933837890625,799.010986328125
748,792.5640869140625,791.7582397460938,800.6226806640625,790.5494384765625
749,792.1611938476562,786.923095703125,799.010986328125,784.908447265625
750,790.1465454101562,784.908447265625,792.5640869140625,787.7289428710938
751,791.3552856445312,794.981689453125,795.7875366210938,793.3699340820312
752,792.967041015625,801.025634765625,799.010986328125,790.1465454101562
753,792.5640869140625,795.7875366210938,801.025634765625,792.5640869140625
754,790.952392578125,795.7875366210938,800.6226806640625,799.010986328125
755,789.7435913085938,797.3992919921875,796.1904907226562,796.996337890625
756,789.7435913085938,796.1904907226562,796.5933837890625,797.8021850585938
757,790.1465454101562,794.1758422851562,798.2051391601562,798.6080322265625
758,790.952392578125,791.7582397460938,803.8461303710938,796.5933837890625
759,795.3846435546875,796.5933837890625,800.6226806640625,799.8168334960938
760,794.981689453125,792.1611938476562,789.7435913085938,796.1904907226562
761,793.3699340820312,782.893798828125,799.010986328125,798.2051391601562
762,797.8021850585938,790.952392578125,802.2344360351562,805.054931640625
763,799.010986328125,798.6080322265625,800.2197875976562,794.981689453125
764,792.1611938476562,793.3699340820312,798.2051391601562,781.6849975585938
765,793.7728881835938,792.5640869140625,793.7728881835938,782.087890625
766,790.952392578125,794.5787353515625,795.7875366210938,782.893798828125
767,787.3259887695312,792.1611938476562,794.1758422851562,786.5201416015625
768,789.3406372070312,788.937744140625,791.3552856445312,792.5640869140625
769,792.5640869140625,783.6996459960938,790.952392578125,792.1611938476562
770,795.3846435546875,782.4908447265625,788.937744140625,790.1465454101562
771,803.040283203125,791.3552856445312,791.3552856445312,795.7875366210938
772,807.4725341796875,794.1758422851562,797.3992919921875,797.8021850585938
773,796.1904907226562,790.952392578125,795.3846435546875,796.1904907226562
774,792.967041015625,791.3552856445312,796.996337890625,798.6080322265625
775,800.6226806640625,801.025634765625,796.996337890625,796.1904907226562
776,802.2344360351562,808.2783813476562,788.937744140625,804.6520385742188
777,802.6373901367188,807.069580078125,790.5494384765625,810.2930297851562
778,799.010986328125,797.8021850585938,800.6226806640625,800.6226806640625
779,791.7582397460938,793.7728881835938,807.87548828125,791.3552856445312
780,787.7289428710938,794.1758422851562,805.4578857421875,791.7582397460938
781,787.3259887695312,786.5201416015625,796.996337890625,790.952392578125
782,791.3552856445312,787.7289428710938,795.7875366210938,790.1465454101562
783,797.3992919921875,793.3699340820312,792.1611938476562,789.7435913085938
784,796.996337890625,797.8021850585938,792.967041015625,790.1465454101562
785,799.8168334960938,796.5933837890625,797.8021850585938,798.6080322265625
786,799.4139404296875,788.937744140625,790.5494384765625,794.981689453125
787,795.7875366210938,789.7435913085938,782.4908447265625,785.7142944335938
788,796.996337890625,790.5494384765625,786.923095703125,782.893798828125
789,794.1758422851562,792.1611938476562,792.5640869140625,783.6996459960938
790,796.996337890625,798.2051391601562,794.1758422851562,787.3259887695312
791,799.4139404296875,794.981689453125,792.967041015625,792.967041015625
792,792.1611938476562,790.952392578125,794.1758422851562,792.967041015625
793,790.952392578125,794.1758422851562,794.981689453125,783.6996459960938
794,789.3406372070312,792.5640869140625,793.3699340820312,778.4615478515625
795,785.3113403320312,786.1171875,790.952392578125,772.8204956054688
796,785.7142944335938,784.908447265625,789.7435913085938,776.4468994140625
797,785.7142944335938,787.3259887695312,792.5640869140625,786.5201416015625
798,786.923095703125,784.5054931640625,790.1465454101562,787.3259887695312
799,788.5347900390625,780.0732421875,787.7289428710938,793.3699340820312
800,783.2966918945312,784.908447265625,782.893798828125,791.3552856445312
801,777.6557006835938,788.5347900390625,780.879150390625,789.3406372070312
802,780.879150390625,788.5347900390625,788.937744140625,786.923095703125
803,788.1318969726562,784.5054931640625,792.1611938476562,782.893798828125
804,786.923095703125,790.952392578125,794.5787353515625,781.6849975585938
805,784.5054931640625,796.996337890625,792.5640869140625,782.893798828125
806,791.3552856445312,794.1758422851562,790.952392578125,788.937744140625
807,794.981689453125,794.5787353515625,794.1758422851562,796.5933837890625
808,798.6080322265625,791.3552856445312,789.3406372070312,799.4139404296875
809,797.8021850585938,788.1318969726562,784.5054931640625,790.1465454101562
810,788.937744140625,788.1318969726562,787.3259887695312,783.6996459960938
811,789.3406372070312,782.087890625,788.5347900390625,785.3113403320312
812,789.3406372070312,785.7142944335938,788.5347900390625,786.1171875
813,786.1171875,795.3846435546875,791.3552856445312,780.4761962890625
814,788.5347900390625,798.6080322265625,796.1904907226562,775.6410522460938
815,790.5494384765625,799.8168334960938,794.981689453125,772.4176025390625
816,789.7435913085938,796.1904907226562,794.1758422851562,774.029296875
817,785.3113403320312,788.1318969726562,795.7875366210938,772.4176025390625
818,783.2966918945312,782.4908447265625,794.5787353515625,774.4322509765625
819,791.3552856445312,786.923095703125,795.3846435546875,794.981689453125
820,789.3406372070312,790.952392578125,792.5640869140625,794.981689453125
821,775.6410522460938,792.1611938476562,794.1758422851562,777.6557006835938
822,778.8644409179688,794.981689453125,792.5640869140625,782.893798828125
823,794.1758422851562,798.6080322265625,788.1318969726562,793.3699340820312
824,794.5787353515625,794.981689453125,790.952392578125,794.5787353515625
825,787.3259887695312,787.3259887695312,789.7435913085938,790.1465454101562
826,788.1318969726562,784.908447265625,789.7435913085938,788.5347900390625
827,794.981689453125,786.1171875,791.7582397460938,794.5787353515625
828,803.040283203125,789.3406372070312,793.3699340820312,797.8021850585938
829,800.2197875976562,788.937744140625,795.3846435546875,796.5933837890625
830,794.5787353515625,792.967041015625,794.5787353515625,798.6080322265625
831,792.967041015625,792.967041015625,795.7875366210938,790.952392578125
832,792.967041015625,792.967041015625,794.1758422851562,784.908447265625
833,793.7728881835938,798.6080322265625,790.5494384765625,792.5640869140625
834,790.5494384765625,793.7728881835938,796.1904907226562,794.981689453125
835,785.7142944335938,784.908447265625,797.3992919921875,795.3846435546875
836,782.893798828125,786.1171875,792.1611938476562,790.1465454101562
837,777.2527465820312,787.7289428710938,790.5494384765625,788.937744140625
838,780.4761962890625,784.1025390625,793.3699340820312,795.7875366210938
839,780.0732421875,788.1318969726562,795.7875366210938,792.5640869140625
840,779.6703491210938,798.6080322265625,797.3992919921875,790.5494384765625
841,786.923095703125,802.6373901367188,794.5787353515625,792.967041015625
842,788.1318969726562,798.6080322265625,792.1611938476562,793.3699340820312
843,787.7289428710938,794.1758422851562,790.5494384765625,788.1318969726562
844,786.923095703125,789.7435913085938,790.952392578125,785.3113403320312
845,786.5201416015625,796.1904907226562,793.3699340820312,793.7728881835938
846,791.3552856445312,802.2344360351562,794.981689453125,805.054931640625
847,799.4139404296875,801.4285888671875,796.996337890625,805.4578857421875
848,801.8314819335938,803.040283203125,798.6080322265625,794.1758422851562
849,801.8314819335938,796.1904907226562,795.7875366210938,789.7435913085938
850,803.4432373046875,790.1465454101562,799.010986328125,789.7435913085938
851,802.2344360351562,796.996337890625,799.010986328125,789.3406372070312
852,803.4432373046875,803.4432373046875,800.2197875976562,791.7582397460938
853,805.4578857421875,795.3846435546875,800.6226806640625,799.010986328125
854,801.8314819335938,788.937744140625,789.7435913085938,797.3992919921875
855,796.996337890625,798.6080322265625,789.3406372070312,794.5787353515625
856,792.967041015625,803.040283203125,795.7875366210938,797.8021850585938
857,793.7728881835938,797.3992919921875,795.7875366210938,799.4139404296875
858,797.8021850585938,791.3552856445312,792.967041015625,799.4139404296875
859,796.996337890625,796.996337890625,797.3992919921875,796.1904907226562
860,790.5494384765625,801.4285888671875,797.3992919921875,798.2051391601562
861,784.1025390625,793.7728881835938,795.3846435546875,799.8168334960938
862,784.1025390625,786.923095703125,795.3846435546875,798.6080322265625
863,786.923095703125,788.5347900390625,794.5787353515625,790.1465454101562
864,786.1171875,792.1611938476562,794.5787353515625,777.2527465820312
865,790.5494384765625,792.1611938476562,795.3846435546875,779.2673950195312
866,794.5787353515625,794.5787353515625,793.7728881835938,788.937744140625
867,794.981689453125,792.1611938476562,790.952392578125,791.7582397460938
868,796.1904907226562,792.1611938476562,794.5787353515625,791.7582397460938
869,796.996337890625,791.3552856445312,791.7582397460938,794.1758422851562
870,795.7875366210938,790.1465454101562,788.937744140625,795.3846435546875
871,794.1758422851562,790.5494384765625,791.3552856445312,794.5787353515625
872,798.2051391601562,784.908447265625,789.7435913085938,792.1611938476562
873,798.6080322265625,786.923095703125,790.952392578125,796.5933837890625
874,799.4139404296875,788.1318969726562,788.1318969726562,803.4432373046875
875,803.8461303710938,785.3113403320312,788.5347900390625,798.2051391601562
876,803.8461303710938,781.6849975585938,793.3699340820312,799.010986328125
877,799.4139404296875,784.908447265625,792.5640869140625,802.6373901367188
878,797.8021850585938,794.5787353515625,791.3552856445312,791.7582397460938
879,798.2051391601562,793.3699340820312,782.4908447265625,784.5054931640625
880,794.981689453125,788.937744140625,781.2820434570312,785.7142944335938
881,793.3699340820312,786.5201416015625,784.1025390625,790.1465454101562
882,788.5347900390625,794.1758422851562,788.937744140625,782.893798828125
883,786.923095703125,797.8021850585938,792.967041015625,780.4761962890625
884,784.908447265625,789.7435913085938,781.2820434570312,787.7289428710938
885,784.5054931640625,789.7435913085938,778.4615478515625,790.952392578125
886,786.5201416015625,790.1465454101562,786.923095703125,788.937744140625
887,788.5347900390625,784.1025390625,790.952392578125,785.7142944335938
888,791.3552856445312,786.5201416015625,796.1904907226562,792.967041015625
889,794.5787353515625,794.5787353515625,798.2051391601562,792.1611938476562
890,795.7875366210938,793.3699340820312,795.7875366210938,785.3113403320312
891,794.1758422851562,788.5347900390625,792.967041015625,786.923095703125
892,796.1904907226562,794.5787353515625,794.1758422851562,795.7875366210938
893,795.3846435546875,796.5933837890625,796.1904907226562,796.996337890625
894,796.1904907226562,792.1611938476562,797.3992919921875,790.5494384765625
895,798.2051391601562,790.952392578125,787.7289428710938,798.2051391601562
896,792.1611938476562,787.3259887695312,782.087890625,793.7728881835938
897,784.908447265625,782.4908447265625,790.952392578125,787.3259887695312
898,784.908447265625,784.908447265625,794.1758422851562,792.5640869140625
899,786.923095703125,787.7289428710938,792.1611938476562,792.1611938476562
900,782.893798828125,786.1171875,789.3406372070312,787.7289428710938
901,780.879150390625,787.7289428710938,788.5347900390625,792.5640869140625
902,784.908447265625,788.937744140625,799.010986328125,796.5933837890625
903,790.1465454101562,782.4908447265625,796.5933837890625,793.7728881835938
904,792.5640869140625,782.893798828125,792.967041015625,791.7582397460938
905,792.5640869140625,789.3406372070312,796.5933837890625,790.1465454101562
906,791.7582397460938,784.5054931640625,792.5640869140625,783.6996459960938
907,785.7142944335938,786.923095703125,788.937744140625,779.6703491210938
908,783.6996459960938,795.7875366210938,792.1611938476562,785.3113403320312
909,787.3259887695312,795.7875366210938,797.3992919921875,785.3113403320312
910,791.7582397460938,792.967041015625,796.996337890625,784.908447265625
911,792.1611938476562,791.3552856445312,792.967041015625,795.3846435546875
912,792.5640869140625,792.5640869140625,790.1465454101562,800.2197875976562
913,795.3846435546875,792.1611938476562,792.1611938476562,788.5347900390625
914,794.5787353515625,790.1465454101562,792.5640869140625,784.908447265625
915,794.1758422851562,787.7289428710938,789.3406372070312,787.7289428710938
916,793.7728881835938,789.3406372070312,791.3552856445312,790.5494384765625
917,789.7435913085938,798.6080322265625,790.5494384765625,792.967041015625
918,794.981689453125,798.2051391601562,787.7289428710938,797.8021850585938
919,800.6226806640625,787.3259887695312,787.7289428710938,812.3076782226562
920,805.054931640625,784.908447265625,787.7289428710938,810.2930297851562
921,803.040283203125,787.7289428710938,792.1611938476562,796.5933837890625
922,794.5787353515625,791.3552856445312,790.5494384765625,792.1611938476562
923,790.1465454101562,796.5933837890625,786.1171875,787.7289428710938
924,788.1318969726562,797.3992919921875,790.5494384765625,787.3259887695312
925,786.923095703125,801.8314819335938,792.1611938476562,788.937744140625
926,786.5201416015625,802.2344360351562,787.7289428710938,784.5054931640625
927,789.3406372070312,802.6373901367188,790.1465454101562,790.952392578125
928,791.7582397460938,804.6520385742188,791.3552856445312,797.3992919921875
929,791.7582397460938,801.4285888671875,789.7435913085938,788.5347900390625
930,790.5494384765625,791.7582397460938,787.7289428710938,785.7142944335938
931,788.1318969726562,786.923095703125,785.3113403320312,790.952392578125
932,787.3259887695312,787.3259887695312,787.7289428710938,794.1758422851562
933,794.1758422851562,787.7289428710938,792.1611938476562,789.3406372070312
934,796.996337890625,788.1318969726562,796.5933837890625,792.5640869140625
935,785.7142944335938,791.3552856445312,797.8021850585938,795.7875366210938
936,778.8644409179688,796.1904907226562,794.981689453125,787.7289428710938
937,783.6996459960938,792.1611938476562,793.7728881835938,787.7289428710938
938,789.7435913085938,790.952392578125,794.981689453125,792.967041015625
939,794.5787353515625,789.3406372070312,800.2197875976562,799.010986328125
940,795.3846435546875,788.5347900390625,800.2197875976562,802.6373901367188
941,795.7875366210938,790.5494384765625,799.010986328125,796.5933837890625
942,797.3992919921875,789.3406372070312,799.4139404296875,799.8168334960938
943,792.967041015625,791.7582397460938,794.5787353515625,803.040283203125
944,785.7142944335938,793.3699340820312,794.5787353515625,799.8168334960938
945,793.3699340820312,792.967041015625,799.010986328125,795.7875366210938
946,800.2197875976562,792.1611938476562,790.5494384765625,792.1611938476562
947,791.3552856445312,789.7435913085938,786.5201416015625,794.5787353515625
948,784.5054931640625,788.937744140625,792.1611938476562,789.3406372070312
949,784.1025390625,785.3113403320312,792.1611938476562,786.1171875
950,787.7289428710938,787.3259887695312,792.967041015625,790.952392578125
951,784.1025390625,791.3552856445312,790.5494384765625,788.1318969726562
952,778.8644409179688,794.1758422851562,794.5787353515625,782.4908447265625
953,782.4908447265625,791.7582397460938,796.1904907226562,789.7435913085938
954,776.8497924804688,789.3406372070312,789.7435913085938,792.5640869140625
955,771.6116943359375,796.996337890625,786.1171875,784.5054931640625
956,780.879150390625,798.2051391601562,788.1318969726562,784.908447265625
957,785.7142944335938,796.1904907226562,793.3699340820312,793.3699340820312
958,784.1025390625,799.4139404296875,794.5787353515625,796.5933837890625
959,785.3113403320312,799.8168334960938,796.996337890625,790.1465454101562
960,787.3259887695312,798.2051391601562,797.3992919921875,788.5347900390625
961,793.7728881835938,798.2051391601562,792.1611938476562,792.1611938476562
962,802.6373901367188,800.6226806640625,794.1758422851562,789.7435913085938
963,801.4285888671875,796.996337890625,796.996337890625,787.3259887695312
964,796.996337890625,793.7728881835938,795.3846435546875,787.7289428710938
965,800.6226806640625,793.7728881835938,792.1611938476562,794.5787353515625
966,803.8461303710938,799.4139404296875,793.7728881835938,799.8168334960938
967,799.8168334960938,796.996337890625,796.5933837890625,789.3406372070312
968,799.8168334960938,791.7582397460938,797.3992919921875,786.5201416015625
969,802.2344360351562,794.981689453125,796.996337890625,787.7289428710938
970,801.025634765625,790.1465454101562,795.3846435546875,792.967041015625
971,796.1904907226562,786.5201416015625,795.3846435546875,796.5933837890625
972,794.1758422851562,786.5201416015625,798.2051391601562,793.3699340820312
973,792.967041015625,786.5201416015625,792.967041015625,790.5494384765625
974,786.1171875,794.1758422851562,790.1465454101562,791.7582397460938
975,784.908447265625,801.4285888671875,794.1758422851562,793.3699340820312
976,788.5347900390625,797.3992919921875,793.7728881835938,792.967041015625
977,795.7875366210938,790.5494384765625,798.6080322265625,796.1904907226562
978,795.7875366210938,794.981689453125,800.2197875976562,794.1758422851562
979,788.937744140625,788.937744140625,797.3992919921875,789.3406372070312
980,792.5640869140625,786.5201416015625,797.8021850585938,793.7728881835938
981,798.6080322265625,792.967041015625,793.7728881835938,795.3846435546875
982,796.5933837890625,791.3552856445312,793.3699340820312,790.952392578125
983,793.7728881835938,789.7435913085938,798.6080322265625,792.967041015625
984,793.7728881835938,782.4908447265625,801.025634765625,798.6080322265625
985,790.5494384765625,784.1025390625,800.6226806640625,794.5787353515625
986,791.7582397460938,789.3406372070312,794.981689453125,792.967041015625
987,792.1611938476562,794.981689453125,793.7728881835938,793.7728881835938
988,797.3992919921875,796.1904907226562,796.996337890625,801.8314819335938
989,801.8314819335938,792.967041015625,793.7728881835938,806.6666870117188
990,795.3846435546875,794.981689453125,794.5787353515625,791.3552856445312
991,792.1611938476562,791.3552856445312,798.6080322265625,786.923095703125
992,796.1904907226562,790.1465454101562,800.2197875976562,788.937744140625
993,794.1758422851562,790.952392578125,796.1904907226562,790.5494384765625
994,785.7142944335938,786.1171875,795.3846435546875,790.1465454101562
995,786.1171875,787.3259887695312,796.996337890625,791.3552856445312
996,789.7435913085938,792.967041015625,798.6080322265625,794.1758422851562
997,790.1465454101562,792.967041015625,796.1904907226562,790.952392578125
998,788.1318969726562,794.5787353515625,794.981689453125,782.087890625
999,788.937744140625,799.4139404296875,794.981689453125,782.893798828125
1000,796.1904907226562,803.040283203125,798.2051391601562,794.1758422851562
1001,800.2197875976562,799.8168334960938,803.8461303710938,788.937744140625
1002,796.1904907226562,794.5787353515625,801.025634765625,787.7289428710938
1003,794.981689453125,792.1611938476562,797.3992919921875,796.1904907226562
1004,792.967041015625,795.3846435546875,799.010986328125,799.4139404296875
1005,791.7582397460938,799.8168334960938,796.996337890625,794.981689453125
1006,795.7875366210938,794.1758422851562,794.981689453125,795.3846435546875
1007,799.4139404296875,786.1171875,788.5347900390625,797.3992919921875
1008,800.6226806640625,783.2966918945312,789.3406372070312,794.1758422851562
1009,797.8021850585938,783.2966918945312,793.7728881835938,790.1465454101562
1010,797.3992919921875,786.923095703125,786.1171875,788.5347900390625
1011,798.6080322265625,793.7728881835938,788.1318969726562,794.1758422851562
1012,803.040283203125,790.952392578125,796.5933837890625,795.3846435546875
1013,807.069580078125,785.3113403320312,797.8021850585938,790.1465454101562
1014,801.8314819335938,786.923095703125,792.5640869140625,792.967041015625
1015,798.2051391601562,787.7289428710938,789.3406372070312,799.010986328125
1016,795.7875366210938,796.5933837890625,792.967041015625,797.8021850585938
1017,794.981689453125,794.981689453125,794.1758422851562,791.3552856445312
1018,793.7728881835938,787.3259887695312,784.1025390625,789.3406372070312
1019,782.087890625,789.3406372070312,786.923095703125,784.5054931640625
1020,777.2527465820312,789.3406372070312,802.2344360351562,782.4908447265625
1021,785.3113403320312,793.3699340820312,802.6373901367188,783.2966918945312
1022,796.1904907226562,798.6080322265625,796.1904907226562,786.923095703125
1023,798.2051391601562,794.981689453125,796.5933837890625,788.937744140625
1024,792.1611938476562,794.981689453125,801.025634765625,787.7289428710938
1025,788.5347900390625,798.2051391601562,799.8168334960938,788.1318969726562
1026,786.923095703125,797.8021850585938,795.3846435546875,784.1025390625
1027,785.7142944335938,798.2051391601562,794.1758422851562,790.1465454101562
1028,787.7289428710938,797.8021850585938,794.981689453125,793.3699340820312
1029,784.1025390625,791.3552856445312,796.5933837890625,789.3406372070312
1030,780.4761962890625,788.937744140625,794.981689453125,794.981689453125
1031,787.3259887695312,794.5787353515625,792.5640869140625,791.3552856445312
1032,786.5201416015625,792.967041015625,790.952392578125,781.6849975585938
1033,788.1318969726562,790.5494384765625,788.937744140625,788.5347900390625
1034,788.5347900390625,790.1465454101562,790.952392578125,786.5201416015625
1035,786.923095703125,786.1171875,792.5640869140625,783.2966918945312
1036,789.7435913085938,790.952392578125,791.7582397460938,791.7582397460938
1037,786.1171875,798.6080322265625,793.7728881835938,794.981689453125
1038,789.7435913085938,793.3699340820312,792.1611938476562,798.2051391601562
1039,796.5933837890625,788.1318969726562,797.3992919921875,796.1904907226562
1040,791.7582397460938,790.5494384765625,797.8021850585938,784.908447265625
1041,787.7289428710938,789.3406372070312,794.1758422851562,781.2820434570312
1042,793.7728881835938,792.5640869140625,800.2197875976562,783.6996459960938
1043,795.7875366210938,798.2051391601562,800.2197875976562,785.7142944335938
1044,792.1611938476562,794.5787353515625,798.2051391601562,786.1171875
1045,788.1318969726562,788.1318969726562,800.2197875976562,794.1758422851562
1046,788.937744140625,785.3113403320312,801.025634765625,798.2051391601562
1047,794.981689453125,789.7435913085938,799.4139404296875,794.981689453125
1048,793.3699340820312,793.7728881835938,802.2344360351562,794.5787353515625
1049,787.3259887695312,791.7582397460938,803.040283203125,798.6080322265625
1050,788.1318969726562,790.952392578125,801.025634765625,807.87548828125
1051,787.7289428710938,792.5640869140625,799.4139404296875,805.054931640625
1052,790.1465454101562,790.1465454101562,795.7875366210938,801.025634765625
1053,800.6226806640625,788.5347900390625,796.996337890625,805.8607788085938
1054,801.4285888671875,795.3846435546875,799.4139404296875,806.2637329101562
1055,790.1465454101562,792.1611938476562,801.8314819335938,794.5787353515625
1056,784.1025390625,786.923095703125,800.6226806640625,780.879150390625
1057,784.5054931640625,789.7435913085938,794.981689453125,781.6849975585938
1058,787.7289428710938,784.5054931640625,788.5347900390625,786.923095703125
1059,785.7142944335938,780.879150390625,787.7289428710938,781.6849975585938
1060,785.7142944335938,788.5347900390625,795.3846435546875,780.0732421875
1061,795.7875366210938,791.3552856445312,797.3992919921875,795.3846435546875
1062,798.2051391601562,790.1465454101562,794.1758422851562,800.6226806640625
1063,797.8021850585938,792.967041015625,798.6080322265625,793.3699340820312
1064,800.2197875976562,793.7728881835938,800.2197875976562,790.1465454101562
1065,797.3992919921875,799.010986328125,790.952392578125,790.5494384765625
1066,792.967041015625,798.2051391601562,793.3699340820312,794.981689453125
1067,791.3552856445312,794.5787353515625,799.4139404296875,793.3699340820312
1068,794.5787353515625,797.3992919921875,796.5933837890625,800.2197875976562
1069,794.981689453125,795.7875366210938,796.996337890625,803.8461303710938
1070,801.025634765625,799.4139404296875,796.996337890625,808.2783813476562
1071,802.2344360351562,803.040283203125,796.5933837890625,812.7106323242188
1072,797.8021850585938,798.6080322265625,799.4139404296875,807.87548828125
1073,800.2197875976562,793.7728881835938,793.3699340820312,804.2490844726562
1074,794.981689453125,788.5347900390625,796.5933837890625,797.3992919921875
1075,788.1318969726562,794.1758422851562,799.010986328125,786.923095703125
1076,788.1318969726562,799.4139404296875,799.4139404296875,785.3113403320312
1077,782.4908447265625,794.981689453125,794.981689453125,778.4615478515625
1078,786.5201416015625,791.3552856445312,788.5347900390625,775.6410522460938
1079,790.5494384765625,788.5347900390625,792.967041015625,780.4761962890625
1080,786.5201416015625,787.7289428710938,797.8021850585938,783.6996459960938
1081,786.923095703125,782.087890625,794.5787353515625,784.5054931640625
1082,791.3552856445312,786.1171875,786.5201416015625,782.087890625
1083,794.5787353515625,794.981689453125,781.6849975585938,779.6703491210938
1084,793.3699340820312,788.5347900390625,783.2966918945312,782.4908447265625
1085,794.981689453125,786.923095703125,786.1171875,786.923095703125
1086,794.981689453125,792.1611938476562,786.1171875,784.5054931640625
1087,792.5640869140625,791.3552856445312,789.3406372070312,780.0732421875
1088,795.7875366210938,786.1171875,789.3406372070312,785.3113403320312
1089,796.5933837890625,781.2820434570312,787.3259887695312,790.1465454101562
1090,794.981689453125,790.1465454101562,791.7582397460938,791.7582397460938
1091,798.6080322265625,794.1758422851562,792.967041015625,799.010986328125
1092,794.981689453125,790.952392578125,794.1758422851562,798.6080322265625
1093,792.1611938476562,795.3846435546875,793.3699340820312,793.7728881835938
1094,797.8021850585938,804.2490844726562,790.952392578125,792.967041015625
1095,801.4285888671875,796.1904907226562,788.1318969726562,791.3552856445312
1096,798.2051391601562,788.937744140625,786.5201416015625,786.5201416015625
1097,790.952392578125,794.5787353515625,786.923095703125,784.1025390625
1098,788.937744140625,791.3552856445312,790.1465454101562,784.1025390625
1099,796.5933837890625,786.1171875,791.7582397460938,788.937744140625
1100,803.040283203125,785.3113403320312,793.7728881835938,799.8168334960938
1101,801.8314819335938,790.1465454101562,796.996337890625,793.7728881835938
1102,797.8021850585938,793.3699340820312,796.1904907226562,785.7142944335938
1103,797.3992919921875,794.981689453125,800.6226806640625,794.981689453125
1104,798.2051391601562,795.3846435546875,799.4139404296875,798.2051391601562
1105,799.4139404296875,796.5933837890625,791.7582397460938,792.5640869140625
1106,798.6080322265625,793.3699340820312,792.1611938476562,789.7435913085938
1107,797.3992919921875,790.952392578125,798.6080322265625,793.7728881835938
1108,797.3992919921875,790.5494384765625,803.040283203125,796.5933837890625
1109,799.8168334960938,792.967041015625,802.2344360351562,793.3699340820312
1110,796.5933837890625,791.3552856445312,801.8314819335938,788.937744140625
1111,793.3699340820312,786.1171875,798.6080322265625,796.1904907226562
1112,797.8021850585938,793.3699340820312,793.3699340820312,797.8021850585938
1113,798.6080322265625,796.996337890625,798.6080322265625,793.3699340820312
1114,797.8021850585938,794.1758422851562,798.6080322265625,800.6226806640625
1115,801.025634765625,796.5933837890625,792.1611938476562,805.8607788085938
1116,803.040283203125,797.3992919921875,794.1758422851562,801.8314819335938
1117,795.7875366210938,793.7728881835938,799.8168334960938,801.025634765625
1118,793.7728881835938,794.981689453125,796.1904907226562,804.2490844726562
1119,798.2051391601562,804.2490844726562,794.981689453125,806.6666870117188
1120,796.1904907226562,805.054931640625,794.1758422851562,805.8607788085938
1121,794.5787353515625,799.010986328125,789.3406372070312,798.6080322265625
1122,801.025634765625,795.7875366210938,788.937744140625,802.2344360351562
1123,804.2490844726562,790.5494384765625,795.3846435546875,810.6959838867188
1124,799.4139404296875,783.2966918945312,796.5933837890625,805.054931640625
1125,799.010986328125,785.7142944335938,795.7875366210938,801.025634765625
1126,793.3699340820312,789.7435913085938,800.2197875976562,798.6080322265625
1127,784.908447265625,793.3699340820312,801.4285888671875,798.6080322265625
1128,786.1171875,798.2051391601562,793.7728881835938,801.4285888671875
1129,793.7728881835938,801.4285888671875,793.3699340820312,798.2051391601562
1130,796.996337890625,795.7875366210938,792.1611938476562,794.1758422851562
1131,795.7875366210938,794.981689453125,794.1758422851562,794.981689453125
1132,794.1758422851562,796.5933837890625,801.4285888671875,796.5933837890625
1133,793.7728881835938,793.3699340820312,798.2051391601562,800.6226806640625
1134,799.8168334960938,790.1465454101562,797.8021850585938,808.2783813476562
1135,794.1758422851562,784.5054931640625,800.2197875976562,803.8461303710938
1136,786.923095703125,789.3406372070312,799.8168334960938,790.1465454101562
1137,789.3406372070312,796.5933837890625,804.2490844726562,790.1465454101562
1138,787.7289428710938,795.3846435546875,805.054931640625,788.1318969726562
1139,781.6849975585938,794.981689453125,797.3992919921875,788.1318969726562
1140,778.05859375,794.981689453125,795.3846435546875,792.1611938476562
1141,778.8644409179688,791.7582397460938,792.5640869140625,794.1758422851562
1142,777.2527465820312,790.5494384765625,797.3992919921875,794.1758422851562
1143,776.8497924804688,785.3113403320312,798.2051391601562,786.5201416015625
1144,780.4761962890625,787.7289428710938,792.967041015625,785.7142944335938
1145,781.6849975585938,796.996337890625,791.3552856445312,785.7142944335938
1146,783.6996459960938,794.1758422851562,785.3113403320312,790.5494384765625
1147,784.5054931640625,798.2051391601562,784.1025390625,786.923095703125
1148,784.908447265625,803.8461303710938,788.937744140625,774.4322509765625
1149,786.1171875,797.8021850585938,786.923095703125,775.2380981445312
1150,786.1171875,794.1758422851562,775.2380981445312,770.8058471679688
1151,792.1611938476562,796.5933837890625,777.2527465820312,769.1941528320312
1152,794.1758422851562,797.8021850585938,789.3406372070312,773.6264038085938
1153,790.952392578125,790.1465454101562,791.3552856445312,774.029296875
1154,797.3992919921875,786.5201416015625,792.1611938476562,774.029296875
1155,805.4578857421875,792.1611938476562,790.952392578125,781.6849975585938
1156,807.87548828125,793.7728881835938,789.7435913085938,791.3552856445312
1157,803.4432373046875,789.7435913085938,793.7728881835938,798.2051391601562
1158,801.8314819335938,793.7728881835938,796.5933837890625,803.8461303710938
1159,811.90478515625,796.1904907226562,791.3552856445312,800.2197875976562
1160,811.90478515625,796.1904907226562,788.937744140625,805.054931640625
1161,804.6520385742188,795.3846435546875,797.3992919921875,811.5018310546875
1162,799.4139404296875,789.3406372070312,796.1904907226562,807.87548828125
1163,794.1758422851562,790.952392578125,797.3992919921875,809.89013671875
1164,796.1904907226562,794.981689453125,803.4432373046875,810.2930297851562
1165,796.5933837890625,793.3699340820312,806.2637329101562,807.069580078125
1166,791.3552856445312,789.7435913085938,808.6813354492188,801.8314819335938
1167,795.7875366210938,787.3259887695312,805.4578857421875,796.996337890625
1168,796.996337890625,776.0439453125,793.3699340820312,796.5933837890625
1169,786.5201416015625,775.2380981445312,794.5787353515625,795.7875366210938
1170,776.0439453125,788.1318969726562,800.2197875976562,786.1171875
1171,777.6557006835938,789.7435913085938,799.010986328125,785.3113403320312
1172,777.2527465820312,786.923095703125,798.2051391601562,794.5787353515625
1173,772.4176025390625,790.5494384765625,794.981689453125,792.1611938476562
1174,773.6264038085938,792.967041015625,794.5787353515625,779.6703491210938
1175,779.2673950195312,788.1318969726562,798.2051391601562,778.8644409179688
1176,782.893798828125,785.7142944335938,793.7728881835938,780.0732421875
1177,790.1465454101562,788.1318969726562,783.2966918945312,779.6703491210938
1178,801.4285888671875,798.2051391601562,784.908447265625,784.908447265625
1179,799.4139404296875,796.996337890625,784.908447265625,785.3113403320312
1180,792.1611938476562,784.1025390625,786.5201416015625,797.3992919921875
1181,790.952392578125,789.7435913085938,785.3113403320312,808.2783813476562
1182,789.3406372070312,801.8314819335938,788.937744140625,801.4285888671875
1183,797.8021850585938,801.8314819335938,788.937744140625,796.996337890625
1184,806.2637329101562,802.2344360351562,783.6996459960938,792.1611938476562
1185,803.040283203125,804.6520385742188,795.7875366210938,785.7142944335938
1186,801.4285888671875,795.3846435546875,801.8314819335938,791.3552856445312
1187,800.6226806640625,787.3259887695312,802.6373901367188,803.4432373046875
1188,795.3846435546875,787.7289428710938,800.2197875976562,801.8314819335938
1189,794.5787353515625,792.967041015625,801.025634765625,796.1904907226562
1190,792.5640869140625,797.8021850585938,803.8461303710938,799.010986328125
1191,789.3406372070312,795.3846435546875,801.4285888671875,801.4285888671875
1192,786.923095703125,792.5640869140625,804.6520385742188,800.6226806640625
1193,785.7142944335938,788.937744140625,801.025634765625,796.996337890625
1194,784.1025390625,782.4908447265625,803.040283203125,794.5787353515625
1195,779.2673950195312,782.087890625,804.2490844726562,793.3699340820312
1196,777.6557006835938,786.1171875,793.7728881835938,792.967041015625
1197,780.879150390625,788.5347900390625,800.2197875976562,797.3992919921875
1198,782.4908447265625,788.1318969726562,806.6666870117188,800.6226806640625
1199,780.0732421875,790.1465454101562,798.2051391601562,796.1904907226562
1200,782.087890625,797.3992919921875,793.7728881835938,794.1758422851562
1201,788.937744140625,801.025634765625,799.8168334960938,793.7728881835938
1202,790.1465454101562,799.010986328125,801.8314819335938,788.1318969726562
1203,792.1611938476562,792.967041015625,796.1904907226562,785.3113403320312
1204,794.1758422851562,793.3699340820312,788.937744140625,782.893798828125
1205,792.967041015625,797.8021850585938,786.1171875,778.05859375
1206,795.7875366210938,802.6373901367188,787.7289428710938,780.4761962890625
1207,800.2197875976562,801.8314819335938,787.7289428710938,795.3846435546875
1208,802.2344360351562,797.3992919921875,788.1318969726562,797.3992919921875
1209,802.2344360351562,799.010986328125,792.5640869140625,794.5787353515625
1210,799.8168334960938,794.5787353515625,792.1611938476562,801.025634765625
1211,797.3992919921875,786.1171875,786.1171875,796.5933837890625
1212,799.010986328125,787.7289428710938,784.1025390625,791.7582397460938
1213,792.967041015625,794.1758422851562,789.3406372070312,792.5640869140625
1214,784.1025390625,800.6226806640625,790.952392578125,794.981689453125
1215,788.1318969726562,800.6226806640625,794.1758422851562,796.996337890625
1216,794.981689453125,794.1758422851562,798.6080322265625,801.025634765625
1217,794.981689453125,794.1758422851562,796.1904907226562,806.2637329101562
1218,794.1758422851562,797.3992919921875,793.7728881835938,811.098876953125
1219,792.1611938476562,794.1758422851562,794.981689453125,816.3369750976562
1220,786.923095703125,789.7435913085938,794.1758422851562,808.2783813476562
1221,785.7142944335938,783.6996459960938,796.5933837890625,803.040283203125
1222,793.3699340820312,785.3113403320312,797.3992919921875,807.069580078125
1223,801.025634765625,794.5787353515625,794.5787353515625,811.90478515625
1224,805.054931640625,793.3699340820312,800.6226806640625,811.5018310546875
1225,800.6226806640625,792.5640869140625,805.054931640625,809.89013671875
1226,799.4139404296875,795.7875366210938,801.025634765625,805.4578857421875
1227,800.6226806640625,794.5787353515625,800.2197875976562,795.7875366210938
1228,798.6080322265625,793.7728881835938,800.6226806640625,796.1904907226562
1229,802.6373901367188,793.3699340820312,799.4139404296875,798.2051391601562
1230,807.4725341796875,794.1758422851562,803.4432373046875,806.6666870117188
1231,802.2344360351562,798.6080322265625,800.2197875976562,799.8168334960938
1232,799.4139404296875,803.8461303710938,797.8021850585938,784.1025390625
1233,805.054931640625,802.2344360351562,799.010986328125,788.1318969726562
1234,805.054931640625,791.7582397460938,792.967041015625,785.7142944335938
1235,800.2197875976562,793.3699340820312,790.1465454101562,782.4908447265625
1236,800.6226806640625,796.5933837890625,794.1758422851562,784.1025390625
1237,802.6373901367188,790.952392578125,791.7582397460938,781.2820434570312
1238,803.4432373046875,793.7728881835938,789.3406372070312,777.6557006835938
1239,806.6666870117188,798.6080322265625,791.7582397460938,778.05859375
1240,803.8461303710938,790.952392578125,790.1465454101562,771.6116943359375
1241,796.996337890625,786.923095703125,790.1465454101562,769.1941528320312
1242,793.3699340820312,794.5787353515625,788.937744140625,788.5347900390625
1243,786.5201416015625,793.3699340820312,791.7582397460938,791.7582397460938
1244,783.2966918945312,792.5640869140625,794.1758422851562,784.5054931640625
1245,778.4615478515625,788.1318969726562,789.3406372070312,789.7435913085938
1246,777.6557006835938,784.908447265625,788.937744140625,790.5494384765625
1247,784.908447265625,785.7142944335938,792.1611938476562,785.7142944335938
1248,782.4908447265625,782.087890625,799.4139404296875,784.908447265625
1249,783.6996459960938,780.879150390625,795.7875366210938,792.1611938476562
1250,790.5494384765625,785.3113403320312,793.7728881835938,799.4139404296875
1251,787.3259887695312,786.923095703125,804.6520385742188,803.040283203125
1252,784.1025390625,788.1318969726562,806.6666870117188,799.8168334960938
1253,789.7435913085938,796.1904907226562,806.2637329101562,802.6373901367188
1254,795.7875366210938,798.6080322265625,802.2344360351562,804.6520385742188
1255,792.967041015625,799.010986328125,798.6080322265625,792.5640869140625
1256,792.1611938476562,802.2344360351562,805.054931640625,789.7435913085938
1257,796.1904907226562,798.2051391601562,808.2783813476562,790.952392578125
1258,800.2197875976562,802.2344360351562,804.6520385742188,791.3552856445312
1259,799.8168334960938,808.6813354492188,801.4285888671875,786.923095703125
1260,799.010986328125,807.069580078125,798.2051391601562,783.6996459960938
1261,797.3992919921875,805.4578857421875,791.3552856445312,778.4615478515625
1262,796.5933837890625,804.6520385742188,792.1611938476562,778.4615478515625
1263,794.5787353515625,800.6226806640625,796.1904907226562,781.2820434570312
1264,792.5640869140625,792.967041015625,792.967041015625,780.879150390625
1265,788.1318969726562,787.3259887695312,786.5201416015625,787.7289428710938
1266,778.8644409179688,789.3406372070312,788.937744140625,784.5054931640625
1267,780.0732421875,787.7289428710938,792.1611938476562,780.0732421875
1268,780.0732421875,776.4468994140625,784.908447265625,774.8351440429688
1269,775.6410522460938,785.3113403320312,788.5347900390625,773.2234497070312
1270,777.2527465820312,796.996337890625,794.981689453125,784.5054931640625
1271,779.2673950195312,799.010986328125,799.8168334960938,790.5494384765625
1272,780.879150390625,797.8021850585938,796.1904907226562,794.981689453125
1273,786.1171875,788.5347900390625,790.952392578125,794.1758422851562
1274,795.7875366210938,789.3406372070312,794.981689453125,788.937744140625
1275,800.6226806640625,792.1611938476562,795.7875366210938,787.3259887695312
1276,801.4285888671875,790.952392578125,793.3699340820312,794.981689453125
1277,796.5933837890625,789.7435913085938,791.3552856445312,792.5640869140625
1278,792.1611938476562,792.967041015625,791.7582397460938,784.1025390625
1279,797.8021850585938,790.5494384765625,796.996337890625,787.3259887695312
1280,807.87548828125,788.1318969726562,801.8314819335938,797.8021850585938
1281,806.2637329101562,795.7875366210938,797.8021850585938,802.2344360351562
1282,802.2344360351562,798.6080322265625,792.967041015625,798.6080322265625
1283,799.8168334960938,795.7875366210938,790.1465454101562,796.996337890625
1284,801.8314819335938,794.981689453125,793.7728881835938,794.1758422851562
1285,797.3992919921875,789.7435913085938,792.5640869140625,792.5640869140625
1286,789.3406372070312,789.3406372070312,785.3113403320312,796.5933837890625
1287,789.7435913085938,788.1318969726562,785.7142944335938,800.2197875976562
1288,792.1611938476562,788.937744140625,785.3113403320312,794.981689453125
1289,785.7142944335938,792.1611938476562,784.1025390625,788.5347900390625
1290,778.4615478515625,795.7875366210938,788.1318969726562,789.3406372070312
1291,779.6703491210938,792.967041015625,786.923095703125,784.908447265625
1292,775.6410522460938,784.908447265625,782.893798828125,778.4615478515625
1293,778.4615478515625,785.7142944335938,790.952392578125,776.8497924804688
1294,774.4322509765625,792.1611938476562,789.7435913085938,773.6264038085938
1295,775.2380981445312,798.2051391601562,782.893798828125,782.893798828125
1296,782.4908447265625,794.5787353515625,786.923095703125,792.1611938476562
1297,776.4468994140625,792.967041015625,788.937744140625,783.6996459960938
1298,777.6557006835938,793.7728881835938,786.5201416015625,782.893798828125
1299,782.893798828125,792.1611938476562,780.0732421875,794.5787353515625
1300,780.4761962890625,792.1611938476562,780.0732421875,794.981689453125
1301,778.05859375,794.981689453125,782.893798828125,779.6703491210938
1302,784.5054931640625,792.5640869140625,784.1025390625,777.6557006835938
1303,790.1465454101562,788.1318969726562,792.1611938476562,787.7289428710938
1304,788.937744140625,788.5347900390625,794.5787353515625,784.908447265625
1305,789.7435913085938,792.5640869140625,789.3406372070312,782.087890625
1306,789.3406372070312,790.5494384765625,790.1465454101562,794.981689453125
1307,787.7289428710938,788.937744140625,792.967041015625,798.6080322265625
1308,788.937744140625,789.7435913085938,796.5933837890625,796.1904907226562
1309,793.7728881835938,793.3699340820312,794.1758422851562,801.4285888671875
1310,796.1904907226562,788.5347900390625,792.5640869140625,799.4139404296875
1311,796.1904907226562,779.2673950195312,795.7875366210938,796.1904907226562
1312,798.6080322265625,788.1318969726562,799.4139404296875,796.996337890625
1313,792.5640869140625,787.7289428710938,795.3846435546875,794.5787353515625
1314,784.5054931640625,782.4908447265625,790.5494384765625,792.967041015625
1315,783.2966918945312,788.1318969726562,793.3699340820312,795.3846435546875
1316,787.7289428710938,789.7435913085938,796.5933837890625,797.8021850585938
1317,786.1171875,790.1465454101562,795.7875366210938,790.952392578125
1318,787.3259887695312,790.1465454101562,796.1904907226562,786.923095703125
1319,793.3699340820312,786.923095703125,795.7875366210938,794.981689453125
1320,790.5494384765625,787.3259887695312,794.1758422851562,792.5640869140625
1321,786.923095703125,782.087890625,795.7875366210938,782.087890625
1322,781.6849975585938,781.6849975585938,789.7435913085938,779.6703491210938
1323,782.4908447265625,788.1318969726562,784.1025390625,777.6557006835938
1324,787.3259887695312,793.7728881835938,788.937744140625,782.087890625
1325,793.7728881835938,800.6226806640625,788.1318969726562,783.2966918945312
1326,800.2197875976562,799.8168334960938,785.7142944335938,785.3113403320312
1327,791.3552856445312,795.3846435546875,793.3699340820312,788.1318969726562
1328,783.6996459960938,794.1758422851562,794.981689453125,780.0732421875
1329,788.5347900390625,794.1758422851562,791.7582397460938,784.908447265625
1330,797.8021850585938,797.3992919921875,788.1318969726562,793.3699340820312
1331,797.8021850585938,798.2051391601562,792.1611938476562,794.1758422851562
1332,793.3699340820312,792.1611938476562,796.5933837890625,794.5787353515625
1333,797.8021850585938,792.5640869140625,790.952392578125,794.5787353515625
1334,799.4139404296875,795.7875366210938,789.3406372070312,790.5494384765625
1335,797.8021850585938,799.010986328125,791.7582397460938,790.952392578125
1336,794.981689453125,793.3699340820312,789.7435913085938,791.7582397460938
1337,791.7582397460938,780.879150390625,786.1171875,790.952392578125
1338,795.3846435546875,786.1171875,792.1611938476562,804.6520385742188
1339,794.981689453125,798.6080322265625,790.952392578125,799.4139404296875
1340,788.5347900390625,796.5933837890625,791.7582397460938,793.7728881835938
1341,789.3406372070312,788.5347900390625,797.8021850585938,799.4139404296875
1342,790.5494384765625,791.7582397460938,799.4139404296875,796.1904907226562
1343,784.908447265625,797.8021850585938,801.4285888671875,785.7142944335938
1344,782.893798828125,795.3846435546875,802.6373901367188,780.4761962890625
1345,788.1318969726562,791.3552856445312,799.010986328125,782.087890625
1346,789.7435913085938,788.1318969726562,796.5933837890625,786.5201416015625
1347,789.7435913085938,787.7289428710938,799.4139404296875,787.7289428710938
1348,795.3846435546875,784.1025390625,796.1904907226562,787.3259887695312
1349,811.5018310546875,787.3259887695312,794.981689453125,807.069580078125
1350,811.5018310546875,803.040283203125,796.1904907226562,808.2783813476562
1351,801.025634765625,806.2637329101562,790.5494384765625,784.908447265625
1352,806.2637329101562,798.6080322265625,787.3259887695312,787.7289428710938
1353,811.5018310546875,797.8021850585938,792.5640869140625,794.981689453125
1354,803.040283203125,799.010986328125,796.996337890625,790.952392578125
1355,797.8021850585938,798.6080322265625,794.5787353515625,792.1611938476562
1356,806.6666870117188,796.5933837890625,795.7875366210938,801.025634765625
1357,803.040283203125,794.981689453125,796.5933837890625,807.069580078125
1358,798.2051391601562,797.3992919921875,799.4139404296875,801.4285888671875
1359,804.2490844726562,798.2051391601562,800.2197875976562,798.6080322265625
1360,796.996337890625,791.7582397460938,794.1758422851562,802.6373901367188
1361,792.5640869140625,790.5494384765625,789.7435913085938,805.8607788085938
1362,793.7728881835938,794.1758422851562,786.5201416015625,793.7728881835938
1363,793.3699340820312,794.1758422851562,787.3259887695312,782.4908447265625
1364,794.1758422851562,799.010986328125,792.967041015625,784.908447265625
1365,798.2051391601562,803.040283203125,791.3552856445312,788.937744140625
1366,805.4578857421875,795.7875366210938,792.5640869140625,788.937744140625
1367,797.8021850585938,790.952392578125,794.981689453125,787.7289428710938
1368,793.7728881835938,795.3846435546875,797.8021850585938,791.7582397460938
1369,800.6226806640625,794.981689453125,802.6373901367188,796.996337890625
1370,801.025634765625,792.5640869140625,798.2051391601562,794.5787353515625
1371,801.8314819335938,796.1904907226562,794.1758422851562,795.3846435546875
1372,804.6520385742188,796.1904907226562,794.981689453125,800.6226806640625
1373,801.4285888671875,797.3992919921875,794.981689453125,805.8607788085938
1374,796.1904907226562,799.010986328125,798.2051391601562,798.2051391601562
1375,797.8021850585938,793.7728881835938,802.2344360351562,793.7728881835938
1376,796.996337890625,792.1611938476562,797.3992919921875,798.6080322265625
1377,797.8021850585938,793.7728881835938,790.5494384765625,797.3992919921875
1378,795.3846435546875,788.937744140625,794.981689453125,800.2197875976562
1379,791.3552856445312,786.923095703125,796.996337890625,804.6520385742188
1380,790.952392578125,788.1318969726562,793.3699340820312,796.5933837890625
1381,787.7289428710938,792.5640869140625,791.7582397460938,788.5347900390625
1382,784.1025390625,794.1758422851562,793.3699340820312,782.087890625
1383,784.5054931640625,793.3699340820312,792.1611938476562,784.5054931640625
1384,786.1171875,788.5347900390625,796.1904907226562,792.5640869140625
1385,780.4761962890625,786.5201416015625,799.4139404296875,783.6996459960938
1386,779.6703491210938,791.3552856445312,797.3992919921875,775.2380981445312
1387,784.908447265625,790.5494384765625,796.1904907226562,782.893798828125
1388,792.5640869140625,784.908447265625,792.5640869140625,792.5640869140625
1389,789.7435913085938,779.6703491210938,790.1465454101562,785.3113403320312
1390,785.3113403320312,782.893798828125,793.7728881835938,779.2673950195312
1391,786.5201416015625,786.923095703125,793.7728881835938,780.0732421875
1392,784.908447265625,784.908447265625,791.7582397460938,787.7289428710938
1393,788.1318969726562,787.7289428710938,785.7142944335938,791.7582397460938
1394,786.923095703125,790.1465454101562,788.5347900390625,797.3992919921875
1395,786.1171875,782.893798828125,796.996337890625,808.6813354492188
1396,789.7435913085938,783.2966918945312,793.3699340820312,810.2930297851562
1397,785.7142944335938,786.1171875,792.5640869140625,800.6226806640625
1398,785.3113403320312,785.7142944335938,791.7582397460938,788.1318969726562
1399,792.1611938476562,786.1171875,784.908447265625,790.952392578125
1400,790.1465454101562,783.2966918945312,780.0732421875,792.1611938476562
1401,795.7875366210938,791.7582397460938,790.1465454101562,786.923095703125
1402,799.010986328125,788.937744140625,796.996337890625,792.5640869140625
1403,793.3699340820312,781.2820434570312,792.967041015625,787.7289428710938
1404,792.1611938476562,788.1318969726562,795.7875366210938,787.7289428710938
1405,786.5201416015625,788.5347900390625,791.3552856445312,789.7435913085938
1406,786.5201416015625,784.5054931640625,791.3552856445312,786.1171875
1407,786.1171875,787.7289428710938,796.1904907226562,788.1318969726562
1408,786.1171875,792.1611938476562,792.1611938476562,792.5640869140625
1409,785.3113403320312,794.1758422851562,794.5787353515625,792.5640869140625
1410,785.7142944335938,799.8168334960938,798.2051391601562,790.5494384765625
1411,789.3406372070312,798.6080322265625,802.2344360351562,795.7875366210938
1412,786.923095703125,797.3992919921875,801.8314819335938,794.1758422851562
1413,784.908447265625,793.7728881835938,797.8021850585938,794.5787353515625
1414,784.1025390625,785.7142944335938,799.8168334960938,794.5787353515625
1415,785.3113403320312,786.1171875,799.4139404296875,795.3846435546875
1416,793.3699340820312,792.5640869140625,797.8021850585938,792.967041015625
1417,798.6080322265625,796.1904907226562,799.010986328125,786.923095703125
1418,794.1758422851562,793.3699340820312,798.2051391601562,782.893798828125
1419,793.7728881835938,790.952392578125,794.981689453125,788.937744140625
1420,793.7728881835938,788.937744140625,788.5347900390625,796.996337890625
1421,790.5494384765625,786.1171875,786.5201416015625,790.952392578125
1422,798.2051391601562,787.3259887695312,796.996337890625,804.6520385742188
1423,800.2197875976562,789.7435913085938,799.4139404296875,809.084228515625
1424,792.1611938476562,789.3406372070312,797.8021850585938,793.7728881835938
1425,793.7728881835938,783.2966918945312,797.3992919921875,792.967041015625
1426,800.2197875976562,782.4908447265625,797.8021850585938,796.5933837890625
1427,801.025634765625,792.967041015625,801.8314819335938,801.8314819335938
1428,797.8021850585938,798.2051391601562,801.8314819335938,801.8314819335938
1429,801.8314819335938,803.040283203125,798.6080322265625,800.6226806640625
1430,800.2197875976562,800.6226806640625,797.8021850585938,798.6080322265625
1431,791.7582397460938,795.7875366210938,796.5933837890625,792.967041015625
1432,793.7728881835938,798.6080322265625,793.3699340820312,790.952392578125
1433,800.2197875976562,796.996337890625,792.5640869140625,794.981689453125
1434,799.8168334960938,799.010986328125,796.996337890625,806.2637329101562
1435,796.5933837890625,799.010986328125,798.2051391601562,798.6080322265625
1436,797.8021850585938,792.5640869140625,794.1758422851562,788.5347900390625
1437,798.2051391601562,791.7582397460938,795.7875366210938,795.3846435546875
1438,793.7728881835938,793.3699340820312,796.996337890625,793.7728881835938
1439,792.1611938476562,790.1465454101562,793.7728881835938,785.3113403320312
1440,793.3699340820312,789.7435913085938,794.981689453125,781.2820434570312
1441,801.8314819335938,792.1611938476562,795.7875366210938,787.3259887695312
1442,804.2490844726562,787.3259887695312,797.3992919921875,792.5640869140625
1443,803.8461303710938,787.3259887695312,800.6226806640625,789.7435913085938
1444,808.2783813476562,795.7875366210938,800.2197875976562,788.937744140625
1445,804.2490844726562,800.2197875976562,794.981689453125,792.5640869140625
1446,797.8021850585938,796.996337890625,796.996337890625,790.952392578125
1447,792.1611938476562,794.1758422851562,794.981689453125,782.4908447265625
1448,787.3259887695312,786.923095703125,784.908447265625,773.6264038085938
1449,787.7289428710938,788.937744140625,786.923095703125,779.2673950195312
1450,788.1318969726562,798.2051391601562,797.8021850585938,790.1465454101562
1451,790.1465454101562,800.6226806640625,803.040283203125,798.6080322265625
1452,792.5640869140625,791.3552856445312,801.4285888671875,801.025634765625
1453,791.3552856445312,787.7289428710938,799.010986328125,790.5494384765625
1454,789.3406372070312,792.967041015625,793.3699340820312,784.1025390625
1455,790.1465454101562,792.1611938476562,792.5640869140625,790.1465454101562
1456,786.5201416015625,787.3259887695312,790.952392578125,791.7582397460938
1457,779.2673950195312,778.8644409179688,787.7289428710938,794.981689453125
1458,782.087890625,786.1171875,787.3259887695312,792.967041015625
1459,792.1611938476562,793.3699340820312,783.6996459960938,788.1318969726562
1460,793.7728881835938,793.7728881835938,786.923095703125,791.7582397460938
1461,794.981689453125,797.8021850585938,791.7582397460938,791.7582397460938
1462,797.8021850585938,798.2051391601562,788.937744140625,789.7435913085938
1463,795.7875366210938,796.5933837890625,787.3259887695312,789.3406372070312
1464,798.2051391601562,792.5640869140625,792.5640869140625,793.3699340820312
1465,800.6226806640625,791.7582397460938,792.5640869140625,795.7875366210938
1466,801.025634765625,795.7875366210938,791.7582397460938,794.981689453125
1467,798.2051391601562,791.7582397460938,788.5347900390625,797.3992919921875
1468,799.4139404296875,787.7289428710938,786.923095703125,801.8314819335938
1469,797.3992919921875,793.7728881835938,790.952392578125,798.6080322265625
1470,788.1318969726562,795.3846435546875,792.5640869140625,795.3846435546875
1471,795.7875366210938,795.7875366210938,794.981689453125,799.4139404296875
1472,801.4285888671875,792.967041015625,792.1611938476562,795.7875366210938
1473,794.981689453125,788.937744140625,793.7728881835938,790.952392578125
1474,801.025634765625,788.1318969726562,797.8021850585938,799.4139404296875
1475,800.6226806640625,792.1611938476562,789.7435913085938,799.010986328125
1476,793.3699340820312,793.7728881835938,786.923095703125,794.1758422851562
1477,794.5787353515625,790.5494384765625,786.5201416015625,799.8168334960938
1478,790.5494384765625,793.3699340820312,790.5494384765625,792.1611938476562
1479,789.3406372070312,791.7582397460938,792.5640869140625,789.7435913085938
1480,796.996337890625,792.967041015625,790.1465454101562,798.2051391601562
1481,796.1904907226562,800.6226806640625,793.7728881835938,794.981689453125
1482,793.7728881835938,789.7435913085938,794.5787353515625,791.3552856445312
1483,798.2051391601562,785.3113403320312,795.3846435546875,802.2344360351562
1484,799.4139404296875,799.010986328125,798.2051391601562,805.8607788085938
1485,797.3992919921875,796.996337890625,796.996337890625,791.7582397460938
1486,794.1758422851562,790.952392578125,790.5494384765625,786.1171875
1487,796.1904907226562,790.952392578125,784.5054931640625,786.923095703125
1488,799.4139404296875,792.967041015625,791.3552856445312,786.923095703125
1489,794.5787353515625,794.1758422851562,797.8021850585938,788.937744140625
1490,790.5494384765625,788.937744140625,794.981689453125,790.952392578125
1491,792.1611938476562,782.893798828125,792.1611938476562,791.7582397460938
1492,796.5933837890625,784.5054931640625,795.3846435546875,793.7728881835938
1493,796.1904907226562,793.3699340820312,796.996337890625,792.967041015625
1494,794.5787353515625,790.952392578125,795.3846435546875,795.7875366210938
1495,794.5787353515625,784.908447265625,787.3259887695312,798.6080322265625
1496,792.5640869140625,785.7142944335938,785.3113403320312,792.5640869140625
1497,785.7142944335938,780.0732421875,787.7289428710938,784.5054931640625
1498,786.5201416015625,782.087890625,786.1171875,776.8497924804688
1499,793.7728881835938,786.1171875,788.937744140625,776.4468994140625
1500,792.1611938476562,787.7289428710938,785.3113403320312,784.5054931640625
1501,790.1465454101562,792.1611938476562,781.6849975585938,784.5054931640625
1502,789.3406372070312,790.1465454101562,789.7435913085938,789.7435913085938
1503,788.5347900390625,788.1318969726562,784.908447265625,794.981689453125
1504,790.1465454101562,786.923095703125,782.4908447265625,788.937744140625
1505,793.7728881835938,788.1318969726562,790.1465454101562,784.908447265625
1506,800.6226806640625,795.3846435546875,789.3406372070312,798.2051391601562
1507,807.069580078125,794.981689453125,786.1171875,808.2783813476562
1508,806.2637329101562,794.5787353515625,789.3406372070312,796.1904907226562
1509,807.87548828125,793.3699340820312,792.5640869140625,791.7582397460938
1510,811.5018310546875,794.981689453125,792.967041015625,797.3992919921875
1511,807.4725341796875,789.3406372070312,795.3846435546875,798.6080322265625
1512,805.054931640625,790.5494384765625,795.3846435546875,804.6520385742188
1513,805.054931640625,798.6080322265625,788.5347900390625,802.2344360351562
1514,808.6813354492188,789.3406372070312,787.7289428710938,799.010986328125
1515,805.8607788085938,783.2966918945312,793.7728881835938,794.5787353515625
1516,791.7582397460938,791.3552856445312,792.5640869140625,785.3113403320312
1517,788.1318969726562,795.7875366210938,789.7435913085938,782.893798828125
1518,788.937744140625,793.3699340820312,786.5201416015625,786.1171875
1519,784.908447265625,793.3699340820312,782.893798828125,790.1465454101562
1520,787.3259887695312,794.5787353515625,783.6996459960938,790.952392578125
1521,792.5640869140625,794.1758422851562,787.7289428710938,799.010986328125
1522,792.1611938476562,790.5494384765625,787.7289428710938,802.2344360351562
1523,787.7289428710938,786.5201416015625,781.6849975585938,796.996337890625
1524,788.5347900390625,788.1318969726562,783.2966918945312,790.1465454101562
1525,793.7728881835938,792.967041015625,788.5347900390625,794.981689453125
1526,789.3406372070312,794.981689453125,785.7142944335938,796.996337890625
1527,784.1025390625,792.5640869140625,784.1025390625,788.937744140625
1528,782.893798828125,796.996337890625,784.908447265625,789.7435913085938
1529,782.4908447265625,803.4432373046875,783.6996459960938,790.952392578125
1530,783.6996459960938,801.025634765625,786.5201416015625,797.8021850585938
1531,783.6996459960938,794.981689453125,788.5347900390625,794.981689453125
1532,786.5201416015625,793.3699340820312,785.7142944335938,789.3406372070312
1533,796.5933837890625,792.5640869140625,789.3406372070312,796.5933837890625
1534,800.2197875976562,794.1758422851562,791.7582397460938,796.1904907226562
1535,797.8021850585938,796.996337890625,788.5347900390625,792.5640869140625
1536,801.4285888671875,791.7582397460938,789.3406372070312,790.952392578125
1537,802.6373901367188,787.7289428710938,792.1611938476562,789.3406372070312
1538,805.054931640625,788.937744140625,792.967041015625,797.8021850585938
1539,804.6520385742188,792.5640869140625,792.1611938476562,796.5933837890625
1540,797.3992919921875,797.3992919921875,792.967041015625,786.1171875
1541,792.967041015625,798.2051391601562,789.3406372070312,790.952392578125
1542,786.923095703125,795.3846435546875,790.5494384765625,794.1758422851562
1543,784.5054931640625,790.952392578125,792.967041015625,788.937744140625
1544,787.7289428710938,792.1611938476562,788.1318969726562,788.937744140625
1545,789.7435913085938,798.2051391601562,788.937744140625,796.996337890625
1546,790.5494384765625,793.3699340820312,793.7728881835938,802.6373901367188
1547,788.937744140625,791.3552856445312,805.054931640625,794.1758422851562
1548,786.923095703125,789.3406372070312,804.6520385742188,786.5201416015625
1549,793.7728881835938,786.923095703125,799.8168334960938,790.952392578125
1550,799.010986328125,788.937744140625,802.2344360351562,797.3992919921875
1551,788.5347900390625,789.3406372070312,796.996337890625,796.996337890625
1552,784.1025390625,797.8021850585938,795.7875366210938,804.6520385742188
1553,789.7435913085938,796.5933837890625,799.4139404296875,815.5311279296875
1554,784.908447265625,794.981689453125,802.6373901367188,807.069580078125
1555,788.5347900390625,802.6373901367188,806.2637329101562,803.040283203125
1556,792.1611938476562,801.025634765625,802.2344360351562,803.4432373046875
1557,788.1318969726562,800.6226806640625,799.010986328125,796.1904907226562
1558,791.7582397460938,797.8021850585938,798.2051391601562,788.5347900390625
1559,790.952392578125,786.5201416015625,799.8168334960938,785.7142944335938
1560,791.7582397460938,787.3259887695312,804.2490844726562,790.952392578125
1561,799.010986328125,790.1465454101562,803.8461303710938,799.8168334960938
1562,806.2637329101562,793.3699340820312,803.040283203125,803.040283203125
1563,810.2930297851562,792.967041015625,799.8168334960938,796.5933837890625
1564,805.4578857421875,789.7435913085938,791.7582397460938,793.7728881835938
1565,802.2344360351562,795.7875366210938,787.7289428710938,789.7435913085938
1566,800.2197875976562,799.010986328125,794.981689453125,785.3113403320312
1567,800.6226806640625,797.3992919921875,795.7875366210938,786.923095703125
1568,799.010986328125,794.5787353515625,792.5640869140625,792.5640869140625
1569,793.7728881835938,792.1611938476562,792.967041015625,796.5933837890625
1570,802.2344360351562,789.3406372070312,796.5933837890625,793.3699340820312
1571,809.084228515625,782.4908447265625,796.5933837890625,792.5640869140625
1572,803.040283203125,784.1025390625,789.3406372070312,792.5640869140625
1573,799.010986328125,783.6996459960938,788.5347900390625,790.5494384765625
1574,796.5933837890625,784.1025390625,791.3552856445312,783.2966918945312
1575,798.6080322265625,794.5787353515625,790.5494384765625,780.4761962890625
1576,797.8021850585938,799.8168334960938,790.952392578125,787.3259887695312
1577,792.5640869140625,799.010986328125,792.967041015625,786.1171875
1578,792.5640869140625,798.2051391601562,790.5494384765625,783.2966918945312
1579,788.1318969726562,798.2051391601562,792.1611938476562,788.937744140625
1580,786.1171875,790.1465454101562,790.952392578125,788.5347900390625
1581,786.923095703125,781.6849975585938,786.923095703125,786.923095703125
