timestamp,RAW_TP9,RAW_AF7,RAW_AF8,RAW_TP10
1,808.2783813476562,786.1171875,786.1171875,790.5494384765625
2,807.069580078125,794.5787353515625,781.6849975585938,790.1465454101562
3,808.6813354492188,801.4285888671875,776.8497924804688,788.937744140625
4,809.084228515625,799.8168334960938,782.4908447265625,788.937744140625
5,800.2197875976562,802.2344360351562,784.908447265625,792.5640869140625
6,796.1904907226562,801.4285888671875,783.2966918945312,801.8314819335938
7,803.4432373046875,799.8168334960938,786.1171875,805.054931640625
8,805.8607788085938,795.3846435546875,790.952392578125,807.87548828125
9,799.4139404296875,793.7728881835938,791.7582397460938,809.084228515625
10,798.6080322265625,796.5933837890625,794.1758422851562,802.6373901367188
11,802.2344360351562,794.1758422851562,794.981689453125,795.3846435546875
12,806.2637329101562,788.937744140625,792.5640869140625,799.010986328125
13,809.084228515625,789.7435913085938,795.7875366210938,801.025634765625
14,805.8607788085938,791.7582397460938,794.981689453125,798.6080322265625
15,799.4139404296875,790.1465454101562,795.3846435546875,796.5933837890625
16,801.025634765625,793.7728881835938,801.4285888671875,801.025634765625
17,798.6080322265625,792.967041015625,799.010986328125,801.4285888671875
18,789.3406372070312,788.5347900390625,795.7875366210938,795.7875366210938
19,788.1318969726562,790.952392578125,792.5640869140625,796.1904907226562
20,785.7142944335938,793.7728881835938,793.7728881835938,792.1611938476562
21,788.5347900390625,792.1611938476562,800.2197875976562,799.010986328125
22,794.5787353515625,791.3552856445312,800.2197875976562,806.2637329101562
23,789.7435913085938,794.1758422851562,794.5787353515625,792.5640869140625
24,782.4908447265625,797.3992919921875,791.7582397460938,788.1318969726562
25,782.4908447265625,799.010986328125,791.7582397460938,790.952392578125
26,788.937744140625,801.4285888671875,794.981689453125,792.1611938476562
27,792.5640869140625,801.4285888671875,798.6080322265625,791.3552856445312
28,796.996337890625,795.3846435546875,797.3992919921875,794.5787353515625
29,802.6373901367188,795.7875366210938,797.3992919921875,798.2051391601562
30,804.6520385742188,800.6226806640625,798.2051391601562,799.8168334960938
31,805.054931640625,798.2051391601562,800.2197875976562,804.6520385742188
32,804.6520385742188,794.5787353515625,800.6226806640625,807.069580078125
33,809.4871826171875,796.5933837890625,799.8168334960938,815.93408203125
34,811.90478515625,797.8021850585938,802.2344360351562,815.1282348632812
35,806.2637329101562,796.996337890625,805.054931640625,804.2490844726562
36,799.4139404296875,794.1758422851562,802.6373901367188,800.6226806640625
37,800.2197875976562,792.967041015625,799.4139404296875,801.025634765625
38,805.4578857421875,796.996337890625,801.025634765625,804.6520385742188
39,799.4139404296875,800.6226806640625,799.4139404296875,801.4285888671875
40,793.3699340820312,801.8314819335938,797.8021850585938,798.2051391601562
41,797.3992919921875,793.3699340820312,796.5933837890625,795.3846435546875
42,797.8021850585938,792.5640869140625,793.3699340820312,791.3552856445312
43,797.3992919921875,798.6080322265625,790.1465454101562,786.923095703125
44,795.7875366210938,799.010986328125,789.7435913085938,788.1318969726562
45,786.5201416015625,795.7875366210938,792.5640869140625,781.2820434570312
46,789.7435913085938,795.3846435546875,794.981689453125,771.2088012695312
47,794.1758422851562,795.7875366210938,794.981689453125,775.6410522460938
48,788.937744140625,789.7435913085938,797.3992919921875,785.3113403320312
49,790.5494384765625,786.5201416015625,799.010986328125,784.5054931640625
50,783.6996459960938,787.3259887695312,800.2197875976562,776.8497924804688
51,776.4468994140625,788.5347900390625,803.040283203125,776.8497924804688
52,780.4761962890625,790.5494384765625,803.4432373046875,784.1025390625
53,785.7142944335938,788.937744140625,803.4432373046875,787.3259887695312
54,786.923095703125,786.5201416015625,804.2490844726562,786.1171875
55,787.3259887695312,785.3113403320312,798.6080322265625,789.3406372070312
56,786.5201416015625,780.4761962890625,793.7728881835938,788.5347900390625
57,789.3406372070312,781.2820434570312,797.8021850585938,784.5054931640625
58,795.3846435546875,789.7435913085938,802.6373901367188,791.3552856445312
59,795.3846435546875,790.952392578125,800.2197875976562,794.981689453125
60,792.967041015625,790.1465454101562,799.8168334960938,792.967041015625
61,800.2197875976562,788.937744140625,802.6373901367188,804.6520385742188
62,806.6666870117188,793.7728881835938,797.8021850585938,805.4578857421875
63,799.010986328125,801.4285888671875,791.7582397460938,791.3552856445312
64,799.010986328125,801.8314819335938,794.981689453125,790.952392578125
65,792.967041015625,799.010986328125,797.8021850585938,785.3113403320312
66,789.3406372070312,795.7875366210938,794.1758422851562,779.2673950195312
67,800.6226806640625,797.3992919921875,788.5347900390625,787.3259887695312
68,799.8168334960938,805.4578857421875,787.7289428710938,790.1465454101562
69,792.1611938476562,812.3076782226562,793.3699340820312,788.937744140625
70,787.3259887695312,806.2637329101562,796.5933837890625,786.923095703125
71,791.7582397460938,802.6373901367188,794.1758422851562,784.1025390625
72,790.5494384765625,804.2490844726562,792.5640869140625,784.5054931640625
73,788.1318969726562,802.2344360351562,789.3406372070312,787.3259887695312
74,790.952392578125,799.010986328125,787.3259887695312,790.5494384765625
75,793.3699340820312,803.040283203125,789.7435913085938,793.7728881835938
76,796.996337890625,811.5018310546875,790.5494384765625,795.3846435546875
77,799.010986328125,807.87548828125,792.5640869140625,794.5787353515625
78,797.3992919921875,803.040283203125,793.3699340820312,792.5640869140625
79,796.996337890625,796.996337890625,795.3846435546875,801.025634765625
80,799.8168334960938,790.952392578125,795.7875366210938,801.025634765625
81,799.4139404296875,790.952392578125,796.996337890625,796.1904907226562
82,793.3699340820312,790.1465454101562,801.025634765625,799.8168334960938
83,788.5347900390625,790.952392578125,798.6080322265625,803.040283203125
84,781.6849975585938,793.3699340820312,796.996337890625,798.2051391601562
85,780.4761962890625,790.952392578125,797.8021850585938,794.981689453125
86,785.3113403320312,787.3259887695312,798.2051391601562,792.1611938476562
87,784.908447265625,793.3699340820312,791.7582397460938,786.923095703125
88,785.7142944335938,796.996337890625,793.3699340820312,788.1318969726562
89,790.5494384765625,788.5347900390625,794.5787353515625,790.1465454101562
90,796.5933837890625,790.1465454101562,788.5347900390625,798.6080322265625
91,799.010986328125,798.6080322265625,786.923095703125,803.8461303710938
92,801.4285888671875,794.1758422851562,784.908447265625,790.952392578125
93,806.2637329101562,792.967041015625,784.908447265625,787.7289428710938
94,803.8461303710938,796.5933837890625,788.937744140625,790.952392578125
95,798.6080322265625,795.7875366210938,787.7289428710938,793.3699340820312
96,798.6080322265625,794.1758422851562,790.5494384765625,793.7728881835938
97,794.981689453125,789.7435913085938,789.3406372070312,794.1758422851562
98,783.2966918945312,782.4908447265625,781.2820434570312,792.5640869140625
99,782.4908447265625,784.1025390625,786.923095703125,789.7435913085938
100,786.1171875,788.5347900390625,791.7582397460938,786.1171875
101,788.937744140625,788.937744140625,789.3406372070312,790.5494384765625
102,786.1171875,793.3699340820312,790.952392578125,792.1611938476562
103,780.879150390625,788.937744140625,792.1611938476562,786.5201416015625
104,786.1171875,784.908447265625,791.3552856445312,784.5054931640625
105,789.3406372070312,787.3259887695312,791.7582397460938,783.2966918945312
106,796.1904907226562,790.1465454101562,794.1758422851562,797.3992919921875
107,791.7582397460938,792.967041015625,796.996337890625,796.1904907226562
108,778.8644409179688,790.1465454101562,797.8021850585938,786.5201416015625
109,775.2380981445312,789.3406372070312,796.996337890625,791.3552856445312
110,774.8351440429688,789.7435913085938,797.8021850585938,794.5787353515625
111,775.6410522460938,791.3552856445312,801.025634765625,791.3552856445312
112,777.6557006835938,792.5640869140625,801.025634765625,789.7435913085938
113,782.4908447265625,787.7289428710938,798.6080322265625,790.1465454101562
114,786.1171875,784.908447265625,794.981689453125,785.7142944335938
115,790.1465454101562,788.937744140625,792.5640869140625,784.908447265625
116,791.3552856445312,791.3552856445312,790.5494384765625,780.4761962890625
117,796.5933837890625,789.7435913085938,787.7289428710938,779.6703491210938
118,797.3992919921875,789.3406372070312,785.7142944335938,781.2820434570312
119,794.1758422851562,791.7582397460938,789.7435913085938,775.2380981445312
120,794.1758422851562,786.5201416015625,790.1465454101562,776.8497924804688
121,790.952392578125,784.5054931640625,786.5201416015625,782.893798828125
122,786.5201416015625,790.5494384765625,786.923095703125,781.6849975585938
123,786.5201416015625,790.952392578125,790.5494384765625,780.879150390625
124,788.5347900390625,788.1318969726562,790.952392578125,785.7142944335938
125,792.967041015625,788.1318969726562,792.1611938476562,788.1318969726562
126,800.6226806640625,793.3699340820312,791.3552856445312,788.5347900390625
127,803.040283203125,797.8021850585938,791.7582397460938,792.5640869140625
128,796.1904907226562,798.6080322265625,787.7289428710938,796.1904907226562
129,798.2051391601562,784.5054931640625,787.3259887695312,807.87548828125
130,803.8461303710938,785.3113403320312,791.3552856445312,810.6959838867188
131,794.981689453125,801.4285888671875,787.7289428710938,796.996337890625
132,791.3552856445312,802.6373901367188,790.1465454101562,792.967041015625
133,787.7289428710938,801.025634765625,796.1904907226562,795.7875366210938
134,789.3406372070312,797.3992919921875,794.1758422851562,795.7875366210938
135,798.2051391601562,799.010986328125,785.7142944335938,799.8168334960938
136,799.4139404296875,801.8314819335938,782.087890625,801.8314819335938
137,798.2051391601562,799.4139404296875,782.087890625,796.996337890625
138,795.7875366210938,800.2197875976562,779.6703491210938,792.5640869140625
139,787.7289428710938,800.6226806640625,782.4908447265625,795.7875366210938
140,786.923095703125,797.3992919921875,784.908447265625,800.6226806640625
141,788.937744140625,796.1904907226562,780.879150390625,793.3699340820312
142,789.7435913085938,797.8021850585938,780.4761962890625,788.1318969726562
143,791.3552856445312,800.2197875976562,784.1025390625,788.5347900390625
144,794.5787353515625,800.2197875976562,783.6996459960938,786.923095703125
145,800.6226806640625,798.2051391601562,785.3113403320312,785.3113403320312
146,798.2051391601562,794.5787353515625,786.5201416015625,783.2966918945312
147,791.7582397460938,795.3846435546875,784.5054931640625,784.5054931640625
148,790.5494384765625,793.7728881835938,781.6849975585938,781.6849975585938
149,792.1611938476562,789.7435913085938,784.1025390625,786.5201416015625
150,787.7289428710938,796.1904907226562,787.7289428710938,790.1465454101562
151,783.2966918945312,793.3699340820312,788.5347900390625,785.7142944335938
152,784.1025390625,790.5494384765625,788.5347900390625,789.3406372070312
153,783.6996459960938,797.8021850585938,785.3113403320312,789.7435913085938
154,783.2966918945312,797.3992919921875,786.5201416015625,785.3113403320312
155,780.4761962890625,794.5787353515625,790.1465454101562,785.3113403320312
156,783.2966918945312,796.5933837890625,791.7582397460938,784.5054931640625
157,786.5201416015625,796.1904907226562,788.937744140625,785.7142944335938
158,788.937744140625,796.1904907226562,790.952392578125,789.3406372070312
159,787.3259887695312,797.8021850585938,788.1318969726562,788.937744140625
160,787.3259887695312,793.7728881835938,779.2673950195312,784.1025390625
161,794.1758422851562,794.1758422851562,779.6703491210938,781.2820434570312
162,796.5933837890625,796.996337890625,780.879150390625,782.087890625
163,797.3992919921875,797.8021850585938,778.4615478515625,778.05859375
164,797.8021850585938,791.7582397460938,781.2820434570312,773.2234497070312
165,799.010986328125,791.3552856445312,787.3259887695312,774.8351440429688
166,798.2051391601562,798.6080322265625,785.3113403320312,776.8497924804688
167,799.010986328125,802.2344360351562,783.2966918945312,780.0732421875
168,796.5933837890625,801.4285888671875,785.3113403320312,779.6703491210938
169,788.5347900390625,795.3846435546875,786.5201416015625,779.6703491210938
170,788.1318969726562,795.7875366210938,792.1611938476562,788.1318969726562
171,787.7289428710938,800.2197875976562,790.1465454101562,793.7728881835938
172,781.2820434570312,795.3846435546875,792.967041015625,792.5640869140625
173,778.05859375,794.1758422851562,792.967041015625,787.7289428710938
174,778.4615478515625,794.5787353515625,785.7142944335938,791.3552856445312
175,779.6703491210938,791.7582397460938,790.5494384765625,795.7875366210938
176,783.2966918945312,792.1611938476562,796.5933837890625,798.6080322265625
177,787.7289428710938,794.981689453125,797.8021850585938,797.3992919921875
178,786.5201416015625,793.3699340820312,794.1758422851562,794.5787353515625
179,788.5347900390625,794.981689453125,796.996337890625,799.4139404296875
180,791.3552856445312,798.6080322265625,804.2490844726562,797.8021850585938
181,793.7728881835938,796.1904907226562,800.6226806640625,794.981689453125
182,803.8461303710938,794.5787353515625,794.1758422851562,797.3992919921875
183,800.2197875976562,790.5494384765625,792.1611938476562,791.3552856445312
184,783.6996459960938,784.5054931640625,789.7435913085938,786.1171875
185,778.8644409179688,784.908447265625,786.1171875,790.1465454101562
186,786.1171875,788.5347900390625,788.937744140625,797.8021850585938
187,788.937744140625,793.7728881835938,790.1465454101562,800.6226806640625
188,789.7435913085938,792.5640869140625,789.7435913085938,796.1904907226562
189,795.3846435546875,790.5494384765625,788.937744140625,794.5787353515625
190,792.1611938476562,790.5494384765625,788.1318969726562,798.6080322265625
191,783.6996459960938,790.5494384765625,788.1318969726562,797.3992919921875
192,785.7142944335938,790.5494384765625,788.5347900390625,789.3406372070312
193,788.5347900390625,791.7582397460938,788.5347900390625,785.3113403320312
194,786.1171875,794.1758422851562,785.7142944335938,780.0732421875
195,785.7142944335938,793.3699340820312,785.3113403320312,782.4908447265625
196,788.5347900390625,788.937744140625,788.5347900390625,786.5201416015625
197,789.3406372070312,788.1318969726562,787.3259887695312,789.3406372070312
198,780.0732421875,790.952392578125,781.6849975585938,783.2966918945312
199,770.8058471679688,789.7435913085938,781.6849975585938,777.2527465820312
200,776.4468994140625,788.937744140625,789.3406372070312,786.1171875
201,778.4615478515625,790.5494384765625,795.7875366210938,788.1318969726562
202,779.6703491210938,790.1465454101562,794.1758422851562,786.923095703125
203,782.087890625,793.3699340820312,786.923095703125,781.2820434570312
204,775.6410522460938,796.5933837890625,785.7142944335938,774.8351440429688
205,776.8497924804688,791.7582397460938,786.1171875,779.2673950195312
206,779.6703491210938,790.952392578125,778.8644409179688,783.2966918945312
207,783.2966918945312,797.3992919921875,778.8644409179688,782.893798828125
208,783.6996459960938,796.5933837890625,779.6703491210938,778.8644409179688
209,783.6996459960938,792.5640869140625,778.4615478515625,774.029296875
210,788.5347900390625,796.5933837890625,779.6703491210938,776.8497924804688
211,789.3406372070312,799.8168334960938,780.0732421875,781.2820434570312
212,789.7435913085938,792.5640869140625,781.2820434570312,780.4761962890625
213,792.5640869140625,792.1611938476562,783.6996459960938,788.937744140625
214,790.952392578125,793.3699340820312,789.3406372070312,792.1611938476562
215,790.5494384765625,791.7582397460938,796.996337890625,784.908447265625
216,796.5933837890625,798.2051391601562,796.996337890625,790.1465454101562
217,799.010986328125,795.7875366210938,797.8021850585938,796.996337890625
218,794.981689453125,790.5494384765625,798.2051391601562,796.1904907226562
219,792.1611938476562,790.5494384765625,793.3699340820312,796.5933837890625
220,793.7728881835938,791.3552856445312,794.5787353515625,796.5933837890625
221,794.1758422851562,791.7582397460938,797.8021850585938,793.7728881835938
222,790.5494384765625,794.5787353515625,796.5933837890625,791.7582397460938
223,789.7435913085938,796.996337890625,795.7875366210938,792.1611938476562
224,792.967041015625,791.7582397460938,794.5787353515625,794.5787353515625
225,795.7875366210938,787.3259887695312,794.981689453125,796.996337890625
226,797.3992919921875,788.1318969726562,794.5787353515625,796.1904907226562
227,805.4578857421875,794.5787353515625,798.2051391601562,798.6080322265625
228,811.90478515625,796.996337890625,800.6226806640625,799.010986328125
229,803.4432373046875,792.1611938476562,797.8021850585938,793.7728881835938
230,789.3406372070312,796.996337890625,795.3846435546875,791.3552856445312
231,795.7875366210938,801.025634765625,796.996337890625,799.8168334960938
232,803.040283203125,794.5787353515625,795.3846435546875,810.2930297851562
233,792.5640869140625,786.923095703125,791.3552856445312,807.4725341796875
234,788.1318969726562,788.937744140625,788.5347900390625,799.4139404296875
235,789.7435913085938,793.7728881835938,790.1465454101562,800.2197875976562
236,786.1171875,791.3552856445312,794.5787353515625,804.6520385742188
237,781.2820434570312,788.937744140625,792.1611938476562,794.981689453125
238,784.5054931640625,786.1171875,791.7582397460938,785.3113403320312
239,786.923095703125,788.937744140625,792.1611938476562,788.937744140625
240,784.1025390625,789.7435913085938,793.3699340820312,788.937744140625
241,789.7435913085938,787.7289428710938,794.1758422851562,788.937744140625
242,792.5640869140625,790.5494384765625,793.3699340820312,786.5201416015625
243,794.981689453125,793.3699340820312,793.3699340820312,790.5494384765625
244,799.4139404296875,796.996337890625,796.5933837890625,794.1758422851562
245,797.3992919921875,794.1758422851562,796.996337890625,789.3406372070312
246,793.3699340820312,792.1611938476562,795.7875366210938,791.3552856445312
247,793.3699340820312,794.5787353515625,796.1904907226562,796.996337890625
248,793.3699340820312,793.7728881835938,793.3699340820312,803.8461303710938
249,789.7435913085938,792.967041015625,793.3699340820312,798.2051391601562
250,788.937744140625,793.3699340820312,790.5494384765625,788.937744140625
251,792.1611938476562,791.3552856445312,790.5494384765625,792.5640869140625
252,793.7728881835938,788.937744140625,790.952392578125,792.1611938476562
253,797.8021850585938,790.5494384765625,787.7289428710938,788.5347900390625
254,799.8168334960938,790.1465454101562,791.3552856445312,790.5494384765625
255,802.6373901367188,790.5494384765625,794.981689453125,792.1611938476562
256,800.2197875976562,795.3846435546875,796.1904907226562,795.3846435546875
257,796.1904907226562,794.981689453125,797.3992919921875,797.3992919921875
258,790.952392578125,794.1758422851562,796.1904907226562,791.7582397460938
259,786.1171875,792.5640869140625,794.981689453125,794.5787353515625
260,782.087890625,792.1611938476562,794.1758422851562,799.8168334960938
261,778.8644409179688,796.5933837890625,790.952392578125,789.3406372070312
262,782.087890625,800.6226806640625,786.923095703125,782.087890625
263,787.3259887695312,801.4285888671875,788.5347900390625,787.3259887695312
264,792.967041015625,805.8607788085938,792.1611938476562,797.8021850585938
265,793.3699340820312,806.6666870117188,795.3846435546875,794.5787353515625
266,793.3699340820312,801.4285888671875,792.967041015625,792.1611938476562
267,783.6996459960938,792.967041015625,791.7582397460938,791.3552856445312
268,777.6557006835938,786.5201416015625,792.5640869140625,787.3259887695312
269,784.908447265625,783.6996459960938,793.7728881835938,792.5640869140625
270,787.7289428710938,792.5640869140625,788.937744140625,790.952392578125
271,781.6849975585938,799.010986328125,786.1171875,781.2820434570312
272,778.8644409179688,799.4139404296875,788.937744140625,777.2527465820312
273,781.2820434570312,792.1611938476562,789.7435913085938,781.6849975585938
274,792.967041015625,787.3259887695312,788.937744140625,793.3699340820312
275,801.025634765625,794.5787353515625,786.5201416015625,797.8021850585938
276,796.996337890625,797.8021850585938,788.937744140625,794.981689453125
277,784.1025390625,794.1758422851562,794.981689453125,788.1318969726562
278,777.2527465820312,789.7435913085938,793.7728881835938,779.6703491210938
279,784.1025390625,793.3699340820312,793.3699340820312,786.923095703125
280,787.7289428710938,794.1758422851562,796.1904907226562,786.923095703125
281,788.5347900390625,792.1611938476562,793.3699340820312,786.1171875
282,794.981689453125,790.952392578125,793.7728881835938,790.5494384765625
283,798.6080322265625,790.1465454101562,791.3552856445312,788.5347900390625
284,796.5933837890625,796.5933837890625,793.7728881835938,791.7582397460938
285,789.7435913085938,803.040283203125,798.6080322265625,794.5787353515625
286,782.087890625,801.025634765625,797.3992919921875,798.2051391601562
287,782.893798828125,797.8021850585938,796.1904907226562,796.1904907226562
288,788.1318969726562,792.967041015625,796.5933837890625,787.7289428710938
289,786.5201416015625,791.3552856445312,797.3992919921875,785.3113403320312
290,791.3552856445312,795.7875366210938,794.1758422851562,791.7582397460938
291,789.7435913085938,796.5933837890625,789.7435913085938,784.5054931640625
292,782.893798828125,790.5494384765625,786.923095703125,774.8351440429688
293,780.879150390625,785.3113403320312,782.893798828125,778.05859375
294,781.6849975585938,791.3552856445312,781.2820434570312,782.087890625
295,792.1611938476562,796.5933837890625,784.1025390625,782.893798828125
296,796.5933837890625,797.8021850585938,781.2820434570312,780.0732421875
297,792.967041015625,790.952392578125,780.0732421875,784.5054931640625
298,793.7728881835938,787.7289428710938,775.2380981445312,786.1171875
299,794.5787353515625,794.1758422851562,777.2527465820312,784.5054931640625
300,798.2051391601562,797.3992919921875,782.893798828125,787.3259887695312
301,802.2344360351562,796.1904907226562,780.4761962890625,788.937744140625
302,799.4139404296875,794.981689453125,783.6996459960938,788.937744140625
303,795.7875366210938,798.2051391601562,789.7435913085938,794.1758422851562
304,800.6226806640625,796.5933837890625,791.7582397460938,801.025634765625
305,799.8168334960938,795.7875366210938,789.7435913085938,802.6373901367188
306,798.6080322265625,793.3699340820312,789.3406372070312,804.2490844726562
307,797.8021850585938,790.5494384765625,789.3406372070312,805.054931640625
308,795.3846435546875,791.7582397460938,790.5494384765625,799.4139404296875
309,802.6373901367188,789.7435913085938,794.1758422851562,801.025634765625
310,805.054931640625,788.937744140625,794.1758422851562,806.6666870117188
311,792.1611938476562,791.3552856445312,786.5201416015625,794.981689453125
312,789.3406372070312,788.5347900390625,788.1318969726562,792.967041015625
313,790.952392578125,788.1318969726562,790.952392578125,798.2051391601562
314,786.1171875,785.3113403320312,788.937744140625,793.3699340820312
315,784.5054931640625,784.908447265625,792.1611938476562,791.3552856445312
316,786.5201416015625,789.7435913085938,790.5494384765625,792.1611938476562
317,783.6996459960938,790.1465454101562,792.1611938476562,788.937744140625
318,784.1025390625,788.937744140625,796.1904907226562,785.7142944335938
319,794.5787353515625,790.5494384765625,792.1611938476562,789.3406372070312
320,793.3699340820312,791.3552856445312,786.5201416015625,787.3259887695312
321,787.7289428710938,792.5640869140625,787.7289428710938,792.967041015625
322,790.5494384765625,790.5494384765625,789.7435913085938,789.3406372070312
323,795.7875366210938,788.937744140625,793.3699340820312,793.3699340820312
324,801.025634765625,794.1758422851562,792.1611938476562,806.2637329101562
325,798.6080322265625,788.5347900390625,790.952392578125,801.8314819335938
326,793.7728881835938,788.937744140625,796.996337890625,799.4139404296875
327,788.1318969726562,796.996337890625,794.981689453125,793.3699340820312
328,777.2527465820312,792.1611938476562,790.1465454101562,790.952392578125
329,772.4176025390625,792.1611938476562,788.1318969726562,794.1758422851562
330,772.8204956054688,794.981689453125,789.7435913085938,795.7875366210938
331,778.4615478515625,795.3846435546875,786.923095703125,792.5640869140625
332,784.908447265625,790.952392578125,785.3113403320312,795.7875366210938
333,787.3259887695312,788.937744140625,794.1758422851562,807.4725341796875
334,787.3259887695312,794.1758422851562,799.4139404296875,801.025634765625
335,788.1318969726562,789.7435913085938,791.7582397460938,798.6080322265625
336,789.7435913085938,789.7435913085938,789.3406372070312,796.996337890625
337,784.5054931640625,796.996337890625,790.5494384765625,788.5347900390625
338,779.2673950195312,794.1758422851562,793.3699340820312,787.3259887695312
339,779.2673950195312,787.7289428710938,794.5787353515625,784.5054931640625
340,782.893798828125,791.3552856445312,789.7435913085938,785.3113403320312
341,791.3552856445312,799.8168334960938,789.3406372070312,788.5347900390625
342,795.7875366210938,799.4139404296875,789.7435913085938,786.1171875
343,795.7875366210938,799.4139404296875,788.5347900390625,782.4908447265625
344,796.996337890625,798.6080322265625,789.3406372070312,788.1318969726562
345,793.7728881835938,794.981689453125,790.1465454101562,788.5347900390625
346,790.952392578125,793.7728881835938,788.937744140625,783.2966918945312
347,791.7582397460938,796.996337890625,790.5494384765625,784.908447265625
348,790.1465454101562,794.5787353515625,791.7582397460938,784.908447265625
349,789.7435913085938,790.1465454101562,787.7289428710938,784.1025390625
350,791.7582397460938,794.5787353515625,782.087890625,785.3113403320312
351,792.967041015625,793.3699340820312,781.6849975585938,788.1318969726562
352,793.3699340820312,797.3992919921875,784.908447265625,792.5640869140625
353,790.1465454101562,802.6373901367188,786.5201416015625,788.5347900390625
354,795.3846435546875,804.2490844726562,787.3259887695312,785.3113403320312
355,798.6080322265625,798.2051391601562,785.3113403320312,788.937744140625
356,785.7142944335938,790.952392578125,786.1171875,786.923095703125
357,780.4761962890625,802.2344360351562,787.3259887695312,783.2966918945312
358,781.6849975585938,805.8607788085938,790.1465454101562,785.7142944335938
359,782.893798828125,800.2197875976562,792.5640869140625,792.5640869140625
360,785.3113403320312,800.6226806640625,794.1758422851562,790.952392578125
361,778.8644409179688,797.8021850585938,788.5347900390625,784.5054931640625
362,782.893798828125,790.5494384765625,785.3113403320312,785.3113403320312
363,790.1465454101562,790.1465454101562,788.937744140625,781.6849975585938
364,780.879150390625,790.952392578125,786.923095703125,782.4908447265625
365,776.4468994140625,791.7582397460938,785.3113403320312,792.967041015625
366,780.879150390625,792.5640869140625,782.893798828125,794.5787353515625
367,782.893798828125,792.967041015625,780.879150390625,793.7728881835938
368,786.5201416015625,796.1904907226562,785.7142944335938,794.981689453125
369,788.5347900390625,799.010986328125,789.3406372070312,796.996337890625
370,788.937744140625,798.2051391601562,786.1171875,794.1758422851562
371,796.1904907226562,792.1611938476562,789.3406372070312,794.981689453125
372,798.2051391601562,790.952392578125,793.7728881835938,800.2197875976562
373,792.1611938476562,794.981689453125,792.5640869140625,794.981689453125
374,794.5787353515625,795.3846435546875,790.1465454101562,794.1758422851562
375,799.4139404296875,794.5787353515625,790.5494384765625,798.6080322265625
376,803.040283203125,796.1904907226562,792.1611938476562,797.3992919921875
377,803.4432373046875,803.8461303710938,791.3552856445312,792.967041015625
378,796.996337890625,803.4432373046875,790.5494384765625,791.3552856445312
379,794.981689453125,796.996337890625,790.1465454101562,787.7289428710938
380,794.5787353515625,796.5933837890625,786.1171875,781.2820434570312
381,788.5347900390625,799.8168334960938,780.879150390625,778.8644409179688
382,788.5347900390625,796.1904907226562,779.6703491210938,786.923095703125
383,782.893798828125,791.7582397460938,780.4761962890625,786.923095703125
384,774.029296875,790.5494384765625,782.087890625,782.087890625
385,767.1795043945312,785.7142944335938,783.2966918945312,785.7142944335938
386,768.3883056640625,784.908447265625,782.4908447265625,790.1465454101562
387,777.2527465820312,788.1318969726562,784.5054931640625,787.3259887695312
388,777.2527465820312,787.3259887695312,787.3259887695312,779.2673950195312
389,774.4322509765625,790.1465454101562,788.5347900390625,780.0732421875
390,779.6703491210938,790.952392578125,788.937744140625,784.5054931640625
391,785.3113403320312,792.5640869140625,788.937744140625,788.937744140625
392,783.6996459960938,792.967041015625,792.1611938476562,792.1611938476562
393,784.1025390625,787.3259887695312,793.7728881835938,786.923095703125
394,788.937744140625,782.4908447265625,787.7289428710938,789.3406372070312
395,791.3552856445312,784.908447265625,785.3113403320312,788.937744140625
396,798.6080322265625,790.952392578125,787.7289428710938,787.3259887695312
397,808.2783813476562,790.952392578125,786.5201416015625,795.3846435546875
398,801.025634765625,786.1171875,789.7435913085938,793.3699340820312
399,792.1611938476562,785.7142944335938,793.7728881835938,787.3259887695312
400,796.5933837890625,788.5347900390625,795.3846435546875,790.952392578125
401,795.3846435546875,786.1171875,796.1904907226562,789.7435913085938
402,794.981689453125,788.1318969726562,799.4139404296875,790.1465454101562
403,792.967041015625,789.3406372070312,796.1904907226562,789.3406372070312
404,789.7435913085938,788.937744140625,792.967041015625,788.937744140625
405,794.1758422851562,792.5640869140625,792.967041015625,801.025634765625
406,794.1758422851562,794.981689453125,792.967041015625,802.6373901367188
407,792.5640869140625,797.8021850585938,791.7582397460938,795.7875366210938
408,787.3259887695312,799.010986328125,786.923095703125,793.7728881835938
409,782.4908447265625,795.3846435546875,785.7142944335938,791.7582397460938
410,784.1025390625,792.5640869140625,784.1025390625,788.1318969726562
411,790.1465454101562,792.967041015625,786.923095703125,786.5201416015625
412,794.981689453125,790.5494384765625,788.5347900390625,790.952392578125
413,788.1318969726562,793.7728881835938,784.1025390625,785.3113403320312
414,786.5201416015625,799.010986328125,784.1025390625,778.4615478515625
415,785.3113403320312,796.1904907226562,785.3113403320312,780.0732421875
416,781.6849975585938,798.2051391601562,787.7289428710938,784.5054931640625
417,782.893798828125,806.2637329101562,788.5347900390625,793.7728881835938
418,779.6703491210938,803.040283203125,786.923095703125,792.5640869140625
419,783.2966918945312,799.8168334960938,784.1025390625,784.908447265625
420,789.7435913085938,803.4432373046875,787.7289428710938,791.3552856445312
421,796.1904907226562,803.4432373046875,794.5787353515625,794.981689453125
422,798.6080322265625,800.2197875976562,791.3552856445312,789.3406372070312
423,794.5787353515625,798.2051391601562,788.937744140625,788.5347900390625
424,789.7435913085938,794.981689453125,789.3406372070312,788.1318969726562
425,789.3406372070312,795.7875366210938,790.1465454101562,788.5347900390625
426,793.7728881835938,795.3846435546875,790.952392578125,789.7435913085938
427,792.1611938476562,794.1758422851562,788.937744140625,790.5494384765625
428,795.7875366210938,796.1904907226562,792.1611938476562,795.7875366210938
429,792.1611938476562,799.010986328125,790.952392578125,794.5787353515625
430,783.6996459960938,799.4139404296875,788.1318969726562,786.5201416015625
431,785.3113403320312,793.7728881835938,790.952392578125,788.5347900390625
432,784.908447265625,794.5787353515625,788.1318969726562,792.1611938476562
433,783.2966918945312,797.3992919921875,790.5494384765625,794.1758422851562
434,784.1025390625,796.1904907226562,791.3552856445312,792.1611938476562
435,785.7142944335938,793.3699340820312,788.1318969726562,789.3406372070312
436,785.3113403320312,792.5640869140625,791.3552856445312,787.3259887695312
437,791.3552856445312,795.3846435546875,795.7875366210938,789.3406372070312
438,798.2051391601562,793.7728881835938,798.6080322265625,791.7582397460938
439,790.952392578125,796.996337890625,796.1904907226562,790.952392578125
440,782.893798828125,796.996337890625,796.5933837890625,793.7728881835938
441,786.1171875,791.7582397460938,797.8021850585938,788.1318969726562
442,792.5640869140625,792.967041015625,795.3846435546875,784.5054931640625
443,793.7728881835938,796.1904907226562,797.3992919921875,790.5494384765625
444,794.981689453125,798.2051391601562,795.3846435546875,784.5054931640625
445,794.1758422851562,799.4139404296875,794.1758422851562,776.4468994140625
446,794.1758422851562,799.010986328125,795.3846435546875,781.2820434570312
447,801.4285888671875,794.5787353515625,795.7875366210938,788.5347900390625
448,799.8168334960938,793.7728881835938,790.1465454101562,788.5347900390625
449,796.1904907226562,796.1904907226562,783.6996459960938,787.7289428710938
450,798.2051391601562,792.1611938476562,786.5201416015625,784.908447265625
451,796.996337890625,792.967041015625,785.3113403320312,787.3259887695312
452,792.1611938476562,803.040283203125,785.3113403320312,788.1318969726562
453,794.5787353515625,801.4285888671875,786.5201416015625,778.4615478515625
454,800.2197875976562,797.3992919921875,787.7289428710938,779.6703491210938
455,786.1171875,795.3846435546875,787.3259887695312,778.4615478515625
456,780.879150390625,790.952392578125,787.7289428710938,778.4615478515625
457,789.3406372070312,788.5347900390625,790.5494384765625,787.7289428710938
458,790.5494384765625,789.7435913085938,792.1611938476562,787.7289428710938
459,784.908447265625,797.8021850585938,793.3699340820312,784.908447265625
460,778.8644409179688,799.010986328125,792.5640869140625,777.6557006835938
461,778.4615478515625,794.981689453125,786.923095703125,776.0439453125
462,785.7142944335938,794.5787353515625,784.908447265625,780.0732421875
463,789.7435913085938,794.5787353515625,792.1611938476562,785.7142944335938
464,785.7142944335938,795.3846435546875,790.1465454101562,783.6996459960938
465,786.1171875,792.967041015625,792.1611938476562,777.6557006835938
466,784.908447265625,787.3259887695312,792.967041015625,780.0732421875
467,776.4468994140625,784.5054931640625,787.7289428710938,778.4615478515625
468,787.3259887695312,787.7289428710938,788.937744140625,776.4468994140625
469,792.1611938476562,787.7289428710938,786.1171875,776.0439453125
470,780.879150390625,786.923095703125,784.908447265625,777.6557006835938
471,784.5054931640625,787.3259887695312,788.5347900390625,778.8644409179688
472,791.7582397460938,792.5640869140625,790.952392578125,784.908447265625
473,790.952392578125,796.5933837890625,787.7289428710938,786.5201416015625
474,792.967041015625,796.996337890625,785.3113403320312,792.1611938476562
475,799.4139404296875,795.7875366210938,786.1171875,800.6226806640625
476,797.8021850585938,793.3699340820312,789.7435913085938,791.7582397460938
477,796.5933837890625,792.5640869140625,793.7728881835938,794.1758422851562
478,797.8021850585938,793.3699340820312,791.3552856445312,796.1904907226562
479,798.2051391601562,798.6080322265625,790.5494384765625,790.5494384765625
480,801.4285888671875,799.4139404296875,796.996337890625,799.010986328125
481,797.8021850585938,797.3992919921875,799.4139404296875,801.025634765625
482,790.952392578125,796.996337890625,798.2051391601562,796.1904907226562
483,791.3552856445312,797.3992919921875,798.2051391601562,795.3846435546875
484,792.967041015625,796.996337890625,796.996337890625,794.981689453125
485,798.2051391601562,796.5933837890625,802.2344360351562,796.1904907226562
486,796.996337890625,795.3846435546875,803.8461303710938,790.952392578125
487,799.8168334960938,799.8168334960938,803.8461303710938,787.7289428710938
488,809.084228515625,800.2197875976562,804.6520385742188,788.1318969726562
489,812.7106323242188,797.8021850585938,798.6080322265625,786.923095703125
490,801.025634765625,795.7875366210938,794.5787353515625,793.3699340820312
491,790.5494384765625,797.3992919921875,799.8168334960938,798.2051391601562
492,790.1465454101562,799.8168334960938,801.4285888671875,792.1611938476562
493,790.1465454101562,798.2051391601562,797.8021850585938,790.1465454101562
494,794.5787353515625,800.6226806640625,797.3992919921875,791.7582397460938
495,800.2197875976562,801.4285888671875,799.4139404296875,795.7875366210938
496,803.4432373046875,799.8168334960938,803.8461303710938,802.2344360351562
497,798.6080322265625,794.981689453125,802.6373901367188,799.8168334960938
498,799.4139404296875,794.5787353515625,801.025634765625,799.4139404296875
499,799.010986328125,798.2051391601562,802.6373901367188,802.6373901367188
500,800.2197875976562,796.5933837890625,801.4285888671875,794.5787353515625
501,799.4139404296875,794.5787353515625,800.6226806640625,798.6080322265625
502,795.3846435546875,795.3846435546875,799.4139404296875,803.8461303710938
503,798.6080322265625,797.3992919921875,799.4139404296875,798.2051391601562
504,804.2490844726562,796.996337890625,801.025634765625,799.010986328125
505,807.87548828125,798.2051391601562,799.010986328125,799.010986328125
506,800.6226806640625,797.8021850585938,793.7728881835938,796.1904907226562
507,796.996337890625,790.952392578125,793.7728881835938,797.8021850585938
508,799.4139404296875,788.5347900390625,796.996337890625,798.6080322265625
509,792.1611938476562,790.952392578125,795.3846435546875,794.1758422851562
510,784.1025390625,796.5933837890625,792.1611938476562,790.5494384765625
511,786.923095703125,795.7875366210938,791.7582397460938,783.2966918945312
512,793.7728881835938,795.3846435546875,792.967041015625,780.0732421875
513,795.7875366210938,797.8021850585938,792.967041015625,785.7142944335938
514,788.937744140625,797.8021850585938,794.1758422851562,783.2966918945312
515,788.937744140625,794.981689453125,795.7875366210938,779.2673950195312
516,792.967041015625,792.1611938476562,797.8021850585938,782.4908447265625
517,787.3259887695312,789.3406372070312,797.3992919921875,779.6703491210938
518,790.1465454101562,788.5347900390625,794.1758422851562,777.6557006835938
519,792.967041015625,790.1465454101562,792.967041015625,776.0439453125
520,787.3259887695312,787.7289428710938,792.967041015625,778.05859375
521,783.6996459960938,792.1611938476562,792.5640869140625,782.087890625
522,782.4908447265625,797.3992919921875,793.3699340820312,782.087890625
523,789.3406372070312,791.7582397460938,792.1611938476562,782.4908447265625
524,790.5494384765625,790.5494384765625,790.1465454101562,790.1465454101562
525,786.5201416015625,794.981689453125,796.996337890625,794.981689453125
526,786.1171875,794.5787353515625,793.7728881835938,788.1318969726562
527,787.3259887695312,790.5494384765625,792.5640869140625,786.5201416015625
528,786.1171875,789.7435913085938,797.8021850585938,785.7142944335938
529,790.5494384765625,797.8021850585938,796.5933837890625,786.923095703125
530,797.8021850585938,799.4139404296875,799.4139404296875,790.1465454101562
531,789.7435913085938,796.5933837890625,801.025634765625,786.1171875
532,788.5347900390625,794.981689453125,801.4285888671875,788.1318969726562
533,789.7435913085938,795.7875366210938,799.8168334960938,794.981689453125
534,785.7142944335938,796.996337890625,795.3846435546875,786.923095703125
535,783.2966918945312,793.7728881835938,790.5494384765625,781.6849975585938
536,785.7142944335938,796.996337890625,791.3552856445312,792.5640869140625
537,779.6703491210938,795.3846435546875,791.3552856445312,792.5640869140625
538,780.0732421875,792.967041015625,788.1318969726562,786.1171875
539,791.7582397460938,798.6080322265625,794.981689453125,792.1611938476562
540,791.7582397460938,798.2051391601562,796.1904907226562,794.1758422851562
541,787.7289428710938,791.7582397460938,792.5640869140625,790.952392578125
542,782.087890625,792.5640869140625,795.3846435546875,786.5201416015625
543,791.3552856445312,799.010986328125,799.010986328125,791.7582397460938
544,795.7875366210938,799.010986328125,799.010986328125,794.981689453125
545,791.7582397460938,793.3699340820312,795.3846435546875,790.952392578125
546,794.5787353515625,794.1758422851562,793.7728881835938,794.5787353515625
547,791.3552856445312,793.7728881835938,799.8168334960938,803.4432373046875
548,793.3699340820312,791.3552856445312,805.054931640625,803.8461303710938
549,793.7728881835938,794.1758422851562,805.4578857421875,800.6226806640625
550,791.7582397460938,794.981689453125,806.6666870117188,803.4432373046875
551,794.5787353515625,795.3846435546875,807.87548828125,803.040283203125
552,794.1758422851562,794.981689453125,803.4432373046875,798.6080322265625
553,793.7728881835938,796.5933837890625,800.6226806640625,798.6080322265625
554,799.010986328125,796.1904907226562,799.8168334960938,805.054931640625
555,797.3992919921875,794.981689453125,801.8314819335938,804.2490844726562
556,794.981689453125,790.952392578125,803.4432373046875,796.996337890625
557,794.1758422851562,789.3406372070312,800.2197875976562,792.967041015625
558,790.952392578125,795.3846435546875,805.4578857421875,797.3992919921875
559,788.1318969726562,794.981689453125,809.084228515625,801.8314819335938
560,785.7142944335938,797.3992919921875,803.4432373046875,798.6080322265625
561,790.5494384765625,800.6226806640625,799.8168334960938,798.2051391601562
562,795.7875366210938,795.7875366210938,797.8021850585938,798.6080322265625
563,797.8021850585938,792.5640869140625,799.010986328125,802.6373901367188
564,795.7875366210938,795.7875366210938,800.2197875976562,801.025634765625
565,791.3552856445312,791.3552856445312,802.2344360351562,794.1758422851562
566,794.1758422851562,790.5494384765625,802.6373901367188,799.4139404296875
567,796.996337890625,794.5787353515625,800.2197875976562,807.069580078125
568,796.5933837890625,792.967041015625,800.6226806640625,798.6080322265625
569,794.1758422851562,788.1318969726562,799.8168334960938,791.3552856445312
570,790.1465454101562,790.1465454101562,800.6226806640625,794.1758422851562
571,791.3552856445312,797.8021850585938,801.4285888671875,794.981689453125
572,790.952392578125,796.1904907226562,800.2197875976562,793.7728881835938
573,788.1318969726562,795.7875366210938,796.996337890625,790.952392578125
574,787.7289428710938,799.010986328125,793.7728881835938,790.952392578125
575,783.6996459960938,796.996337890625,793.3699340820312,788.5347900390625
576,784.908447265625,792.967041015625,794.5787353515625,784.5054931640625
577,798.2051391601562,789.7435913085938,796.5933837890625,788.1318969726562
578,801.4285888671875,790.1465454101562,797.3992919921875,788.937744140625
579,793.7728881835938,794.1758422851562,800.2197875976562,784.5054931640625
580,791.7582397460938,794.5787353515625,799.4139404296875,784.1025390625
581,801.4285888671875,796.1904907226562,798.6080322265625,791.7582397460938
582,800.6226806640625,799.8168334960938,794.981689453125,792.5640869140625
583,788.937744140625,799.4139404296875,796.996337890625,790.952392578125
584,782.087890625,801.4285888671875,801.025634765625,792.1611938476562
585,782.4908447265625,796.1904907226562,803.040283203125,799.4139404296875
586,788.1318969726562,791.3552856445312,802.2344360351562,805.054931640625
587,781.6849975585938,796.996337890625,794.1758422851562,791.7582397460938
588,780.879150390625,796.5933837890625,789.3406372070312,787.3259887695312
589,791.3552856445312,799.010986328125,794.1758422851562,795.7875366210938
590,788.937744140625,799.4139404296875,796.1904907226562,791.3552856445312
591,786.5201416015625,794.5787353515625,794.981689453125,785.3113403320312
592,788.937744140625,795.3846435546875,794.1758422851562,791.7582397460938
593,787.7289428710938,794.981689453125,797.8021850585938,792.967041015625
594,783.6996459960938,793.7728881835938,800.6226806640625,793.7728881835938
595,776.0439453125,794.5787353515625,798.2051391601562,790.1465454101562
596,784.908447265625,797.3992919921875,800.6226806640625,790.952392578125
597,794.981689453125,801.8314819335938,805.054931640625,803.4432373046875
598,789.3406372070312,803.040283203125,805.8607788085938,802.2344360351562
599,791.7582397460938,801.8314819335938,807.87548828125,797.8021850585938
600,798.2051391601562,803.8461303710938,804.6520385742188,798.2051391601562
601,798.6080322265625,805.8607788085938,803.8461303710938,795.7875366210938
602,796.996337890625,805.054931640625,805.054931640625,793.7728881835938
603,786.923095703125,801.8314819335938,801.4285888671875,788.937744140625
604,781.6849975585938,796.5933837890625,801.8314819335938,790.5494384765625
605,782.4908447265625,798.2051391601562,798.2051391601562,794.1758422851562
606,786.5201416015625,799.4139404296875,794.981689453125,792.1611938476562
607,796.5933837890625,797.3992919921875,800.2197875976562,790.5494384765625
608,804.2490844726562,796.1904907226562,801.8314819335938,796.5933837890625
609,799.8168334960938,795.3846435546875,801.025634765625,804.6520385742188
610,788.1318969726562,792.967041015625,796.996337890625,795.3846435546875
611,792.1611938476562,793.7728881835938,798.2051391601562,792.1611938476562
612,793.3699340820312,794.5787353515625,797.3992919921875,794.981689453125
613,788.1318969726562,792.5640869140625,792.967041015625,788.5347900390625
614,791.3552856445312,789.3406372070312,791.3552856445312,787.7289428710938
615,794.1758422851562,789.3406372070312,788.5347900390625,787.3259887695312
616,789.3406372070312,790.5494384765625,790.1465454101562,787.7289428710938
617,784.5054931640625,794.981689453125,796.1904907226562,792.5640869140625
618,785.7142944335938,792.967041015625,795.7875366210938,791.7582397460938
619,783.2966918945312,789.3406372070312,794.1758422851562,786.5201416015625
620,783.2966918945312,793.7728881835938,792.967041015625,788.5347900390625
621,789.3406372070312,799.010986328125,791.3552856445312,796.1904907226562
622,790.5494384765625,797.3992919921875,792.1611938476562,790.952392578125
623,791.3552856445312,794.1758422851562,794.1758422851562,789.3406372070312
624,787.3259887695312,794.1758422851562,795.3846435546875,788.1318969726562
625,784.908447265625,793.3699340820312,796.996337890625,786.923095703125
626,787.7289428710938,796.996337890625,800.6226806640625,794.1758422851562
627,786.5201416015625,794.981689453125,796.1904907226562,797.8021850585938
628,782.4908447265625,789.3406372070312,790.5494384765625,791.7582397460938
629,782.087890625,800.2197875976562,791.3552856445312,791.3552856445312
630,781.2820434570312,796.996337890625,789.3406372070312,792.1611938476562
631,784.1025390625,789.3406372070312,786.1171875,788.5347900390625
632,794.1758422851562,794.981689453125,789.7435913085938,793.7728881835938
633,795.3846435546875,797.3992919921875,789.7435913085938,793.3699340820312
634,788.937744140625,792.5640869140625,791.3552856445312,785.3113403320312
635,788.1318969726562,789.7435913085938,792.967041015625,786.5201416015625
636,788.937744140625,789.3406372070312,790.952392578125,788.5347900390625
637,790.5494384765625,792.967041015625,792.5640869140625,786.5201416015625
638,790.952392578125,790.952392578125,795.7875366210938,783.2966918945312
639,790.952392578125,784.908447265625,795.3846435546875,784.1025390625
640,787.7289428710938,791.3552856445312,796.5933837890625,788.5347900390625
641,782.087890625,787.3259887695312,794.981689453125,790.1465454101562
642,785.7142944335938,781.6849975585938,791.3552856445312,789.7435913085938
643,794.5787353515625,782.893798828125,792.5640869140625,796.5933837890625
644,792.5640869140625,785.7142944335938,794.5787353515625,802.6373901367188
645,792.5640869140625,790.5494384765625,798.2051391601562,796.1904907226562
646,799.010986328125,788.5347900390625,802.2344360351562,795.7875366210938
647,796.5933837890625,786.923095703125,799.4139404296875,797.3992919921875
648,792.5640869140625,784.908447265625,794.981689453125,793.3699340820312
649,792.967041015625,788.1318969726562,797.3992919921875,792.967041015625
650,795.7875366210938,790.5494384765625,799.010986328125,794.1758422851562
651,797.3992919921875,787.3259887695312,799.010986328125,789.7435913085938
652,796.5933837890625,786.5201416015625,798.2051391601562,783.2966918945312
653,789.7435913085938,786.1171875,794.5787353515625,782.893798828125
654,790.5494384765625,784.1025390625,794.5787353515625,784.1025390625
655,796.996337890625,788.1318969726562,799.8168334960938,791.7582397460938
656,788.937744140625,790.952392578125,799.8168334960938,792.1611938476562
657,786.1171875,788.937744140625,793.7728881835938,785.7142944335938
658,793.3699340820312,787.7289428710938,795.7875366210938,790.5494384765625
659,796.5933837890625,792.967041015625,798.2051391601562,796.5933837890625
660,790.952392578125,797.8021850585938,798.2051391601562,790.952392578125
661,786.5201416015625,792.5640869140625,797.3992919921875,784.908447265625
662,788.5347900390625,797.8021850585938,796.5933837890625,789.3406372070312
663,791.7582397460938,796.1904907226562,796.996337890625,792.967041015625
664,791.7582397460938,794.5787353515625,798.2051391601562,791.7582397460938
665,795.7875366210938,797.3992919921875,802.2344360351562,791.7582397460938
666,791.7582397460938,791.7582397460938,793.3699340820312,789.3406372070312
667,787.7289428710938,789.7435913085938,786.923095703125,786.923095703125
668,792.1611938476562,790.952392578125,790.5494384765625,789.3406372070312
669,788.1318969726562,785.3113403320312,788.5347900390625,786.923095703125
670,784.908447265625,784.908447265625,790.5494384765625,788.5347900390625
671,782.4908447265625,791.3552856445312,796.996337890625,792.5640869140625
672,782.087890625,790.952392578125,793.3699340820312,786.5201416015625
673,788.1318969726562,794.981689453125,792.5640869140625,788.1318969726562
674,788.5347900390625,798.2051391601562,796.5933837890625,793.3699340820312
675,786.5201416015625,793.7728881835938,794.1758422851562,791.3552856445312
676,788.1318969726562,792.5640869140625,792.1611938476562,790.5494384765625
677,790.952392578125,797.3992919921875,795.3846435546875,793.7728881835938
678,797.8021850585938,797.3992919921875,796.5933837890625,797.8021850585938
679,799.8168334960938,800.6226806640625,800.2197875976562,803.8461303710938
680,794.981689453125,799.4139404296875,798.2051391601562,795.3846435546875
681,802.2344360351562,802.6373901367188,801.025634765625,796.1904907226562
682,803.8461303710938,809.89013671875,811.90478515625,802.2344360351562
683,790.1465454101562,801.025634765625,800.2197875976562,790.5494384765625
684,789.7435913085938,802.2344360351562,799.010986328125,784.5054931640625
685,784.908447265625,805.4578857421875,796.1904907226562,779.2673950195312
686,778.4615478515625,807.4725341796875,788.1318969726562,774.029296875
687,773.2234497070312,816.7399291992188,792.5640869140625,762.3442993164062
688,766.3735961914062,829.2307739257812,794.1758422851562,756.3003540039062
689,764.7619018554688,840.915771484375,805.8607788085938,753.8828125
690,754.2857055664062,846.1538696289062,801.8314819335938,740.5860595703125
691,736.1538696289062,846.5567626953125,788.937744140625,729.7069702148438
692,716.4102783203125,843.7362670898438,793.3699340820312,713.1868286132812
693,701.098876953125,845.3479614257812,801.4285888671875,705.5311279296875
694,682.5640869140625,850.989013671875,799.4139404296875,689.8168334960938
695,672.087890625,863.8828125,792.967041015625,669.2673950195312
696,670.0732421875,860.6593627929688,790.952392578125,665.2380981445312
697,666.0439453125,857.8388061523438,787.7289428710938,666.8497924804688
698,664.029296875,861.062255859375,783.2966918945312,669.6703491210938
699,662.0146484375,856.6300659179688,782.4908447265625,662.0146484375
700,660.0,856.6300659179688,786.1171875,652.3442993164062
701,671.6849975585938,858.6447143554688,782.893798828125,661.2088012695312
702,685.3846435546875,859.8534545898438,781.2820434570312,673.2966918945312
703,689.8168334960938,857.4359130859375,788.937744140625,678.1318969726562
704,687.8021850585938,850.5860595703125,794.981689453125,684.1758422851562
705,686.5933837890625,849.7802124023438,799.4139404296875,689.010986328125
706,689.8168334960938,853.8095092773438,801.025634765625,690.2197875976562
707,702.3076782226562,855.4212646484375,795.7875366210938,699.084228515625
708,722.8571166992188,851.3919677734375,791.3552856445312,720.4395751953125
709,741.3919677734375,844.945068359375,790.952392578125,739.7802124023438
710,745.018310546875,841.3186645507812,792.1611938476562,746.2271118164062
711,740.1831665039062,832.8571166992188,794.1758422851562,745.8241577148438
712,747.4359130859375,821.5750732421875,790.1465454101562,753.076904296875
713,765.1648559570312,818.3516235351562,790.952392578125,768.3883056640625
714,777.6557006835938,817.1428833007812,792.5640869140625,783.6996459960938
715,778.05859375,805.8607788085938,793.3699340820312,782.4908447265625
716,780.0732421875,794.981689453125,797.8021850585938,783.2966918945312
717,785.3113403320312,794.5787353515625,795.3846435546875,795.3846435546875
718,793.3699340820312,792.1611938476562,790.5494384765625,798.2051391601562
719,807.87548828125,792.5640869140625,796.5933837890625,809.084228515625
720,813.91943359375,792.967041015625,796.996337890625,813.91943359375
721,815.1282348632812,786.923095703125,790.952392578125,805.8607788085938
722,815.1282348632812,781.2820434570312,792.967041015625,805.8607788085938
723,820.7692260742188,774.8351440429688,793.3699340820312,821.5750732421875
724,823.99267578125,775.6410522460938,799.010986328125,834.4688720703125
725,821.5750732421875,780.879150390625,803.4432373046875,828.02197265625
726,830.03662109375,778.4615478515625,801.025634765625,823.1868286132812
727,837.6923217773438,775.2380981445312,796.1904907226562,830.03662109375
728,839.7069702148438,774.029296875,793.3699340820312,844.5421142578125
729,842.930419921875,773.2234497070312,792.1611938476562,847.3626098632812
730,847.7655639648438,774.4322509765625,793.3699340820312,841.7216186523438
731,843.3333129882812,774.8351440429688,794.1758422851562,837.2893676757812
732,839.7069702148438,770.4029541015625,790.952392578125,828.02197265625
733,844.5421142578125,764.7619018554688,790.5494384765625,831.2454223632812
734,844.945068359375,767.5823974609375,791.7582397460938,834.8717651367188
735,845.7509155273438,773.2234497070312,792.1611938476562,836.4835205078125
736,851.7948608398438,777.2527465820312,799.010986328125,846.5567626953125
737,852.6007080078125,780.0732421875,802.2344360351562,850.1831665039062
738,845.3479614257812,776.4468994140625,799.8168334960938,844.1392211914062
739,840.915771484375,777.6557006835938,799.4139404296875,842.12451171875
740,839.3040161132812,778.05859375,796.5933837890625,842.5274658203125
741,839.3040161132812,772.0146484375,799.4139404296875,834.4688720703125
742,839.3040161132812,773.2234497070312,803.8461303710938,832.4542236328125
743,833.2600708007812,773.6264038085938,801.4285888671875,835.6776733398438
744,831.6483764648438,768.7911987304688,799.010986328125,832.4542236328125
745,836.08056640625,771.6116943359375,799.4139404296875,828.02197265625
746,830.4395751953125,772.8204956054688,799.4139404296875,826.8131713867188
747,825.6043701171875,768.7911987304688,797.8021850585938,827.6190185546875
748,826.4102783203125,767.1795043945312,797.3992919921875,826.8131713867188
749,827.2161254882812,767.5823974609375,796.1904907226562,824.7985229492188
750,830.4395751953125,772.4176025390625,797.8021850585938,826.8131713867188
751,824.7985229492188,774.029296875,803.040283203125,830.4395751953125
752,819.1575317382812,776.0439453125,802.2344360351562,830.8424682617188
753,821.1721801757812,778.05859375,800.2197875976562,824.7985229492188
754,821.1721801757812,770.0,801.4285888671875,823.99267578125
755,826.8131713867188,766.3735961914062,803.4432373046875,830.03662109375
756,824.3956298828125,771.6116943359375,802.6373901367188,825.6043701171875
757,811.90478515625,774.4322509765625,794.5787353515625,817.5457763671875
758,813.113525390625,775.6410522460938,791.7582397460938,821.97802734375
759,822.7838745117188,782.893798828125,794.981689453125,825.2014770507812
760,817.1428833007812,779.6703491210938,792.5640869140625,819.1575317382812
761,810.6959838867188,776.4468994140625,788.937744140625,817.94873046875
762,811.098876953125,780.879150390625,790.952392578125,818.3516235351562
763,810.6959838867188,780.879150390625,792.967041015625,821.5750732421875
764,814.3223266601562,785.3113403320312,793.7728881835938,826.4102783203125
765,819.96337890625,784.5054931640625,793.7728881835938,823.5897216796875
766,816.7399291992188,783.2966918945312,796.1904907226562,820.3662719726562
767,812.3076782226562,789.3406372070312,798.2051391601562,818.7545776367188
768,812.7106323242188,790.1465454101562,794.5787353515625,817.1428833007812
769,811.90478515625,786.1171875,792.1611938476562,812.7106323242188
770,816.3369750976562,785.7142944335938,795.3846435546875,814.7252807617188
771,819.5604248046875,790.952392578125,801.4285888671875,817.1428833007812
772,815.1282348632812,790.5494384765625,804.2490844726562,809.4871826171875
773,814.7252807617188,786.1171875,803.4432373046875,805.054931640625
774,812.3076782226562,787.7289428710938,799.010986328125,802.2344360351562
775,810.2930297851562,788.5347900390625,801.025634765625,801.4285888671875
776,811.90478515625,783.2966918945312,803.4432373046875,798.2051391601562
777,807.4725341796875,782.4908447265625,799.010986328125,798.2051391601562
778,805.054931640625,788.5347900390625,796.996337890625,804.6520385742188
779,802.2344360351562,792.1611938476562,798.2051391601562,803.8461303710938
780,800.2197875976562,790.1465454101562,798.2051391601562,803.040283203125
781,801.8314819335938,783.6996459960938,792.967041015625,800.6226806640625
782,796.996337890625,784.5054931640625,791.3552856445312,795.7875366210938
783,799.010986328125,785.7142944335938,794.5787353515625,796.996337890625
784,801.8314819335938,779.6703491210938,793.7728881835938,797.8021850585938
785,803.8461303710938,780.4761962890625,792.5640869140625,805.054931640625
786,804.2490844726562,784.908447265625,791.7582397460938,809.4871826171875
787,799.010986328125,789.3406372070312,791.3552856445312,799.8168334960938
788,801.4285888671875,789.7435913085938,793.3699340820312,802.2344360351562
789,806.6666870117188,786.1171875,797.3992919921875,806.6666870117188
790,801.8314819335938,788.5347900390625,794.981689453125,800.6226806640625
791,797.3992919921875,788.937744140625,793.3699340820312,796.5933837890625
792,796.996337890625,788.5347900390625,794.981689453125,797.8021850585938
793,797.8021850585938,789.3406372070312,792.5640869140625,796.1904907226562
794,801.4285888671875,788.5347900390625,793.3699340820312,796.5933837890625
795,801.025634765625,787.3259887695312,794.5787353515625,796.5933837890625
796,793.3699340820312,783.2966918945312,793.7728881835938,791.3552856445312
797,790.5494384765625,779.6703491210938,794.5787353515625,794.5787353515625
798,794.1758422851562,782.4908447265625,799.4139404296875,800.2197875976562
799,798.2051391601562,785.7142944335938,798.2051391601562,796.5933837890625
800,804.2490844726562,785.3113403320312,791.3552856445312,792.967041015625
801,801.025634765625,785.7142944335938,791.3552856445312,797.8021850585938
802,798.2051391601562,786.1171875,796.1904907226562,797.3992919921875
803,796.5933837890625,790.952392578125,795.7875366210938,796.996337890625
804,800.2197875976562,792.967041015625,795.3846435546875,808.2783813476562
805,801.4285888671875,793.7728881835938,797.8021850585938,800.2197875976562
806,796.996337890625,799.010986328125,797.8021850585938,790.1465454101562
807,799.4139404296875,797.3992919921875,792.5640869140625,794.1758422851562
808,797.3992919921875,795.7875366210938,793.3699340820312,801.4285888671875
809,794.5787353515625,796.996337890625,794.981689453125,801.025634765625
810,793.7728881835938,792.967041015625,795.3846435546875,800.2197875976562
811,786.923095703125,792.5640869140625,795.7875366210938,794.981689453125
812,784.5054931640625,794.981689453125,792.967041015625,791.7582397460938
813,786.1171875,791.7582397460938,793.7728881835938,792.5640869140625
814,784.5054931640625,790.5494384765625,795.3846435546875,790.1465454101562
815,782.893798828125,788.937744140625,791.3552856445312,789.7435913085938
816,784.5054931640625,784.1025390625,788.1318969726562,786.5201416015625
817,783.6996459960938,783.6996459960938,788.1318969726562,784.908447265625
818,785.3113403320312,787.3259887695312,791.7582397460938,791.3552856445312
819,786.923095703125,789.7435913085938,795.7875366210938,794.5787353515625
820,782.4908447265625,790.952392578125,797.8021850585938,794.981689453125
821,787.3259887695312,788.5347900390625,797.3992919921875,799.8168334960938
822,800.6226806640625,792.5640869140625,801.025634765625,804.2490844726562
823,801.025634765625,796.5933837890625,801.4285888671875,806.2637329101562
824,796.5933837890625,790.1465454101562,800.2197875976562,808.2783813476562
825,797.3992919921875,785.3113403320312,801.8314819335938,803.040283203125
826,796.5933837890625,788.5347900390625,804.6520385742188,800.6226806640625
827,790.5494384765625,792.5640869140625,802.2344360351562,801.025634765625
828,795.3846435546875,792.967041015625,799.8168334960938,799.4139404296875
829,797.3992919921875,792.967041015625,798.2051391601562,798.6080322265625
830,789.7435913085938,792.5640869140625,794.5787353515625,798.6080322265625
831,790.952392578125,789.7435913085938,793.3699340820312,801.4285888671875
832,791.7582397460938,789.7435913085938,792.967041015625,800.6226806640625
833,795.3846435546875,789.3406372070312,796.996337890625,801.025634765625
834,797.8021850585938,787.3259887695312,793.7728881835938,799.4139404296875
835,801.025634765625,791.7582397460938,795.3846435546875,808.6813354492188
836,801.025634765625,796.996337890625,798.6080322265625,807.87548828125
837,798.6080322265625,794.981689453125,792.1611938476562,793.3699340820312
838,805.4578857421875,794.5787353515625,789.3406372070312,791.7582397460938
839,801.4285888671875,801.025634765625,789.7435913085938,788.5347900390625
840,799.010986328125,803.040283203125,793.3699340820312,792.1611938476562
841,799.4139404296875,800.6226806640625,794.1758422851562,799.010986328125
842,802.6373901367188,801.025634765625,795.3846435546875,799.8168334960938
843,796.996337890625,798.2051391601562,796.996337890625,795.3846435546875
844,787.3259887695312,794.5787353515625,799.8168334960938,790.952392578125
845,791.7582397460938,793.3699340820312,797.8021850585938,788.937744140625
846,794.1758422851562,795.7875366210938,794.981689453125,788.937744140625
847,794.5787353515625,802.2344360351562,796.1904907226562,795.3846435546875
848,797.8021850585938,800.6226806640625,795.7875366210938,795.7875366210938
849,803.040283203125,796.1904907226562,799.010986328125,791.3552856445312
850,805.054931640625,802.2344360351562,799.4139404296875,790.952392578125
851,805.054931640625,799.4139404296875,794.1758422851562,790.952392578125
852,803.8461303710938,792.5640869140625,787.7289428710938,790.1465454101562
853,796.5933837890625,791.3552856445312,781.6849975585938,789.7435913085938
854,798.6080322265625,789.3406372070312,782.087890625,790.5494384765625
855,797.3992919921875,784.1025390625,787.7289428710938,790.1465454101562
856,790.1465454101562,780.879150390625,790.1465454101562,792.967041015625
857,789.3406372070312,786.923095703125,792.1611938476562,791.7582397460938
858,786.923095703125,786.923095703125,796.5933837890625,790.1465454101562
859,785.3113403320312,788.937744140625,798.2051391601562,793.3699340820312
860,788.1318969726562,794.981689453125,795.7875366210938,792.5640869140625
861,789.3406372070312,796.5933837890625,794.5787353515625,791.3552856445312
862,794.5787353515625,790.5494384765625,794.1758422851562,792.5640869140625
863,792.967041015625,788.1318969726562,791.3552856445312,791.3552856445312
864,782.4908447265625,794.981689453125,792.5640869140625,786.5201416015625
865,783.2966918945312,792.5640869140625,794.5787353515625,780.0732421875
866,789.7435913085938,787.7289428710938,794.5787353515625,782.4908447265625
867,793.3699340820312,793.3699340820312,797.3992919921875,789.3406372070312
868,793.3699340820312,795.7875366210938,795.7875366210938,788.937744140625
869,793.7728881835938,791.3552856445312,793.7728881835938,790.952392578125
870,794.981689453125,786.923095703125,796.996337890625,798.2051391601562
871,802.6373901367188,791.3552856445312,797.3992919921875,795.7875366210938
872,805.054931640625,794.5787353515625,795.3846435546875,790.952392578125
873,801.025634765625,790.5494384765625,791.3552856445312,793.3699340820312
874,794.5787353515625,788.1318969726562,789.7435913085938,786.923095703125
875,782.893798828125,788.1318969726562,790.952392578125,778.8644409179688
876,779.2673950195312,790.5494384765625,788.937744140625,782.087890625
877,785.7142944335938,797.3992919921875,786.923095703125,788.5347900390625
878,786.1171875,799.8168334960938,786.5201416015625,784.908447265625
879,777.6557006835938,794.5787353515625,787.3259887695312,782.087890625
880,777.6557006835938,790.5494384765625,791.7582397460938,786.923095703125
881,786.1171875,794.5787353515625,792.967041015625,789.3406372070312
882,790.952392578125,797.3992919921875,792.1611938476562,790.1465454101562
883,789.7435913085938,793.7728881835938,791.3552856445312,785.7142944335938
884,786.923095703125,788.937744140625,788.1318969726562,780.879150390625
885,789.7435913085938,788.5347900390625,789.3406372070312,781.6849975585938
886,792.5640869140625,788.937744140625,793.7728881835938,782.4908447265625
887,788.5347900390625,789.3406372070312,793.7728881835938,777.2527465820312
888,786.1171875,790.1465454101562,793.3699340820312,775.2380981445312
889,785.7142944335938,791.7582397460938,795.7875366210938,777.2527465820312
890,788.5347900390625,795.3846435546875,795.3846435546875,783.6996459960938
891,786.923095703125,792.967041015625,791.7582397460938,783.2966918945312
892,782.087890625,788.1318969726562,790.5494384765625,779.2673950195312
893,785.3113403320312,786.923095703125,792.1611938476562,782.4908447265625
894,778.8644409179688,784.908447265625,792.967041015625,782.893798828125
895,773.6264038085938,782.087890625,792.967041015625,778.4615478515625
896,778.05859375,781.6849975585938,792.967041015625,777.2527465820312
897,780.0732421875,780.0732421875,789.3406372070312,788.1318969726562
898,784.908447265625,785.7142944335938,786.1171875,789.7435913085938
899,785.3113403320312,786.923095703125,787.7289428710938,784.5054931640625
900,779.2673950195312,787.7289428710938,791.3552856445312,781.6849975585938
901,776.4468994140625,791.7582397460938,790.952392578125,783.2966918945312
902,779.2673950195312,784.1025390625,789.3406372070312,786.5201416015625
903,782.893798828125,782.893798828125,790.5494384765625,789.3406372070312
904,782.893798828125,792.1611938476562,792.5640869140625,794.1758422851562
905,782.893798828125,793.3699340820312,792.1611938476562,790.5494384765625
906,779.2673950195312,788.5347900390625,794.5787353515625,786.923095703125
907,778.8644409179688,789.7435913085938,797.8021850585938,788.5347900390625
908,786.5201416015625,788.937744140625,796.1904907226562,796.996337890625
909,789.3406372070312,790.5494384765625,796.1904907226562,796.1904907226562
910,789.3406372070312,796.1904907226562,802.2344360351562,790.5494384765625
911,794.5787353515625,795.3846435546875,802.6373901367188,791.3552856445312
912,796.5933837890625,796.996337890625,803.4432373046875,795.7875366210938
913,789.7435913085938,802.2344360351562,805.8607788085938,798.2051391601562
914,788.1318969726562,797.8021850585938,797.8021850585938,789.7435913085938
915,791.3552856445312,794.5787353515625,792.5640869140625,787.7289428710938
916,788.1318969726562,796.996337890625,796.1904907226562,790.1465454101562
917,791.3552856445312,792.967041015625,795.7875366210938,788.937744140625
918,799.8168334960938,789.7435913085938,796.996337890625,790.952392578125
919,801.4285888671875,791.3552856445312,796.996337890625,792.5640869140625
920,798.6080322265625,788.1318969726562,796.1904907226562,795.7875366210938
921,795.7875366210938,785.7142944335938,794.981689453125,794.1758422851562
922,794.981689453125,790.5494384765625,790.1465454101562,790.952392578125
923,794.5787353515625,786.923095703125,787.7289428710938,792.1611938476562
924,794.1758422851562,781.6849975585938,787.3259887695312,793.3699340820312
925,792.967041015625,791.7582397460938,788.937744140625,798.2051391601562
926,797.8021850585938,799.8168334960938,790.1465454101562,803.040283203125
927,800.2197875976562,796.1904907226562,790.952392578125,803.8461303710938
928,799.4139404296875,793.3699340820312,791.7582397460938,802.6373901367188
929,800.2197875976562,792.1611938476562,792.1611938476562,802.6373901367188
930,800.6226806640625,790.5494384765625,791.3552856445312,798.6080322265625
931,800.2197875976562,792.5640869140625,790.1465454101562,799.8168334960938
932,799.8168334960938,792.1611938476562,785.7142944335938,800.2197875976562
933,797.8021850585938,793.7728881835938,786.1171875,787.3259887695312
934,790.952392578125,798.2051391601562,792.5640869140625,782.4908447265625
935,784.5054931640625,797.3992919921875,793.7728881835938,777.6557006835938
936,780.879150390625,796.1904907226562,793.7728881835938,772.8204956054688
937,785.7142944335938,793.3699340820312,796.1904907226562,778.4615478515625
938,795.7875366210938,795.3846435546875,793.7728881835938,787.7289428710938
939,799.4139404296875,794.5787353515625,794.981689453125,791.7582397460938
940,785.7142944335938,785.7142944335938,801.4285888671875,786.923095703125
941,774.029296875,781.2820434570312,800.2197875976562,777.2527465820312
942,778.4615478515625,787.3259887695312,796.996337890625,776.0439453125
943,786.1171875,792.5640869140625,795.7875366210938,779.6703491210938
944,788.937744140625,788.5347900390625,791.7582397460938,789.3406372070312
945,789.7435913085938,788.1318969726562,789.3406372070312,793.3699340820312
946,793.3699340820312,787.7289428710938,791.3552856445312,794.981689453125
947,790.1465454101562,788.1318969726562,790.952392578125,795.3846435546875
948,787.3259887695312,786.923095703125,787.3259887695312,793.7728881835938
949,793.3699340820312,783.6996459960938,786.1171875,794.1758422851562
950,794.1758422851562,778.8644409179688,786.5201416015625,794.1758422851562
951,796.1904907226562,776.4468994140625,791.3552856445312,801.025634765625
952,802.2344360351562,784.5054931640625,795.7875366210938,799.4139404296875
953,803.4432373046875,788.5347900390625,792.967041015625,791.3552856445312
954,796.1904907226562,783.2966918945312,788.5347900390625,796.5933837890625
955,795.3846435546875,786.923095703125,791.3552856445312,799.010986328125
956,794.981689453125,792.5640869140625,801.8314819335938,792.967041015625
957,787.7289428710938,788.5347900390625,806.2637329101562,793.3699340820312
958,776.4468994140625,788.1318969726562,800.6226806640625,802.2344360351562
959,779.2673950195312,789.7435913085938,801.025634765625,805.4578857421875
960,782.893798828125,784.908447265625,800.2197875976562,795.7875366210938
961,777.6557006835938,788.1318969726562,797.3992919921875,789.7435913085938
962,783.6996459960938,789.7435913085938,802.2344360351562,791.3552856445312
963,792.967041015625,789.3406372070312,806.2637329101562,792.967041015625
964,789.7435913085938,790.952392578125,801.8314819335938,792.5640869140625
965,787.3259887695312,789.7435913085938,797.3992919921875,798.6080322265625
966,792.1611938476562,790.1465454101562,799.010986328125,794.5787353515625
967,796.1904907226562,791.3552856445312,799.010986328125,786.923095703125
968,805.4578857421875,794.5787353515625,800.6226806640625,796.1904907226562
969,811.5018310546875,798.2051391601562,803.8461303710938,803.040283203125
970,811.098876953125,798.6080322265625,802.2344360351562,809.084228515625
971,796.5933837890625,790.5494384765625,796.996337890625,809.4871826171875
972,789.3406372070312,788.1318969726562,795.3846435546875,803.8461303710938
973,796.1904907226562,797.3992919921875,800.6226806640625,807.4725341796875
974,795.3846435546875,797.3992919921875,799.8168334960938,805.054931640625
975,791.3552856445312,794.5787353515625,794.5787353515625,797.8021850585938
976,794.1758422851562,791.3552856445312,794.5787353515625,801.8314819335938
977,790.1465454101562,788.937744140625,793.3699340820312,802.6373901367188
978,788.937744140625,791.7582397460938,790.952392578125,800.2197875976562
979,795.7875366210938,790.5494384765625,792.1611938476562,794.981689453125
980,800.6226806640625,791.7582397460938,794.981689453125,794.5787353515625
981,803.4432373046875,790.1465454101562,795.3846435546875,798.6080322265625
982,800.6226806640625,792.967041015625,795.7875366210938,797.3992919921875
983,803.8461303710938,797.3992919921875,796.996337890625,796.996337890625
984,801.025634765625,795.7875366210938,795.3846435546875,790.5494384765625
985,792.5640869140625,793.7728881835938,789.7435913085938,784.5054931640625
986,784.5054931640625,790.952392578125,792.1611938476562,784.908447265625
987,776.0439453125,794.1758422851562,793.7728881835938,785.7142944335938
988,776.0439453125,794.1758422851562,789.7435913085938,789.7435913085938
989,779.2673950195312,789.7435913085938,791.3552856445312,789.3406372070312
990,783.2966918945312,790.1465454101562,790.5494384765625,789.7435913085938
991,787.7289428710938,792.5640869140625,790.952392578125,792.5640869140625
992,787.3259887695312,789.3406372070312,791.7582397460938,790.1465454101562
993,785.3113403320312,786.923095703125,792.1611938476562,790.1465454101562
994,788.1318969726562,792.1611938476562,793.7728881835938,790.1465454101562
995,793.3699340820312,795.3846435546875,793.3699340820312,793.3699340820312
996,797.3992919921875,796.996337890625,794.981689453125,797.8021850585938
997,792.5640869140625,798.6080322265625,795.7875366210938,796.5933837890625
998,786.923095703125,790.1465454101562,791.7582397460938,792.1611938476562
999,787.7289428710938,788.1318969726562,791.7582397460938,788.937744140625
1000,792.5640869140625,792.5640869140625,793.3699340820312,792.967041015625
1001,795.3846435546875,788.1318969726562,795.3846435546875,798.2051391601562
1002,789.7435913085938,789.3406372070312,792.1611938476562,794.1758422851562
1003,787.7289428710938,793.3699340820312,790.1465454101562,798.6080322265625
1004,794.5787353515625,792.1611938476562,792.967041015625,808.6813354492188
1005,793.7728881835938,795.3846435546875,794.1758422851562,804.6520385742188
1006,790.952392578125,804.2490844726562,796.1904907226562,795.7875366210938
1007,788.937744140625,805.054931640625,797.3992919921875,788.937744140625
1008,783.2966918945312,799.010986328125,794.981689453125,788.5347900390625
1009,776.0439453125,794.1758422851562,791.3552856445312,782.893798828125
1010,777.6557006835938,794.981689453125,789.3406372070312,774.029296875
1011,788.1318969726562,792.967041015625,790.952392578125,779.6703491210938
1012,791.3552856445312,788.1318969726562,792.967041015625,784.1025390625
1013,792.1611938476562,792.5640869140625,794.1758422851562,785.3113403320312
1014,791.3552856445312,793.3699340820312,795.3846435546875,782.087890625
1015,794.1758422851562,792.967041015625,792.1611938476562,780.879150390625
1016,794.5787353515625,794.5787353515625,796.1904907226562,789.7435913085938
1017,786.5201416015625,795.7875366210938,802.2344360351562,786.5201416015625
1018,785.7142944335938,796.5933837890625,801.8314819335938,776.8497924804688
1019,788.937744140625,796.5933837890625,799.8168334960938,786.1171875
1020,788.937744140625,796.5933837890625,792.967041015625,786.923095703125
1021,793.3699340820312,797.3992919921875,793.7728881835938,788.937744140625
1022,792.5640869140625,790.952392578125,796.1904907226562,789.7435913085938
1023,798.6080322265625,786.5201416015625,796.5933837890625,786.5201416015625
1024,802.2344360351562,783.2966918945312,797.3992919921875,792.967041015625
1025,796.5933837890625,786.1171875,796.996337890625,794.5787353515625
1026,793.3699340820312,795.3846435546875,795.3846435546875,792.1611938476562
1027,792.967041015625,797.3992919921875,795.3846435546875,791.7582397460938
1028,790.952392578125,797.8021850585938,798.6080322265625,794.981689453125
1029,788.1318969726562,797.3992919921875,799.4139404296875,792.5640869140625
1030,794.1758422851562,791.7582397460938,798.6080322265625,793.3699340820312
1031,795.7875366210938,790.1465454101562,795.3846435546875,794.1758422851562
1032,793.3699340820312,790.5494384765625,792.967041015625,786.1171875
1033,792.1611938476562,794.5787353515625,795.7875366210938,784.1025390625
1034,794.1758422851562,796.1904907226562,797.8021850585938,794.1758422851562
1035,797.3992919921875,794.5787353515625,797.8021850585938,795.7875366210938
1036,793.3699340820312,790.1465454101562,796.1904907226562,784.5054931640625
1037,788.937744140625,787.7289428710938,794.5787353515625,780.879150390625
1038,788.5347900390625,786.5201416015625,789.3406372070312,779.6703491210938
1039,788.5347900390625,784.908447265625,788.1318969726562,778.05859375
1040,788.937744140625,785.3113403320312,789.3406372070312,777.6557006835938
1041,796.1904907226562,785.7142944335938,790.952392578125,778.8644409179688
1042,805.8607788085938,786.5201416015625,793.3699340820312,787.3259887695312
1043,803.8461303710938,790.5494384765625,796.996337890625,791.7582397460938
1044,799.010986328125,790.952392578125,800.6226806640625,785.3113403320312
1045,795.7875366210938,792.967041015625,794.981689453125,785.7142944335938
1046,792.1611938476562,794.5787353515625,793.7728881835938,788.5347900390625
1047,796.5933837890625,790.952392578125,799.8168334960938,787.7289428710938
1048,805.4578857421875,794.981689453125,799.4139404296875,787.7289428710938
1049,804.6520385742188,793.7728881835938,799.010986328125,792.967041015625
1050,801.8314819335938,786.1171875,798.2051391601562,792.5640869140625
1051,792.5640869140625,787.7289428710938,794.981689453125,791.7582397460938
1052,782.087890625,792.967041015625,796.1904907226562,789.3406372070312
1053,782.4908447265625,794.981689453125,796.5933837890625,788.5347900390625
1054,783.2966918945312,792.5640869140625,794.5787353515625,793.3699340820312
1055,781.6849975585938,796.5933837890625,792.967041015625,793.3699340820312
1056,786.923095703125,800.6226806640625,796.5933837890625,792.967041015625
1057,786.1171875,792.1611938476562,794.981689453125,794.5787353515625
1058,786.1171875,786.923095703125,792.1611938476562,789.3406372070312
1059,788.937744140625,789.7435913085938,796.1904907226562,781.2820434570312
1060,788.1318969726562,789.3406372070312,794.5787353515625,782.893798828125
1061,790.1465454101562,790.5494384765625,791.7582397460938,789.3406372070312
1062,793.3699340820312,788.937744140625,791.3552856445312,794.1758422851562
1063,793.7728881835938,790.5494384765625,791.7582397460938,799.010986328125
1064,793.7728881835938,794.981689453125,791.7582397460938,797.3992919921875
1065,795.7875366210938,791.3552856445312,790.5494384765625,796.996337890625
1066,791.7582397460938,787.7289428710938,789.7435913085938,799.4139404296875
1067,794.1758422851562,790.1465454101562,790.952392578125,797.8021850585938
1068,799.4139404296875,792.5640869140625,793.3699340820312,794.1758422851562
1069,792.967041015625,791.7582397460938,797.3992919921875,796.5933837890625
1070,792.967041015625,794.5787353515625,796.1904907226562,797.3992919921875
1071,793.3699340820312,798.2051391601562,794.5787353515625,791.3552856445312
1072,790.5494384765625,799.4139404296875,795.3846435546875,790.5494384765625
1073,784.5054931640625,795.7875366210938,795.3846435546875,789.3406372070312
1074,772.8204956054688,792.1611938476562,793.3699340820312,786.5201416015625
1075,774.8351440429688,795.7875366210938,794.1758422851562,789.3406372070312
1076,782.4908447265625,796.996337890625,795.7875366210938,789.7435913085938
1077,781.6849975585938,800.6226806640625,794.5787353515625,792.5640869140625
1078,778.05859375,801.8314819335938,794.981689453125,791.7582397460938
1079,778.4615478515625,794.1758422851562,792.967041015625,786.1171875
1080,784.1025390625,794.5787353515625,790.952392578125,784.1025390625
1081,785.7142944335938,796.996337890625,793.7728881835938,779.2673950195312
1082,788.937744140625,796.996337890625,793.3699340820312,781.6849975585938
1083,793.3699340820312,800.2197875976562,792.5640869140625,789.7435913085938
1084,789.7435913085938,794.5787353515625,792.967041015625,790.952392578125
1085,792.5640869140625,793.3699340820312,792.5640869140625,792.1611938476562
1086,789.7435913085938,796.5933837890625,794.1758422851562,795.7875366210938
1087,781.2820434570312,797.8021850585938,791.3552856445312,794.981689453125
1088,785.7142944335938,799.4139404296875,789.7435913085938,788.5347900390625
1089,792.967041015625,794.981689453125,794.1758422851562,791.3552856445312
1090,787.7289428710938,790.5494384765625,796.1904907226562,791.7582397460938
1091,786.923095703125,794.1758422851562,794.981689453125,789.7435913085938
1092,798.6080322265625,796.1904907226562,793.3699340820312,796.996337890625
1093,796.1904907226562,790.5494384765625,793.3699340820312,801.4285888671875
1094,792.5640869140625,791.7582397460938,794.981689453125,800.2197875976562
1095,792.967041015625,799.8168334960938,793.7728881835938,796.996337890625
1096,793.3699340820312,796.996337890625,795.3846435546875,799.4139404296875
1097,794.5787353515625,797.3992919921875,798.6080322265625,799.4139404296875
1098,793.3699340820312,802.6373901367188,797.3992919921875,796.5933837890625
1099,796.5933837890625,800.2197875976562,796.996337890625,795.3846435546875
1100,798.2051391601562,801.4285888671875,796.5933837890625,797.3992919921875
1101,798.6080322265625,802.6373901367188,795.7875366210938,797.3992919921875
1102,799.4139404296875,798.6080322265625,799.010986328125,789.7435913085938
1103,792.967041015625,798.2051391601562,796.1904907226562,784.5054931640625
1104,783.6996459960938,794.1758422851562,794.5787353515625,784.5054931640625
1105,780.0732421875,792.1611938476562,798.6080322265625,784.908447265625
1106,784.5054931640625,799.4139404296875,797.8021850585938,784.908447265625
1107,787.3259887695312,801.8314819335938,799.010986328125,792.967041015625
1108,788.1318969726562,800.2197875976562,797.3992919921875,792.967041015625
1109,790.1465454101562,801.4285888671875,792.1611938476562,789.7435913085938
1110,792.1611938476562,798.2051391601562,794.1758422851562,788.937744140625
1111,797.8021850585938,800.2197875976562,795.7875366210938,788.937744140625
1112,801.025634765625,799.4139404296875,794.5787353515625,789.3406372070312
1113,802.2344360351562,791.3552856445312,797.3992919921875,792.1611938476562
1114,807.87548828125,794.981689453125,796.996337890625,789.7435913085938
1115,805.054931640625,795.3846435546875,791.7582397460938,785.7142944335938
1116,794.5787353515625,797.3992919921875,793.3699340820312,788.5347900390625
1117,799.8168334960938,807.87548828125,795.3846435546875,793.7728881835938
1118,802.6373901367188,806.6666870117188,798.6080322265625,795.7875366210938
1119,794.981689453125,799.010986328125,800.6226806640625,796.1904907226562
1120,791.7582397460938,798.2051391601562,805.054931640625,800.6226806640625
1121,783.6996459960938,795.7875366210938,800.6226806640625,790.1465454101562
1122,786.923095703125,790.1465454101562,794.5787353515625,784.1025390625
1123,794.981689453125,786.923095703125,796.1904907226562,789.3406372070312
1124,792.5640869140625,786.1171875,795.7875366210938,795.3846435546875
1125,790.952392578125,788.5347900390625,798.2051391601562,788.937744140625
1126,796.5933837890625,790.952392578125,801.4285888671875,782.893798828125
1127,793.7728881835938,794.5787353515625,801.025634765625,789.7435913085938
1128,788.5347900390625,794.5787353515625,801.4285888671875,787.7289428710938
1129,786.1171875,790.952392578125,798.2051391601562,777.2527465820312
1130,780.4761962890625,790.5494384765625,794.5787353515625,772.4176025390625
1131,784.1025390625,788.1318969726562,795.3846435546875,778.05859375
1132,787.7289428710938,784.1025390625,794.1758422851562,781.2820434570312
1133,782.4908447265625,786.923095703125,794.5787353515625,784.5054931640625
1134,788.5347900390625,792.5640869140625,797.8021850585938,788.1318969726562
1135,789.3406372070312,793.3699340820312,794.1758422851562,792.1611938476562
1136,786.1171875,792.967041015625,793.3699340820312,794.1758422851562
1137,788.5347900390625,792.5640869140625,795.7875366210938,792.967041015625
1138,784.908447265625,788.1318969726562,795.7875366210938,793.3699340820312
1139,784.5054931640625,785.7142944335938,800.6226806640625,797.8021850585938
1140,788.937744140625,787.7289428710938,800.6226806640625,791.3552856445312
1141,788.5347900390625,788.5347900390625,796.5933837890625,786.923095703125
1142,788.1318969726562,789.7435913085938,797.3992919921875,792.5640869140625
1143,792.5640869140625,794.5787353515625,799.4139404296875,792.1611938476562
1144,790.1465454101562,793.3699340820312,799.4139404296875,790.1465454101562
1145,790.5494384765625,789.7435913085938,800.6226806640625,789.3406372070312
1146,790.5494384765625,792.1611938476562,800.6226806640625,798.6080322265625
1147,792.1611938476562,794.5787353515625,801.025634765625,804.6520385742188
1148,792.967041015625,799.010986328125,804.2490844726562,799.4139404296875
1149,791.3552856445312,798.2051391601562,802.6373901367188,792.967041015625
1150,790.1465454101562,786.5201416015625,798.2051391601562,793.7728881835938
1151,789.3406372070312,792.5640869140625,795.3846435546875,791.3552856445312
1152,791.3552856445312,801.4285888671875,795.7875366210938,784.1025390625
1153,787.3259887695312,800.2197875976562,795.7875366210938,782.4908447265625
1154,787.7289428710938,796.1904907226562,794.981689453125,781.6849975585938
1155,787.3259887695312,797.8021850585938,796.5933837890625,782.087890625
1156,786.923095703125,798.2051391601562,797.8021850585938,784.1025390625
1157,793.7728881835938,795.7875366210938,798.6080322265625,786.1171875
1158,799.8168334960938,798.6080322265625,799.4139404296875,790.952392578125
1159,811.90478515625,794.1758422851562,802.2344360351562,801.4285888671875
1160,815.1282348632812,795.3846435546875,796.5933837890625,807.069580078125
1161,803.040283203125,795.7875366210938,797.3992919921875,808.6813354492188
1162,796.1904907226562,788.937744140625,805.8607788085938,806.6666870117188
1163,795.7875366210938,788.1318969726562,805.8607788085938,802.2344360351562
1164,797.8021850585938,789.3406372070312,804.6520385742188,801.025634765625
1165,793.3699340820312,789.7435913085938,799.8168334960938,791.3552856445312
1166,780.0732421875,790.1465454101562,794.5787353515625,782.087890625
1167,775.6410522460938,790.952392578125,793.7728881835938,774.8351440429688
1168,783.2966918945312,793.3699340820312,792.5640869140625,776.4468994140625
1169,784.5054931640625,791.3552856445312,790.1465454101562,790.5494384765625
1170,786.5201416015625,786.5201416015625,788.1318969726562,795.7875366210938
1171,786.1171875,786.923095703125,788.1318969726562,791.3552856445312
1172,782.893798828125,790.952392578125,791.3552856445312,788.5347900390625
1173,788.937744140625,791.7582397460938,794.5787353515625,793.3699340820312
1174,792.967041015625,790.952392578125,796.1904907226562,799.010986328125
1175,790.5494384765625,793.3699340820312,796.5933837890625,795.3846435546875
1176,789.7435913085938,796.996337890625,792.5640869140625,797.8021850585938
1177,793.3699340820312,793.7728881835938,792.967041015625,802.6373901367188
1178,801.025634765625,792.5640869140625,799.010986328125,802.6373901367188
1179,807.069580078125,794.981689453125,798.6080322265625,801.4285888671875
1180,809.89013671875,794.5787353515625,799.010986328125,802.6373901367188
1181,806.6666870117188,793.7728881835938,799.8168334960938,803.040283203125
1182,800.6226806640625,794.981689453125,799.010986328125,799.010986328125
1183,797.3992919921875,794.981689453125,800.2197875976562,796.5933837890625
1184,796.5933837890625,790.5494384765625,796.1904907226562,795.7875366210938
1185,809.4871826171875,790.5494384765625,794.5787353515625,797.8021850585938
1186,799.8168334960938,798.2051391601562,796.996337890625,796.5933837890625
1187,784.908447265625,797.8021850585938,792.1611938476562,788.5347900390625
1188,790.1465454101562,788.5347900390625,790.1465454101562,788.5347900390625
1189,784.908447265625,785.7142944335938,790.952392578125,785.3113403320312
1190,790.1465454101562,791.3552856445312,793.3699340820312,784.908447265625
1191,795.7875366210938,791.7582397460938,796.996337890625,784.908447265625
1192,787.7289428710938,795.7875366210938,796.996337890625,785.7142944335938
1193,786.1171875,802.2344360351562,800.2197875976562,799.010986328125
1194,791.7582397460938,799.010986328125,801.4285888671875,802.2344360351562
1195,791.7582397460938,798.6080322265625,797.8021850585938,794.5787353515625
1196,791.7582397460938,794.5787353515625,788.937744140625,792.967041015625
1197,790.1465454101562,791.3552856445312,786.923095703125,795.7875366210938
1198,791.3552856445312,797.3992919921875,799.4139404296875,799.010986328125
1199,801.4285888671875,793.7728881835938,798.6080322265625,796.996337890625
1200,799.010986328125,794.1758422851562,794.1758422851562,791.3552856445312
1201,785.3113403320312,794.981689453125,796.996337890625,792.967041015625
1202,781.2820434570312,790.952392578125,794.981689453125,793.7728881835938
1203,784.908447265625,790.5494384765625,796.996337890625,791.3552856445312
1204,786.1171875,785.7142944335938,797.3992919921875,792.967041015625
1205,780.879150390625,791.7582397460938,795.7875366210938,796.996337890625
1206,778.4615478515625,796.5933837890625,798.2051391601562,797.3992919921875
1207,779.6703491210938,792.5640869140625,794.1758422851562,793.3699340820312
1208,790.952392578125,787.7289428710938,789.3406372070312,800.2197875976562
1209,801.025634765625,790.952392578125,793.7728881835938,798.6080322265625
1210,802.6373901367188,796.1904907226562,801.025634765625,790.952392578125
1211,799.4139404296875,794.5787353515625,800.6226806640625,794.5787353515625
1212,788.937744140625,794.981689453125,797.3992919921875,789.7435913085938
1213,786.923095703125,794.981689453125,798.2051391601562,787.7289428710938
1214,791.7582397460938,794.981689453125,797.3992919921875,790.1465454101562
1215,795.7875366210938,796.1904907226562,797.3992919921875,787.3259887695312
1216,797.8021850585938,793.3699340820312,802.2344360351562,787.7289428710938
1217,802.2344360351562,792.967041015625,803.040283203125,787.7289428710938
1218,801.4285888671875,797.8021850585938,803.040283203125,786.5201416015625
1219,794.981689453125,794.1758422851562,801.4285888671875,787.3259887695312
1220,793.7728881835938,792.1611938476562,802.2344360351562,788.5347900390625
1221,791.3552856445312,795.3846435546875,805.4578857421875,786.5201416015625
1222,792.5640869140625,801.4285888671875,800.6226806640625,787.3259887695312
1223,788.5347900390625,811.90478515625,798.6080322265625,786.923095703125
1224,785.7142944335938,805.8607788085938,803.4432373046875,787.7289428710938
1225,788.937744140625,801.4285888671875,803.040283203125,788.937744140625
1226,791.3552856445312,807.069580078125,802.2344360351562,790.1465454101562
1227,788.1318969726562,803.8461303710938,801.4285888671875,790.5494384765625
1228,789.3406372070312,802.2344360351562,797.8021850585938,788.5347900390625
1229,796.1904907226562,803.040283203125,794.5787353515625,790.952392578125
1230,798.6080322265625,798.6080322265625,792.1611938476562,791.3552856445312
1231,795.3846435546875,797.8021850585938,794.5787353515625,801.025634765625
1232,782.4908447265625,794.981689453125,790.952392578125,793.7728881835938
1233,786.1171875,790.952392578125,790.952392578125,784.5054931640625
1234,793.3699340820312,794.5787353515625,792.967041015625,788.937744140625
1235,794.1758422851562,795.7875366210938,789.7435913085938,786.5201416015625
1236,794.5787353515625,794.1758422851562,792.1611938476562,784.5054931640625
1237,789.7435913085938,788.937744140625,792.1611938476562,784.5054931640625
1238,788.5347900390625,789.3406372070312,784.5054931640625,788.937744140625
1239,789.7435913085938,792.5640869140625,782.4908447265625,786.923095703125
1240,803.040283203125,793.3699340820312,784.5054931640625,780.0732421875
1241,807.069580078125,793.7728881835938,782.4908447265625,779.2673950195312
1242,794.1758422851562,790.1465454101562,783.6996459960938,780.4761962890625
1243,780.879150390625,791.7582397460938,780.0732421875,778.4615478515625
1244,776.8497924804688,793.3699340820312,782.4908447265625,784.908447265625
1245,786.5201416015625,791.7582397460938,794.1758422851562,792.5640869140625
1246,792.1611938476562,791.7582397460938,793.7728881835938,800.6226806640625
1247,795.7875366210938,798.2051391601562,788.5347900390625,801.4285888671875
1248,800.6226806640625,801.8314819335938,789.7435913085938,793.7728881835938
1249,798.6080322265625,801.025634765625,793.7728881835938,791.7582397460938
1250,790.952392578125,795.7875366210938,790.5494384765625,786.1171875
1251,790.952392578125,790.952392578125,786.5201416015625,783.2966918945312
1252,796.5933837890625,788.937744140625,786.5201416015625,781.2820434570312
1253,792.967041015625,790.5494384765625,784.1025390625,779.6703491210938
1254,787.3259887695312,795.7875366210938,790.1465454101562,788.1318969726562
1255,792.1611938476562,801.025634765625,795.3846435546875,795.3846435546875
1256,786.5201416015625,801.4285888671875,791.3552856445312,789.7435913085938
1257,785.3113403320312,799.8168334960938,790.952392578125,792.1611938476562
1258,787.7289428710938,797.3992919921875,792.1611938476562,799.4139404296875
1259,787.3259887695312,789.3406372070312,793.3699340820312,795.3846435546875
1260,790.952392578125,780.4761962890625,800.2197875976562,793.3699340820312
1261,787.3259887695312,785.7142944335938,799.8168334960938,796.996337890625
1262,783.2966918945312,792.967041015625,794.5787353515625,797.3992919921875
1263,780.879150390625,795.7875366210938,794.1758422851562,794.981689453125
1264,780.879150390625,796.1904907226562,795.3846435546875,792.967041015625
1265,793.3699340820312,791.3552856445312,797.8021850585938,795.3846435546875
1266,805.054931640625,791.3552856445312,798.2051391601562,798.2051391601562
1267,793.3699340820312,792.967041015625,795.7875366210938,793.3699340820312
1268,784.5054931640625,789.7435913085938,791.7582397460938,788.1318969726562
1269,784.1025390625,787.7289428710938,786.5201416015625,784.908447265625
1270,780.0732421875,785.7142944335938,788.937744140625,788.5347900390625
1271,782.893798828125,782.4908447265625,792.1611938476562,794.1758422851562
1272,785.3113403320312,788.1318969726562,789.3406372070312,793.7728881835938
1273,784.908447265625,792.1611938476562,790.5494384765625,793.3699340820312
1274,794.5787353515625,792.5640869140625,793.3699340820312,796.996337890625
1275,800.6226806640625,791.3552856445312,788.1318969726562,790.5494384765625
1276,796.5933837890625,792.967041015625,783.6996459960938,784.1025390625
1277,791.7582397460938,792.1611938476562,785.3113403320312,780.0732421875
1278,790.5494384765625,785.7142944335938,786.1171875,784.1025390625
1279,788.1318969726562,788.5347900390625,786.5201416015625,786.5201416015625
1280,780.0732421875,787.7289428710938,789.3406372070312,780.0732421875
1281,778.05859375,788.5347900390625,788.937744140625,782.893798828125
1282,780.0732421875,787.7289428710938,792.967041015625,788.937744140625
1283,782.893798828125,787.7289428710938,792.5640869140625,785.7142944335938
1284,782.893798828125,797.8021850585938,791.3552856445312,786.1171875
1285,786.923095703125,795.7875366210938,792.967041015625,790.1465454101562
1286,797.8021850585938,789.7435913085938,792.1611938476562,788.937744140625
1287,801.4285888671875,794.5787353515625,795.7875366210938,788.1318969726562
1288,803.040283203125,796.996337890625,796.996337890625,790.5494384765625
1289,806.6666870117188,791.3552856445312,794.5787353515625,789.7435913085938
1290,806.6666870117188,790.952392578125,793.7728881835938,789.7435913085938
1291,796.996337890625,788.1318969726562,790.1465454101562,792.5640869140625
1292,786.1171875,790.1465454101562,789.7435913085938,794.1758422851562
1293,788.937744140625,796.5933837890625,792.5640869140625,792.967041015625
1294,796.1904907226562,795.3846435546875,795.3846435546875,790.1465454101562
1295,799.4139404296875,792.1611938476562,797.8021850585938,791.7582397460938
1296,803.8461303710938,793.3699340820312,797.3992919921875,796.996337890625
1297,800.2197875976562,793.3699340820312,795.7875366210938,798.2051391601562
1298,790.5494384765625,792.5640869140625,793.7728881835938,791.7582397460938
1299,789.3406372070312,799.010986328125,797.3992919921875,789.7435913085938
1300,796.1904907226562,804.2490844726562,798.2051391601562,794.981689453125
1301,790.5494384765625,796.1904907226562,794.981689453125,797.8021850585938
1302,782.4908447265625,790.5494384765625,791.3552856445312,792.5640869140625
1303,788.937744140625,793.7728881835938,789.3406372070312,787.3259887695312
1304,791.7582397460938,797.3992919921875,792.967041015625,791.7582397460938
1305,792.5640869140625,799.010986328125,792.5640869140625,790.5494384765625
1306,797.3992919921875,798.2051391601562,793.7728881835938,785.7142944335938
1307,794.1758422851562,793.7728881835938,800.6226806640625,793.7728881835938
1308,784.908447265625,789.7435913085938,801.025634765625,795.7875366210938
1309,781.6849975585938,792.1611938476562,798.6080322265625,789.7435913085938
1310,782.4908447265625,790.952392578125,799.4139404296875,784.5054931640625
1311,794.1758422851562,787.7289428710938,798.2051391601562,785.3113403320312
1312,801.4285888671875,789.3406372070312,795.3846435546875,786.923095703125
1313,792.1611938476562,794.1758422851562,794.1758422851562,787.7289428710938
1314,789.3406372070312,796.1904907226562,791.3552856445312,789.7435913085938
1315,793.7728881835938,794.5787353515625,792.1611938476562,797.3992919921875
1316,793.3699340820312,792.5640869140625,794.5787353515625,809.084228515625
1317,793.3699340820312,791.7582397460938,796.996337890625,806.6666870117188
1318,796.5933837890625,790.5494384765625,796.1904907226562,802.2344360351562
1319,794.981689453125,790.5494384765625,793.7728881835938,797.3992919921875
1320,790.952392578125,794.1758422851562,795.3846435546875,794.981689453125
1321,783.6996459960938,788.1318969726562,794.981689453125,792.5640869140625
1322,785.3113403320312,787.3259887695312,791.3552856445312,792.967041015625
1323,788.1318969726562,792.967041015625,791.3552856445312,799.010986328125
1324,783.6996459960938,791.3552856445312,791.3552856445312,791.3552856445312
1325,784.5054931640625,791.7582397460938,792.1611938476562,786.1171875
1326,792.1611938476562,794.5787353515625,795.3846435546875,789.3406372070312
1327,797.8021850585938,796.1904907226562,794.981689453125,792.967041015625
1328,797.8021850585938,794.5787353515625,793.3699340820312,792.5640869140625
1329,800.6226806640625,795.7875366210938,794.981689453125,787.7289428710938
1330,798.2051391601562,797.8021850585938,798.6080322265625,791.3552856445312
1331,790.1465454101562,793.3699340820312,797.3992919921875,794.981689453125
1332,792.5640869140625,787.7289428710938,796.996337890625,792.967041015625
1333,796.1904907226562,789.3406372070312,796.5933837890625,791.7582397460938
1334,790.5494384765625,793.3699340820312,798.6080322265625,793.7728881835938
1335,783.6996459960938,792.967041015625,802.6373901367188,800.2197875976562
1336,782.893798828125,788.5347900390625,799.4139404296875,804.6520385742188
1337,790.5494384765625,785.7142944335938,799.010986328125,800.2197875976562
1338,795.3846435546875,788.5347900390625,800.6226806640625,803.8461303710938
1339,788.5347900390625,794.981689453125,794.981689453125,809.89013671875
1340,788.5347900390625,798.2051391601562,796.5933837890625,804.6520385742188
1341,794.1758422851562,795.3846435546875,798.2051391601562,798.2051391601562
1342,800.6226806640625,795.3846435546875,799.010986328125,802.6373901367188
1343,805.054931640625,802.2344360351562,799.4139404296875,809.89013671875
1344,803.8461303710938,805.054931640625,792.5640869140625,805.4578857421875
1345,799.4139404296875,805.054931640625,794.1758422851562,801.8314819335938
1346,796.5933837890625,805.4578857421875,799.8168334960938,803.8461303710938
1347,799.010986328125,803.040283203125,794.981689453125,799.8168334960938
1348,800.6226806640625,802.6373901367188,792.5640869140625,790.1465454101562
1349,802.6373901367188,802.6373901367188,789.7435913085938,786.1171875
1350,799.010986328125,796.1904907226562,789.3406372070312,780.879150390625
1351,796.996337890625,794.1758422851562,791.7582397460938,779.6703491210938
1352,803.8461303710938,799.010986328125,789.7435913085938,784.5054931640625
1353,801.4285888671875,796.1904907226562,785.3113403320312,783.2966918945312
1354,787.7289428710938,791.7582397460938,783.2966918945312,784.1025390625
1355,780.4761962890625,792.1611938476562,788.937744140625,777.2527465820312
1356,782.893798828125,790.5494384765625,790.1465454101562,770.0
1357,783.2966918945312,792.967041015625,791.7582397460938,777.2527465820312
1358,778.05859375,785.7142944335938,795.3846435546875,780.4761962890625
1359,771.6116943359375,778.05859375,794.981689453125,786.1171875
1360,767.9853515625,782.4908447265625,795.3846435546875,790.1465454101562
1361,770.8058471679688,785.7142944335938,800.6226806640625,793.7728881835938
1362,777.2527465820312,787.7289428710938,797.3992919921875,799.010986328125
1363,782.4908447265625,783.6996459960938,794.981689453125,802.2344360351562
1364,790.5494384765625,780.879150390625,800.2197875976562,807.4725341796875
1365,792.1611938476562,787.7289428710938,802.6373901367188,812.7106323242188
1366,788.5347900390625,790.5494384765625,801.025634765625,814.3223266601562
1367,796.5933837890625,792.1611938476562,799.8168334960938,807.4725341796875
1368,807.069580078125,791.7582397460938,796.1904907226562,800.2197875976562
1369,811.098876953125,791.3552856445312,790.5494384765625,797.3992919921875
1370,807.069580078125,794.5787353515625,791.7582397460938,793.3699340820312
1371,809.89013671875,793.7728881835938,796.5933837890625,790.1465454101562
1372,810.2930297851562,794.981689453125,797.8021850585938,788.1318969726562
1373,806.6666870117188,799.4139404296875,796.996337890625,783.2966918945312
1374,804.2490844726562,792.1611938476562,793.3699340820312,778.05859375
1375,798.2051391601562,791.7582397460938,790.1465454101562,774.029296875
1376,796.996337890625,798.2051391601562,789.3406372070312,778.4615478515625
1377,794.1758422851562,794.981689453125,787.7289428710938,780.4761962890625
1378,790.952392578125,792.967041015625,784.5054931640625,776.0439453125
1379,795.3846435546875,795.7875366210938,785.3113403320312,777.6557006835938
1380,789.3406372070312,792.967041015625,785.7142944335938,777.6557006835938
1381,784.5054931640625,787.7289428710938,790.5494384765625,777.2527465820312
1382,786.5201416015625,789.3406372070312,792.5640869140625,778.05859375
1383,791.3552856445312,788.937744140625,791.3552856445312,784.1025390625
1384,788.5347900390625,786.1171875,796.5933837890625,784.1025390625
1385,776.4468994140625,790.1465454101562,797.3992919921875,784.1025390625
1386,771.2088012695312,791.7582397460938,792.5640869140625,791.3552856445312
1387,771.2088012695312,785.3113403320312,787.7289428710938,788.5347900390625
1388,771.2088012695312,782.4908447265625,784.908447265625,790.952392578125
1389,772.8204956054688,778.05859375,784.1025390625,798.6080322265625
1390,775.6410522460938,778.8644409179688,790.1465454101562,793.3699340820312
1391,776.4468994140625,789.3406372070312,798.6080322265625,790.952392578125
1392,772.0146484375,787.7289428710938,800.2197875976562,796.5933837890625
1393,770.8058471679688,780.4761962890625,798.2051391601562,804.2490844726562
1394,778.4615478515625,781.6849975585938,795.3846435546875,806.6666870117188
1395,780.879150390625,787.7289428710938,794.5787353515625,804.2490844726562
1396,776.8497924804688,793.7728881835938,794.1758422851562,799.4139404296875
1397,783.2966918945312,796.1904907226562,792.5640869140625,797.8021850585938
1398,788.937744140625,794.981689453125,796.1904907226562,795.3846435546875
1399,788.1318969726562,792.967041015625,793.7728881835938,790.952392578125
1400,786.1171875,792.967041015625,788.937744140625,789.3406372070312
1401,785.7142944335938,793.7728881835938,790.1465454101562,788.937744140625
1402,788.1318969726562,799.4139404296875,789.7435913085938,786.1171875
1403,790.5494384765625,800.6226806640625,785.3113403320312,784.5054931640625
1404,798.2051391601562,797.8021850585938,786.5201416015625,782.087890625
1405,796.996337890625,796.1904907226562,784.908447265625,779.6703491210938
1406,792.1611938476562,797.3992919921875,781.2820434570312,782.087890625
1407,797.8021850585938,800.6226806640625,782.893798828125,792.1611938476562
1408,800.6226806640625,800.2197875976562,788.937744140625,799.010986328125
1409,803.8461303710938,799.8168334960938,795.7875366210938,798.6080322265625
1410,805.8607788085938,802.6373901367188,793.7728881835938,802.2344360351562
1411,806.6666870117188,795.7875366210938,796.1904907226562,809.084228515625
1412,809.084228515625,794.5787353515625,798.2051391601562,813.113525390625
1413,805.8607788085938,803.8461303710938,796.996337890625,804.6520385742188
1414,799.010986328125,805.8607788085938,797.3992919921875,800.6226806640625
1415,793.7728881835938,799.010986328125,795.7875366210938,801.8314819335938
1416,782.087890625,796.1904907226562,798.6080322265625,794.5787353515625
1417,776.8497924804688,798.6080322265625,797.8021850585938,789.7435913085938
1418,785.7142944335938,800.2197875976562,796.1904907226562,795.7875366210938
1419,783.6996459960938,794.5787353515625,797.8021850585938,799.010986328125
1420,780.4761962890625,785.7142944335938,798.6080322265625,794.981689453125
1421,778.05859375,786.1171875,801.4285888671875,787.7289428710938
1422,775.6410522460938,791.7582397460938,804.6520385742188,787.7289428710938
1423,778.4615478515625,790.5494384765625,804.2490844726562,792.5640869140625
1424,780.879150390625,794.981689453125,801.8314819335938,780.4761962890625
1425,787.3259887695312,796.996337890625,797.8021850585938,770.4029541015625
1426,786.923095703125,788.937744140625,794.981689453125,770.0
1427,784.5054931640625,786.5201416015625,791.7582397460938,777.2527465820312
1428,784.5054931640625,782.4908447265625,796.996337890625,785.7142944335938
1429,781.2820434570312,785.7142944335938,800.6226806640625,782.4908447265625
1430,780.879150390625,794.1758422851562,795.3846435546875,778.05859375
1431,780.0732421875,789.7435913085938,793.7728881835938,774.4322509765625
1432,786.1171875,784.908447265625,791.7582397460938,776.8497924804688
1433,790.5494384765625,784.5054931640625,789.3406372070312,776.0439453125
1434,785.7142944335938,787.3259887695312,792.5640869140625,776.4468994140625
1435,789.7435913085938,788.1318969726562,792.1611938476562,778.05859375
1436,787.7289428710938,790.1465454101562,786.923095703125,776.0439453125
1437,781.6849975585938,789.3406372070312,781.6849975585938,776.4468994140625
1438,787.7289428710938,788.1318969726562,784.5054931640625,785.7142944335938
1439,793.3699340820312,791.7582397460938,791.3552856445312,792.1611938476562
1440,796.1904907226562,794.5787353515625,790.1465454101562,785.7142944335938
1441,796.996337890625,799.010986328125,787.3259887695312,784.1025390625
1442,796.1904907226562,799.010986328125,790.952392578125,790.1465454101562
1443,796.1904907226562,800.6226806640625,793.3699340820312,794.5787353515625
1444,799.8168334960938,800.6226806640625,793.3699340820312,792.967041015625
1445,806.2637329101562,796.996337890625,789.3406372070312,784.908447265625
1446,805.8607788085938,804.2490844726562,786.923095703125,784.1025390625
1447,804.2490844726562,806.6666870117188,790.952392578125,786.923095703125
1448,806.2637329101562,807.87548828125,793.3699340820312,787.3259887695312
1449,805.8607788085938,812.3076782226562,793.7728881835938,787.3259887695312
1450,806.2637329101562,807.069580078125,796.5933837890625,797.3992919921875
1451,801.4285888671875,805.8607788085938,792.967041015625,793.3699340820312
1452,799.010986328125,807.069580078125,795.7875366210938,788.5347900390625
1453,798.6080322265625,799.8168334960938,796.996337890625,793.7728881835938
1454,802.6373901367188,802.2344360351562,796.1904907226562,791.3552856445312
1455,803.8461303710938,803.4432373046875,798.2051391601562,790.1465454101562
1456,798.6080322265625,799.8168334960938,800.2197875976562,790.5494384765625
1457,792.1611938476562,797.8021850585938,802.6373901367188,790.952392578125
1458,776.8497924804688,790.1465454101562,800.2197875976562,787.7289428710938
1459,774.029296875,786.923095703125,798.6080322265625,791.3552856445312
1460,777.2527465820312,786.923095703125,797.8021850585938,793.7728881835938
1461,778.05859375,783.6996459960938,795.3846435546875,792.1611938476562
1462,776.4468994140625,782.893798828125,792.5640869140625,790.1465454101562
1463,771.2088012695312,778.05859375,790.5494384765625,781.6849975585938
1464,775.2380981445312,780.0732421875,789.3406372070312,782.4908447265625
1465,780.0732421875,788.1318969726562,791.3552856445312,790.5494384765625
1466,776.8497924804688,786.923095703125,787.3259887695312,785.3113403320312
1467,773.2234497070312,782.893798828125,786.5201416015625,779.6703491210938
1468,775.6410522460938,786.923095703125,791.7582397460938,787.3259887695312
1469,778.8644409179688,797.8021850585938,793.7728881835938,794.5787353515625
1470,787.3259887695312,796.5933837890625,796.5933837890625,793.7728881835938
1471,794.1758422851562,794.1758422851562,802.6373901367188,792.5640869140625
1472,795.7875366210938,798.2051391601562,801.025634765625,790.5494384765625
1473,794.981689453125,793.7728881835938,797.3992919921875,790.5494384765625
1474,793.7728881835938,790.952392578125,793.3699340820312,785.7142944335938
1475,794.981689453125,794.1758422851562,788.1318969726562,782.4908447265625
1476,792.5640869140625,795.3846435546875,786.923095703125,780.879150390625
1477,789.7435913085938,791.3552856445312,788.1318969726562,779.2673950195312
1478,788.5347900390625,788.937744140625,789.7435913085938,780.4761962890625
1479,790.5494384765625,793.7728881835938,789.3406372070312,782.893798828125
1480,799.4139404296875,800.2197875976562,788.5347900390625,790.5494384765625
1481,801.4285888671875,802.6373901367188,787.7289428710938,794.1758422851562
1482,799.4139404296875,801.025634765625,788.937744140625,786.923095703125
1483,792.5640869140625,802.6373901367188,789.7435913085938,781.6849975585938
1484,791.3552856445312,804.6520385742188,788.1318969726562,786.1171875
1485,792.1611938476562,800.6226806640625,786.5201416015625,786.923095703125
1486,788.5347900390625,796.996337890625,787.3259887695312,782.087890625
1487,786.923095703125,799.010986328125,790.952392578125,779.6703491210938
1488,784.1025390625,795.3846435546875,791.7582397460938,777.2527465820312
1489,782.4908447265625,790.5494384765625,790.1465454101562,776.8497924804688
1490,787.7289428710938,795.3846435546875,794.5787353515625,784.1025390625
1491,792.1611938476562,792.5640869140625,797.8021850585938,788.5347900390625
1492,792.5640869140625,788.1318969726562,799.4139404296875,785.7142944335938
1493,784.1025390625,790.1465454101562,801.8314819335938,788.5347900390625
1494,787.7289428710938,792.1611938476562,804.6520385742188,791.3552856445312
1495,798.6080322265625,788.1318969726562,802.2344360351562,793.3699340820312
1496,795.3846435546875,787.7289428710938,802.6373901367188,796.5933837890625
1497,794.1758422851562,792.5640869140625,805.8607788085938,802.6373901367188
1498,790.1465454101562,786.923095703125,799.8168334960938,805.054931640625
1499,793.3699340820312,786.1171875,794.5787353515625,802.6373901367188
1500,798.2051391601562,787.7289428710938,797.8021850585938,801.8314819335938
1501,786.923095703125,786.1171875,798.2051391601562,802.2344360351562
1502,781.6849975585938,782.893798828125,794.5787353515625,799.4139404296875
1503,784.908447265625,778.05859375,791.7582397460938,799.4139404296875
1504,784.5054931640625,785.7142944335938,791.3552856445312,803.040283203125
1505,788.5347900390625,789.3406372070312,791.3552856445312,799.010986328125
1506,803.040283203125,784.1025390625,793.7728881835938,795.7875366210938
1507,807.87548828125,788.937744140625,790.1465454101562,797.3992919921875
1508,801.8314819335938,793.3699340820312,786.5201416015625,794.1758422851562
1509,798.2051391601562,796.5933837890625,788.5347900390625,787.7289428710938
1510,799.010986328125,792.967041015625,790.952392578125,786.923095703125
1511,799.010986328125,797.3992919921875,793.3699340820312,784.5054931640625
1512,801.025634765625,806.2637329101562,794.1758422851562,781.6849975585938
1513,800.6226806640625,801.025634765625,792.5640869140625,781.6849975585938
1514,797.8021850585938,799.010986328125,792.5640869140625,784.1025390625
1515,797.3992919921875,797.3992919921875,792.5640869140625,786.1171875
1516,803.040283203125,795.3846435546875,793.7728881835938,792.1611938476562
1517,814.7252807617188,800.2197875976562,796.1904907226562,799.4139404296875
1518,814.7252807617188,801.4285888671875,799.8168334960938,798.2051391601562
1519,797.8021850585938,792.5640869140625,798.6080322265625,793.3699340820312
1520,789.7435913085938,791.3552856445312,793.3699340820312,788.1318969726562
1521,792.5640869140625,796.1904907226562,796.5933837890625,791.3552856445312
1522,786.1171875,792.1611938476562,799.010986328125,790.1465454101562
1523,778.05859375,789.3406372070312,796.1904907226562,782.893798828125
1524,778.05859375,790.1465454101562,796.5933837890625,781.6849975585938
1525,778.4615478515625,785.3113403320312,798.2051391601562,781.2820434570312
1526,780.0732421875,784.5054931640625,795.7875366210938,776.8497924804688
1527,775.6410522460938,784.1025390625,794.1758422851562,775.2380981445312
1528,769.1941528320312,780.4761962890625,794.1758422851562,773.6264038085938
1529,768.3883056640625,786.923095703125,794.1758422851562,772.4176025390625
1530,780.4761962890625,792.967041015625,796.996337890625,777.6557006835938
1531,791.3552856445312,791.7582397460938,801.025634765625,778.8644409179688
1532,790.5494384765625,791.7582397460938,801.8314819335938,775.6410522460938
1533,785.3113403320312,792.967041015625,797.3992919921875,772.8204956054688
1534,787.3259887695312,792.1611938476562,793.3699340820312,777.6557006835938
1535,796.996337890625,794.1758422851562,795.3846435546875,784.1025390625
1536,803.040283203125,797.8021850585938,791.3552856445312,777.2527465820312
1537,807.069580078125,793.3699340820312,786.5201416015625,774.029296875
1538,806.6666870117188,788.5347900390625,787.7289428710938,778.8644409179688
1539,805.4578857421875,788.937744140625,787.3259887695312,782.4908447265625
1540,806.6666870117188,787.7289428710938,786.1171875,782.087890625
1541,805.4578857421875,792.967041015625,783.2966918945312,786.923095703125
1542,802.6373901367188,788.5347900390625,787.7289428710938,795.7875366210938
1543,797.3992919921875,786.923095703125,791.7582397460938,799.8168334960938
1544,794.5787353515625,800.2197875976562,790.952392578125,798.6080322265625
1545,797.8021850585938,800.2197875976562,794.981689453125,801.8314819335938
1546,795.3846435546875,796.996337890625,795.3846435546875,807.4725341796875
1547,790.952392578125,792.967041015625,790.1465454101562,805.054931640625
1548,792.967041015625,792.1611938476562,790.952392578125,802.2344360351562
1549,795.3846435546875,794.981689453125,795.7875366210938,799.010986328125
1550,789.7435913085938,792.1611938476562,796.1904907226562,791.3552856445312
1551,793.3699340820312,791.3552856445312,795.3846435546875,792.5640869140625
1552,802.2344360351562,792.1611938476562,799.4139404296875,799.8168334960938
1553,792.1611938476562,795.3846435546875,802.6373901367188,800.6226806640625
1554,785.3113403320312,795.7875366210938,807.4725341796875,805.054931640625
1555,782.087890625,788.1318969726562,811.098876953125,796.5933837890625
1556,781.6849975585938,790.1465454101562,808.2783813476562,785.7142944335938
1557,786.923095703125,795.3846435546875,805.054931640625,788.937744140625
1558,788.1318969726562,794.1758422851562,803.8461303710938,788.1318969726562
1559,788.5347900390625,789.7435913085938,800.6226806640625,783.2966918945312
1560,794.1758422851562,786.5201416015625,797.8021850585938,785.3113403320312
1561,790.5494384765625,789.3406372070312,797.8021850585938,784.1025390625
1562,785.7142944335938,796.1904907226562,795.3846435546875,780.0732421875
1563,791.3552856445312,795.3846435546875,792.5640869140625,782.087890625
1564,797.8021850585938,791.3552856445312,797.3992919921875,785.7142944335938
1565,793.3699340820312,788.937744140625,799.8168334960938,787.7289428710938
1566,782.893798828125,782.4908447265625,794.5787353515625,787.7289428710938
1567,779.2673950195312,786.923095703125,790.5494384765625,786.1171875
1568,780.879150390625,792.1611938476562,793.3699340820312,785.7142944335938
1569,783.2966918945312,787.3259887695312,793.7728881835938,785.3113403320312
1570,778.4615478515625,780.879150390625,791.3552856445312,780.0732421875
1571,768.3883056640625,783.2966918945312,790.952392578125,778.4615478515625
1572,768.3883056640625,786.1171875,787.7289428710938,783.6996459960938
1573,775.2380981445312,792.1611938476562,784.908447265625,789.7435913085938
1574,776.4468994140625,786.5201416015625,789.7435913085938,794.981689453125
1575,780.4761962890625,776.4468994140625,788.937744140625,791.7582397460938
1576,787.7289428710938,786.5201416015625,787.7289428710938,792.1611938476562
1577,789.7435913085938,798.6080322265625,790.952392578125,794.5787353515625
1578,795.3846435546875,803.8461303710938,794.5787353515625,801.8314819335938
1579,796.1904907226562,799.8168334960938,797.8021850585938,808.2783813476562
1580,792.5640869140625,790.1465454101562,792.1611938476562,801.025634765625
1581,799.4139404296875,791.7582397460938,791.7582397460938,805.4578857421875
1582,804.2490844726562,798.2051391601562,799.010986328125,803.4432373046875
1583,806.2637329101562,800.6226806640625,797.3992919921875,799.8168334960938
1584,807.4725341796875,806.6666870117188,795.7875366210938,803.4432373046875
