timestamp,RAW_TP9,RAW_AF7,RAW_AF8,RAW_TP10
1,791.7582397460938,792.967041015625,797.8021850585938,786.5201416015625
2,794.1758422851562,792.1611938476562,798.2051391601562,788.1318969726562
3,787.7289428710938,795.3846435546875,797.8021850585938,793.3699340820312
4,785.7142944335938,795.3846435546875,797.3992919921875,798.2051391601562
5,791.7582397460938,794.981689453125,800.2197875976562,791.3552856445312
6,789.7435913085938,801.8314819335938,800.2197875976562,789.7435913085938
7,789.3406372070312,803.4432373046875,796.996337890625,796.5933837890625
8,784.5054931640625,799.4139404296875,798.2051391601562,796.996337890625
9,779.2673950195312,799.010986328125,797.3992919921875,793.3699340820312
10,788.1318969726562,799.8168334960938,797.3992919921875,796.5933837890625
11,796.1904907226562,799.010986328125,801.4285888671875,794.5787353515625
12,799.010986328125,794.5787353515625,797.8021850585938,792.5640869140625
13,790.5494384765625,792.967041015625,795.3846435546875,796.5933837890625
14,786.1171875,794.981689453125,795.3846435546875,788.1318969726562
15,786.1171875,794.981689453125,797.3992919921875,788.937744140625
16,788.1318969726562,792.5640869140625,801.025634765625,790.5494384765625
17,786.1171875,790.952392578125,796.1904907226562,791.7582397460938
18,778.4615478515625,788.937744140625,792.5640869140625,788.937744140625
19,783.6996459960938,789.7435913085938,795.7875366210938,782.087890625
20,785.3113403320312,793.3699340820312,799.4139404296875,781.6849975585938
21,782.893798828125,799.8168334960938,799.010986328125,788.5347900390625
22,788.937744140625,804.2490844726562,799.8168334960938,792.967041015625
23,789.3406372070312,803.040283203125,801.025634765625,790.1465454101562
24,782.087890625,796.996337890625,795.7875366210938,790.5494384765625
25,778.8644409179688,796.996337890625,798.6080322265625,788.937744140625
26,791.7582397460938,804.2490844726562,805.054931640625,794.1758422851562
27,809.084228515625,808.2783813476562,803.8461303710938,798.6080322265625
28,813.91943359375,808.6813354492188,800.6226806640625,793.7728881835938
29,815.93408203125,806.6666870117188,802.2344360351562,797.3992919921875
30,811.5018310546875,800.2197875976562,806.6666870117188,800.6226806640625
31,798.6080322265625,800.6226806640625,806.2637329101562,801.025634765625
32,774.029296875,803.040283203125,802.6373901367188,798.2051391601562
33,764.3589477539062,799.8168334960938,801.4285888671875,801.025634765625
34,773.6264038085938,801.025634765625,805.054931640625,803.040283203125
35,770.0,801.4285888671875,801.025634765625,795.7875366210938
36,768.7911987304688,798.6080322265625,799.8168334960938,796.1904907226562
37,776.4468994140625,796.1904907226562,801.025634765625,794.981689453125
38,782.087890625,795.3846435546875,793.3699340820312,793.7728881835938
39,785.7142944335938,792.1611938476562,796.1904907226562,786.5201416015625
40,791.3552856445312,797.3992919921875,797.3992919921875,783.2966918945312
41,790.5494384765625,799.4139404296875,797.8021850585938,784.908447265625
42,790.5494384765625,798.2051391601562,802.2344360351562,782.087890625
43,798.2051391601562,801.4285888671875,799.8168334960938,775.6410522460938
44,796.5933837890625,801.4285888671875,798.6080322265625,780.4761962890625
45,785.3113403320312,796.1904907226562,795.7875366210938,780.879150390625
46,781.2820434570312,794.5787353515625,791.7582397460938,776.8497924804688
47,783.6996459960938,795.7875366210938,793.7728881835938,777.6557006835938
48,781.6849975585938,791.7582397460938,794.5787353515625,776.0439453125
49,780.0732421875,787.7289428710938,792.967041015625,778.05859375
50,776.4468994140625,788.1318969726562,788.1318969726562,777.6557006835938
51,779.2673950195312,790.5494384765625,784.1025390625,774.8351440429688
52,788.5347900390625,792.5640869140625,788.5347900390625,783.2966918945312
53,792.967041015625,795.7875366210938,795.7875366210938,792.1611938476562
54,788.1318969726562,797.3992919921875,793.7728881835938,786.923095703125
55,783.2966918945312,792.5640869140625,793.7728881835938,778.05859375
56,784.5054931640625,788.1318969726562,796.996337890625,780.0732421875
57,791.7582397460938,789.7435913085938,795.3846435546875,785.7142944335938
58,786.923095703125,790.952392578125,794.5787353515625,785.7142944335938
59,789.7435913085938,792.1611938476562,798.2051391601562,786.1171875
60,803.4432373046875,794.981689453125,800.6226806640625,793.7728881835938
61,795.3846435546875,791.7582397460938,804.2490844726562,796.5933837890625
62,789.3406372070312,791.7582397460938,805.4578857421875,795.3846435546875
63,789.7435913085938,796.5933837890625,801.025634765625,798.6080322265625
64,795.7875366210938,795.3846435546875,801.025634765625,803.8461303710938
65,794.1758422851562,792.967041015625,803.8461303710938,802.6373901367188
66,787.3259887695312,789.3406372070312,807.4725341796875,797.8021850585938
67,790.952392578125,790.1465454101562,802.6373901367188,799.4139404296875
68,785.7142944335938,794.981689453125,797.3992919921875,797.3992919921875
69,784.1025390625,796.1904907226562,796.5933837890625,794.1758422851562
70,788.5347900390625,796.5933837890625,794.1758422851562,788.5347900390625
71,785.7142944335938,796.5933837890625,792.5640869140625,783.6996459960938
72,778.4615478515625,788.5347900390625,789.3406372070312,778.05859375
73,784.1025390625,789.7435913085938,788.937744140625,783.2966918945312
74,797.8021850585938,799.010986328125,794.981689453125,790.5494384765625
75,805.4578857421875,801.8314819335938,796.996337890625,788.1318969726562
76,797.8021850585938,799.4139404296875,794.981689453125,787.3259887695312
77,792.5640869140625,798.2051391601562,795.3846435546875,790.1465454101562
78,791.3552856445312,800.6226806640625,797.8021850585938,792.967041015625
79,787.7289428710938,801.8314819335938,796.5933837890625,793.7728881835938
80,792.1611938476562,800.2197875976562,795.3846435546875,789.7435913085938
81,796.5933837890625,804.2490844726562,788.937744140625,782.087890625
82,797.3992919921875,805.8607788085938,787.7289428710938,782.087890625
83,801.8314819335938,803.040283203125,788.937744140625,790.1465454101562
84,802.2344360351562,798.2051391601562,787.3259887695312,792.5640869140625
85,791.3552856445312,796.1904907226562,786.1171875,790.5494384765625
86,789.3406372070312,799.4139404296875,785.3113403320312,792.967041015625
87,791.7582397460938,801.8314819335938,794.1758422851562,800.2197875976562
88,787.7289428710938,796.996337890625,802.2344360351562,802.2344360351562
89,783.2966918945312,793.7728881835938,797.3992919921875,794.1758422851562
90,788.1318969726562,794.5787353515625,792.5640869140625,788.937744140625
91,793.3699340820312,794.981689453125,795.3846435546875,784.5054931640625
92,786.923095703125,794.981689453125,800.2197875976562,778.4615478515625
93,780.0732421875,795.3846435546875,801.4285888671875,780.0732421875
94,789.7435913085938,796.996337890625,799.8168334960938,782.087890625
95,796.1904907226562,797.8021850585938,797.3992919921875,788.937744140625
96,794.5787353515625,801.025634765625,801.8314819335938,790.1465454101562
97,795.7875366210938,798.6080322265625,801.4285888671875,785.3113403320312
98,797.3992919921875,797.3992919921875,799.4139404296875,787.3259887695312
99,796.1904907226562,806.2637329101562,800.6226806640625,792.5640869140625
100,792.5640869140625,807.4725341796875,798.6080322265625,794.981689453125
101,784.908447265625,799.4139404296875,797.3992919921875,786.5201416015625
102,779.6703491210938,792.967041015625,793.3699340820312,778.4615478515625
103,780.4761962890625,793.3699340820312,789.3406372070312,782.893798828125
104,790.952392578125,798.2051391601562,792.967041015625,788.5347900390625
105,801.4285888671875,799.4139404296875,799.010986328125,787.3259887695312
106,786.1171875,794.5787353515625,797.3992919921875,789.7435913085938
107,784.1025390625,797.8021850585938,795.7875366210938,794.981689453125
108,786.923095703125,796.996337890625,796.5933837890625,796.996337890625
109,794.5787353515625,794.1758422851562,796.5933837890625,799.4139404296875
110,808.6813354492188,799.8168334960938,794.981689453125,799.8168334960938
111,805.4578857421875,802.2344360351562,794.981689453125,801.4285888671875
112,796.5933837890625,796.996337890625,801.8314819335938,797.3992919921875
113,788.5347900390625,796.996337890625,803.8461303710938,788.5347900390625
114,791.3552856445312,796.996337890625,805.054931640625,794.981689453125
115,794.981689453125,795.7875366210938,805.8607788085938,798.6080322265625
116,791.7582397460938,797.8021850585938,805.054931640625,792.5640869140625
117,793.3699340820312,800.2197875976562,803.8461303710938,790.1465454101562
118,792.1611938476562,802.6373901367188,799.010986328125,787.7289428710938
119,796.5933837890625,801.4285888671875,797.3992919921875,786.5201416015625
120,807.4725341796875,803.040283203125,797.8021850585938,786.5201416015625
121,803.8461303710938,805.4578857421875,799.4139404296875,788.5347900390625
122,803.8461303710938,803.4432373046875,803.8461303710938,794.1758422851562
123,805.4578857421875,800.6226806640625,799.8168334960938,793.7728881835938
124,796.1904907226562,793.7728881835938,795.3846435546875,789.7435913085938
125,790.952392578125,793.3699340820312,794.1758422851562,796.1904907226562
126,791.7582397460938,798.2051391601562,796.5933837890625,799.8168334960938
127,791.7582397460938,797.3992919921875,794.1758422851562,792.967041015625
128,794.981689453125,798.6080322265625,793.3699340820312,794.1758422851562
129,796.996337890625,801.8314819335938,798.6080322265625,805.4578857421875
130,790.1465454101562,796.5933837890625,794.981689453125,806.6666870117188
131,782.893798828125,794.5787353515625,795.7875366210938,801.8314819335938
132,782.4908447265625,795.7875366210938,799.4139404296875,803.040283203125
133,786.923095703125,796.5933837890625,799.010986328125,804.2490844726562
134,787.3259887695312,798.2051391601562,796.1904907226562,802.2344360351562
135,787.3259887695312,792.967041015625,796.5933837890625,795.7875366210938
136,788.5347900390625,789.7435913085938,794.5787353515625,797.8021850585938
137,792.967041015625,795.3846435546875,792.967041015625,798.2051391601562
138,802.2344360351562,799.4139404296875,796.5933837890625,790.5494384765625
139,798.6080322265625,800.6226806640625,798.6080322265625,792.1611938476562
140,788.937744140625,798.2051391601562,797.8021850585938,791.3552856445312
141,786.923095703125,799.8168334960938,799.010986328125,784.1025390625
142,786.5201416015625,800.2197875976562,801.8314819335938,788.1318969726562
143,780.0732421875,797.8021850585938,803.4432373046875,788.1318969726562
144,780.4761962890625,794.5787353515625,801.4285888671875,787.7289428710938
145,788.5347900390625,791.7582397460938,801.8314819335938,796.996337890625
146,787.7289428710938,786.5201416015625,801.025634765625,798.2051391601562
147,787.7289428710938,783.2966918945312,796.1904907226562,790.5494384765625
148,793.7728881835938,786.5201416015625,798.2051391601562,792.5640869140625
149,797.8021850585938,783.6996459960938,797.8021850585938,794.981689453125
150,795.7875366210938,783.6996459960938,796.5933837890625,794.1758422851562
151,789.3406372070312,789.3406372070312,795.3846435546875,798.2051391601562
152,785.3113403320312,794.1758422851562,793.7728881835938,793.3699340820312
153,783.6996459960938,798.6080322265625,793.7728881835938,794.981689453125
154,783.2966918945312,793.7728881835938,790.5494384765625,794.1758422851562
155,786.5201416015625,789.7435913085938,790.5494384765625,788.937744140625
156,792.1611938476562,790.952392578125,791.7582397460938,792.967041015625
157,793.3699340820312,789.3406372070312,792.5640869140625,797.8021850585938
158,801.4285888671875,790.952392578125,796.1904907226562,795.7875366210938
159,798.2051391601562,790.952392578125,799.010986328125,796.1904907226562
160,798.2051391601562,790.5494384765625,802.6373901367188,798.6080322265625
161,806.6666870117188,791.7582397460938,803.4432373046875,800.6226806640625
162,795.7875366210938,793.7728881835938,805.054931640625,803.040283203125
163,790.1465454101562,791.7582397460938,804.2490844726562,797.3992919921875
164,796.996337890625,786.923095703125,799.010986328125,796.996337890625
165,800.2197875976562,789.7435913085938,802.2344360351562,798.2051391601562
166,799.4139404296875,796.996337890625,803.8461303710938,794.5787353515625
167,801.4285888671875,795.7875366210938,802.6373901367188,794.1758422851562
168,801.8314819335938,794.5787353515625,802.6373901367188,792.1611938476562
169,796.996337890625,792.1611938476562,798.2051391601562,788.5347900390625
170,796.996337890625,791.7582397460938,795.7875366210938,789.3406372070312
171,796.1904907226562,794.5787353515625,798.2051391601562,791.7582397460938
172,786.923095703125,794.5787353515625,794.981689453125,793.3699340820312
173,788.1318969726562,795.7875366210938,791.7582397460938,800.2197875976562
174,780.0732421875,796.1904907226562,791.3552856445312,791.7582397460938
175,780.0732421875,798.6080322265625,788.937744140625,789.7435913085938
176,797.3992919921875,801.025634765625,789.7435913085938,796.1904907226562
177,797.3992919921875,800.2197875976562,791.7582397460938,792.5640869140625
178,786.5201416015625,797.3992919921875,790.5494384765625,792.967041015625
179,792.967041015625,800.2197875976562,789.7435913085938,793.3699340820312
180,796.996337890625,798.2051391601562,791.3552856445312,794.5787353515625
181,796.1904907226562,788.5347900390625,788.937744140625,790.1465454101562
182,790.952392578125,786.923095703125,785.3113403320312,785.3113403320312
183,783.6996459960938,788.5347900390625,787.7289428710938,782.893798828125
184,785.7142944335938,789.7435913085938,791.7582397460938,783.6996459960938
185,786.923095703125,790.1465454101562,790.1465454101562,789.7435913085938
186,785.7142944335938,787.7289428710938,790.1465454101562,788.1318969726562
187,788.1318969726562,787.7289428710938,793.3699340820312,788.1318969726562
188,790.952392578125,789.7435913085938,796.1904907226562,786.923095703125
189,793.3699340820312,790.1465454101562,795.3846435546875,785.7142944335938
190,786.923095703125,786.5201416015625,796.996337890625,786.1171875
191,780.879150390625,786.5201416015625,795.7875366210938,790.1465454101562
192,780.879150390625,785.3113403320312,792.1611938476562,794.5787353515625
193,780.879150390625,788.937744140625,792.1611938476562,790.952392578125
194,781.2820434570312,794.981689453125,792.967041015625,790.1465454101562
195,781.6849975585938,787.3259887695312,794.1758422851562,789.3406372070312
196,784.1025390625,785.7142944335938,792.5640869140625,792.967041015625
197,788.1318969726562,788.937744140625,791.3552856445312,790.1465454101562
198,784.5054931640625,786.5201416015625,793.7728881835938,782.4908447265625
199,787.3259887695312,792.1611938476562,794.1758422851562,788.5347900390625
200,790.1465454101562,794.1758422851562,794.5787353515625,786.923095703125
201,790.952392578125,790.1465454101562,794.1758422851562,784.5054931640625
202,792.967041015625,790.5494384765625,795.7875366210938,787.7289428710938
203,791.3552856445312,791.7582397460938,792.5640869140625,781.6849975585938
204,787.7289428710938,786.1171875,791.7582397460938,776.8497924804688
205,778.05859375,785.7142944335938,794.1758422851562,778.4615478515625
206,778.05859375,790.952392578125,792.967041015625,785.3113403320312
207,782.087890625,786.923095703125,790.952392578125,793.3699340820312
208,774.029296875,784.1025390625,788.5347900390625,787.7289428710938
209,775.2380981445312,785.7142944335938,788.937744140625,788.1318969726562
210,776.4468994140625,790.1465454101562,790.1465454101562,796.1904907226562
211,777.2527465820312,791.7582397460938,788.937744140625,795.7875366210938
212,790.5494384765625,786.5201416015625,792.5640869140625,791.3552856445312
213,797.8021850585938,785.3113403320312,790.952392578125,786.1171875
214,802.6373901367188,792.1611938476562,785.3113403320312,786.923095703125
215,796.996337890625,800.6226806640625,790.5494384765625,783.2966918945312
216,795.7875366210938,794.981689453125,792.967041015625,782.893798828125
217,796.1904907226562,794.1758422851562,793.3699340820312,787.3259887695312
218,790.952392578125,796.5933837890625,797.8021850585938,792.1611938476562
219,786.923095703125,791.3552856445312,799.4139404296875,796.1904907226562
220,781.6849975585938,788.1318969726562,800.6226806640625,783.6996459960938
221,789.3406372070312,788.1318969726562,800.6226806640625,782.893798828125
222,796.5933837890625,791.7582397460938,802.2344360351562,795.3846435546875
223,792.5640869140625,796.996337890625,799.8168334960938,792.5640869140625
224,796.1904907226562,796.5933837890625,800.2197875976562,781.6849975585938
225,795.7875366210938,798.6080322265625,801.8314819335938,780.879150390625
226,784.908447265625,797.8021850585938,796.996337890625,786.923095703125
227,789.3406372070312,796.5933837890625,794.1758422851562,790.5494384765625
228,797.8021850585938,793.7728881835938,794.5787353515625,789.7435913085938
229,795.3846435546875,792.5640869140625,797.8021850585938,796.996337890625
230,792.5640869140625,791.7582397460938,799.4139404296875,800.2197875976562
231,790.5494384765625,788.5347900390625,800.6226806640625,793.7728881835938
232,791.7582397460938,787.3259887695312,796.5933837890625,790.952392578125
233,784.908447265625,790.5494384765625,794.1758422851562,784.908447265625
234,782.087890625,792.5640869140625,794.981689453125,780.4761962890625
235,788.1318969726562,791.3552856445312,791.7582397460938,780.879150390625
236,793.7728881835938,790.1465454101562,794.5787353515625,783.6996459960938
237,794.981689453125,791.3552856445312,795.7875366210938,786.1171875
238,792.967041015625,796.1904907226562,796.5933837890625,788.1318969726562
239,787.7289428710938,792.967041015625,801.025634765625,785.7142944335938
240,781.6849975585938,784.5054931640625,796.996337890625,782.4908447265625
241,781.2820434570312,786.1171875,795.7875366210938,785.3113403320312
242,779.6703491210938,793.7728881835938,795.3846435546875,788.1318969726562
243,792.967041015625,796.1904907226562,796.996337890625,791.7582397460938
244,803.4432373046875,794.5787353515625,802.6373901367188,796.1904907226562
245,792.5640869140625,791.7582397460938,800.6226806640625,795.7875366210938
246,786.1171875,791.3552856445312,798.6080322265625,787.7289428710938
247,783.2966918945312,789.3406372070312,795.7875366210938,781.6849975585938
248,784.908447265625,788.5347900390625,793.7728881835938,787.7289428710938
249,790.952392578125,790.952392578125,798.2051391601562,791.7582397460938
250,787.3259887695312,791.3552856445312,801.4285888671875,794.1758422851562
251,782.4908447265625,788.1318969726562,803.4432373046875,794.5787353515625
252,798.2051391601562,791.7582397460938,804.6520385742188,801.025634765625
253,806.2637329101562,796.1904907226562,802.6373901367188,809.89013671875
254,789.7435913085938,795.3846435546875,793.7728881835938,794.981689453125
255,782.087890625,792.967041015625,798.2051391601562,782.893798828125
256,791.7582397460938,792.1611938476562,801.8314819335938,785.3113403320312
257,802.6373901367188,792.967041015625,795.7875366210938,787.7289428710938
258,805.054931640625,792.1611938476562,793.7728881835938,785.7142944335938
259,791.3552856445312,794.981689453125,789.3406372070312,780.879150390625
260,776.8497924804688,793.3699340820312,788.5347900390625,776.4468994140625
261,766.7765502929688,787.7289428710938,792.1611938476562,778.05859375
262,770.4029541015625,789.3406372070312,792.5640869140625,779.6703491210938
263,782.893798828125,785.7142944335938,793.3699340820312,782.087890625
264,788.1318969726562,782.893798828125,792.1611938476562,791.7582397460938
265,779.2673950195312,787.7289428710938,788.937744140625,794.981689453125
266,776.0439453125,788.5347900390625,792.5640869140625,794.1758422851562
267,792.5640869140625,794.981689453125,796.5933837890625,789.3406372070312
268,798.2051391601562,798.2051391601562,797.3992919921875,797.8021850585938
269,796.5933837890625,796.1904907226562,800.6226806640625,806.2637329101562
270,791.7582397460938,792.967041015625,800.2197875976562,792.5640869140625
271,782.893798828125,788.5347900390625,796.5933837890625,783.2966918945312
272,792.5640869140625,791.3552856445312,797.3992919921875,785.7142944335938
273,807.4725341796875,791.7582397460938,798.2051391601562,786.5201416015625
274,797.8021850585938,792.1611938476562,793.7728881835938,788.5347900390625
275,791.3552856445312,794.1758422851562,788.5347900390625,788.1318969726562
276,793.3699340820312,793.7728881835938,791.3552856445312,785.3113403320312
277,784.908447265625,786.5201416015625,794.1758422851562,782.087890625
278,784.5054931640625,780.0732421875,792.967041015625,781.2820434570312
279,786.923095703125,786.923095703125,794.5787353515625,789.3406372070312
280,777.2527465820312,790.1465454101562,795.7875366210938,792.5640869140625
281,768.3883056640625,790.1465454101562,794.981689453125,783.2966918945312
282,782.893798828125,792.5640869140625,794.981689453125,782.4908447265625
283,787.3259887695312,794.981689453125,793.7728881835938,783.2966918945312
284,771.2088012695312,788.1318969726562,790.952392578125,786.923095703125
285,772.8204956054688,784.5054931640625,791.7582397460938,780.879150390625
286,783.6996459960938,787.3259887695312,794.1758422851562,776.0439453125
287,784.908447265625,794.1758422851562,792.1611938476562,781.6849975585938
288,784.1025390625,796.1904907226562,791.3552856445312,788.1318969726562
289,791.3552856445312,789.3406372070312,795.3846435546875,786.1171875
290,796.5933837890625,788.937744140625,796.5933837890625,782.893798828125
291,791.7582397460938,786.923095703125,794.5787353515625,791.3552856445312
292,782.893798828125,784.908447265625,794.5787353515625,793.3699340820312
293,788.937744140625,786.1171875,796.5933837890625,788.1318969726562
294,801.025634765625,788.5347900390625,800.6226806640625,794.1758422851562
295,794.5787353515625,791.3552856445312,800.6226806640625,798.2051391601562
296,795.3846435546875,791.3552856445312,799.4139404296875,796.996337890625
297,794.981689453125,792.967041015625,799.010986328125,795.7875366210938
298,792.967041015625,797.3992919921875,798.2051391601562,796.5933837890625
299,794.1758422851562,794.981689453125,796.1904907226562,798.6080322265625
300,791.3552856445312,784.908447265625,792.967041015625,792.967041015625
301,797.3992919921875,780.879150390625,789.7435913085938,788.937744140625
302,792.1611938476562,794.1758422851562,792.5640869140625,791.3552856445312
303,793.7728881835938,803.040283203125,796.5933837890625,801.8314819335938
304,804.2490844726562,802.6373901367188,795.7875366210938,801.4285888671875
305,808.2783813476562,800.6226806640625,794.1758422851562,802.2344360351562
306,808.2783813476562,799.010986328125,794.1758422851562,798.6080322265625
307,806.6666870117188,799.010986328125,792.967041015625,788.1318969726562
308,801.025634765625,796.1904907226562,791.7582397460938,785.7142944335938
309,789.7435913085938,789.3406372070312,790.5494384765625,786.1171875
310,789.7435913085938,786.5201416015625,791.7582397460938,789.3406372070312
311,792.5640869140625,787.3259887695312,794.981689453125,791.3552856445312
312,784.908447265625,790.952392578125,796.1904907226562,795.7875366210938
313,782.893798828125,794.5787353515625,799.4139404296875,792.1611938476562
314,789.7435913085938,795.3846435546875,802.2344360351562,796.996337890625
315,791.7582397460938,797.3992919921875,803.040283203125,805.8607788085938
316,793.3699340820312,796.1904907226562,801.4285888671875,791.3552856445312
317,795.3846435546875,796.1904907226562,799.8168334960938,785.3113403320312
318,790.952392578125,792.1611938476562,797.8021850585938,791.3552856445312
319,788.1318969726562,783.6996459960938,794.5787353515625,787.7289428710938
320,789.7435913085938,779.6703491210938,794.1758422851562,782.4908447265625
321,789.3406372070312,784.1025390625,791.3552856445312,784.1025390625
322,787.7289428710938,792.5640869140625,792.1611938476562,780.879150390625
323,787.7289428710938,796.1904907226562,791.3552856445312,779.2673950195312
324,790.1465454101562,794.981689453125,790.952392578125,782.4908447265625
325,786.1171875,792.967041015625,795.3846435546875,789.3406372070312
326,771.6116943359375,786.5201416015625,792.967041015625,798.2051391601562
327,767.1795043945312,784.908447265625,790.5494384765625,790.5494384765625
328,777.2527465820312,786.5201416015625,789.3406372070312,783.2966918945312
329,791.3552856445312,788.1318969726562,789.7435913085938,792.1611938476562
330,793.3699340820312,790.952392578125,792.5640869140625,793.7728881835938
331,784.5054931640625,790.5494384765625,791.3552856445312,786.5201416015625
332,782.4908447265625,791.3552856445312,792.967041015625,789.7435913085938
333,791.3552856445312,796.1904907226562,793.3699340820312,790.952392578125
334,789.7435913085938,796.996337890625,790.5494384765625,787.3259887695312
335,779.2673950195312,792.1611938476562,787.3259887695312,781.2820434570312
336,783.2966918945312,795.3846435546875,787.3259887695312,778.05859375
337,784.5054931640625,789.3406372070312,789.7435913085938,779.2673950195312
338,786.5201416015625,782.893798828125,794.981689453125,779.2673950195312
339,790.5494384765625,790.1465454101562,794.981689453125,780.879150390625
340,784.1025390625,792.5640869140625,794.981689453125,783.6996459960938
341,780.0732421875,790.952392578125,791.3552856445312,793.3699340820312
342,780.0732421875,796.5933837890625,786.1171875,793.7728881835938
343,787.7289428710938,796.1904907226562,789.3406372070312,784.1025390625
344,791.7582397460938,793.3699340820312,791.7582397460938,790.5494384765625
345,788.937744140625,787.3259887695312,786.923095703125,798.2051391601562
346,800.6226806640625,784.1025390625,789.7435913085938,799.4139404296875
347,802.6373901367188,788.1318969726562,791.7582397460938,795.7875366210938
348,790.5494384765625,789.7435913085938,792.1611938476562,793.7728881835938
349,792.967041015625,789.7435913085938,792.5640869140625,797.3992919921875
350,801.025634765625,787.3259887695312,789.7435913085938,797.3992919921875
351,802.6373901367188,786.923095703125,791.7582397460938,792.5640869140625
352,794.981689453125,794.5787353515625,795.3846435546875,790.1465454101562
353,795.3846435546875,799.010986328125,797.8021850585938,791.3552856445312
354,795.7875366210938,795.3846435546875,801.025634765625,792.1611938476562
355,786.923095703125,788.5347900390625,799.4139404296875,794.1758422851562
356,787.7289428710938,790.5494384765625,796.5933837890625,792.5640869140625
357,791.3552856445312,791.3552856445312,792.5640869140625,784.5054931640625
358,788.937744140625,786.1171875,790.952392578125,784.5054931640625
359,783.6996459960938,787.7289428710938,790.952392578125,786.1171875
360,786.5201416015625,788.5347900390625,790.952392578125,788.5347900390625
361,791.7582397460938,786.5201416015625,794.5787353515625,796.5933837890625
362,784.908447265625,787.3259887695312,798.6080322265625,796.5933837890625
363,779.6703491210938,794.1758422851562,798.6080322265625,794.981689453125
364,784.5054931640625,796.996337890625,791.3552856445312,794.5787353515625
365,783.6996459960938,790.1465454101562,787.7289428710938,794.981689453125
366,788.1318969726562,786.923095703125,790.1465454101562,793.7728881835938
367,791.7582397460938,789.7435913085938,791.7582397460938,790.952392578125
368,780.0732421875,796.1904907226562,789.7435913085938,792.967041015625
369,779.6703491210938,794.1758422851562,790.952392578125,793.7728881835938
370,786.923095703125,789.7435913085938,787.3259887695312,790.5494384765625
371,789.3406372070312,792.1611938476562,786.5201416015625,793.7728881835938
372,795.7875366210938,796.996337890625,791.3552856445312,796.996337890625
373,793.7728881835938,799.010986328125,788.937744140625,796.1904907226562
374,788.1318969726562,799.4139404296875,792.1611938476562,793.7728881835938
375,796.1904907226562,801.025634765625,794.5787353515625,798.2051391601562
376,803.4432373046875,801.8314819335938,792.5640869140625,803.4432373046875
377,792.5640869140625,796.996337890625,787.7289428710938,789.7435913085938
378,783.2966918945312,793.7728881835938,782.4908447265625,784.908447265625
379,785.7142944335938,795.7875366210938,783.6996459960938,792.5640869140625
380,780.879150390625,795.7875366210938,780.879150390625,792.5640869140625
381,782.087890625,794.1758422851562,784.5054931640625,793.7728881835938
382,785.3113403320312,790.952392578125,788.1318969726562,794.981689453125
383,784.1025390625,790.1465454101562,788.5347900390625,789.3406372070312
384,783.2966918945312,788.937744140625,784.908447265625,781.6849975585938
385,778.05859375,784.908447265625,783.2966918945312,777.6557006835938
386,774.8351440429688,786.5201416015625,787.3259887695312,780.4761962890625
387,780.879150390625,784.1025390625,786.1171875,780.4761962890625
388,783.2966918945312,778.8644409179688,784.908447265625,775.6410522460938
389,781.6849975585938,779.6703491210938,782.087890625,775.6410522460938
390,786.5201416015625,785.3113403320312,786.1171875,787.7289428710938
391,788.1318969726562,788.5347900390625,793.7728881835938,797.3992919921875
392,787.3259887695312,787.7289428710938,792.5640869140625,796.5933837890625
393,788.5347900390625,788.937744140625,791.3552856445312,796.5933837890625
394,792.5640869140625,797.3992919921875,794.1758422851562,794.1758422851562
395,798.6080322265625,794.981689453125,795.7875366210938,793.3699340820312
396,802.2344360351562,790.952392578125,793.7728881835938,794.981689453125
397,800.2197875976562,796.5933837890625,788.5347900390625,793.7728881835938
398,796.1904907226562,795.7875366210938,787.7289428710938,798.2051391601562
399,792.967041015625,794.5787353515625,794.1758422851562,800.2197875976562
400,790.952392578125,798.6080322265625,804.2490844726562,795.3846435546875
401,792.967041015625,796.5933837890625,805.8607788085938,796.1904907226562
402,786.5201416015625,792.5640869140625,795.7875366210938,787.7289428710938
403,781.6849975585938,797.3992919921875,797.8021850585938,776.0439453125
404,785.7142944335938,795.7875366210938,798.6080322265625,780.4761962890625
405,780.879150390625,794.1758422851562,799.8168334960938,788.1318969726562
406,782.087890625,794.981689453125,800.6226806640625,791.3552856445312
407,788.937744140625,788.5347900390625,794.5787353515625,785.3113403320312
408,789.3406372070312,788.1318969726562,795.3846435546875,779.2673950195312
409,787.3259887695312,792.967041015625,795.3846435546875,782.893798828125
410,779.6703491210938,793.7728881835938,792.1611938476562,784.908447265625
411,788.5347900390625,795.3846435546875,792.1611938476562,791.7582397460938
412,796.996337890625,802.6373901367188,795.7875366210938,796.996337890625
413,799.010986328125,801.025634765625,799.8168334960938,792.967041015625
414,804.2490844726562,795.3846435546875,801.8314819335938,793.3699340820312
415,799.010986328125,798.2051391601562,802.2344360351562,795.3846435546875
416,796.1904907226562,793.3699340820312,799.4139404296875,790.1465454101562
417,794.1758422851562,786.923095703125,796.1904907226562,787.3259887695312
418,794.981689453125,794.5787353515625,794.981689453125,792.1611938476562
419,804.2490844726562,801.025634765625,794.981689453125,790.952392578125
420,803.040283203125,796.5933837890625,794.5787353515625,788.5347900390625
421,794.1758422851562,798.6080322265625,797.3992919921875,793.3699340820312
422,788.937744140625,801.8314819335938,792.1611938476562,793.7728881835938
423,785.3113403320312,798.6080322265625,788.1318969726562,785.3113403320312
424,786.1171875,798.6080322265625,792.967041015625,782.4908447265625
425,788.5347900390625,798.2051391601562,788.937744140625,786.923095703125
426,792.967041015625,796.5933837890625,791.3552856445312,790.1465454101562
427,793.7728881835938,791.7582397460938,796.996337890625,792.1611938476562
428,793.3699340820312,788.1318969726562,793.3699340820312,788.5347900390625
429,786.1171875,789.7435913085938,790.5494384765625,783.6996459960938
430,781.6849975585938,793.3699340820312,791.3552856445312,784.5054931640625
431,792.1611938476562,792.5640869140625,792.5640869140625,787.3259887695312
432,793.7728881835938,797.8021850585938,796.1904907226562,788.937744140625
433,788.1318969726562,799.010986328125,796.5933837890625,792.1611938476562
434,782.4908447265625,789.7435913085938,792.967041015625,789.3406372070312
435,778.8644409179688,783.6996459960938,792.1611938476562,783.2966918945312
436,781.2820434570312,786.923095703125,796.1904907226562,790.952392578125
437,784.1025390625,792.5640869140625,795.7875366210938,797.3992919921875
438,785.7142944335938,789.7435913085938,793.7728881835938,792.967041015625
439,788.5347900390625,781.2820434570312,791.7582397460938,787.7289428710938
440,788.5347900390625,783.6996459960938,790.1465454101562,786.1171875
441,793.3699340820312,793.3699340820312,791.3552856445312,791.7582397460938
442,799.010986328125,800.6226806640625,794.981689453125,796.1904907226562
443,794.5787353515625,799.010986328125,794.1758422851562,797.8021850585938
444,790.1465454101562,797.3992919921875,796.1904907226562,794.1758422851562
445,790.1465454101562,796.5933837890625,797.3992919921875,788.5347900390625
446,797.8021850585938,793.7728881835938,795.3846435546875,790.5494384765625
447,804.6520385742188,793.3699340820312,795.3846435546875,790.1465454101562
448,802.6373901367188,795.3846435546875,797.3992919921875,790.5494384765625
449,803.4432373046875,793.7728881835938,799.8168334960938,798.6080322265625
450,801.025634765625,794.1758422851562,794.5787353515625,787.3259887695312
451,799.4139404296875,792.5640869140625,792.1611938476562,780.879150390625
452,800.6226806640625,789.7435913085938,795.7875366210938,792.5640869140625
453,793.7728881835938,795.3846435546875,796.5933837890625,792.1611938476562
454,783.6996459960938,797.3992919921875,792.5640869140625,788.937744140625
455,783.2966918945312,798.2051391601562,793.7728881835938,792.1611938476562
456,786.923095703125,796.1904907226562,792.967041015625,796.1904907226562
457,790.1465454101562,792.1611938476562,795.7875366210938,799.4139404296875
458,796.1904907226562,790.5494384765625,799.4139404296875,796.1904907226562
459,790.5494384765625,787.7289428710938,794.5787353515625,784.1025390625
460,788.5347900390625,789.3406372070312,791.3552856445312,785.7142944335938
461,793.3699340820312,794.5787353515625,789.7435913085938,790.5494384765625
462,792.967041015625,795.3846435546875,787.3259887695312,786.5201416015625
463,788.5347900390625,789.3406372070312,788.5347900390625,786.923095703125
464,782.893798828125,791.7582397460938,792.967041015625,790.5494384765625
465,784.5054931640625,792.5640869140625,796.5933837890625,793.7728881835938
466,788.5347900390625,786.923095703125,793.7728881835938,795.3846435546875
467,796.5933837890625,790.1465454101562,792.1611938476562,796.5933837890625
468,797.3992919921875,789.3406372070312,791.3552856445312,792.1611938476562
469,784.1025390625,780.879150390625,788.937744140625,785.3113403320312
470,780.4761962890625,787.7289428710938,787.7289428710938,783.6996459960938
471,790.1465454101562,793.3699340820312,788.1318969726562,782.4908447265625
472,800.6226806640625,797.3992919921875,794.1758422851562,792.967041015625
473,801.4285888671875,797.8021850585938,797.3992919921875,791.7582397460938
474,796.5933837890625,794.981689453125,794.1758422851562,786.1171875
475,784.908447265625,799.010986328125,791.3552856445312,784.1025390625
476,779.2673950195312,797.8021850585938,791.3552856445312,785.3113403320312
477,788.1318969726562,796.5933837890625,790.952392578125,789.3406372070312
478,795.3846435546875,796.996337890625,788.937744140625,794.1758422851562
479,802.2344360351562,794.5787353515625,788.937744140625,802.6373901367188
480,798.2051391601562,791.3552856445312,792.5640869140625,794.981689453125
481,790.5494384765625,789.7435913085938,796.5933837890625,789.3406372070312
482,788.937744140625,787.3259887695312,797.8021850585938,789.3406372070312
483,785.3113403320312,792.5640869140625,796.996337890625,791.7582397460938
484,784.908447265625,795.7875366210938,801.025634765625,801.4285888671875
485,777.6557006835938,798.6080322265625,804.6520385742188,796.1904907226562
486,775.2380981445312,801.4285888671875,799.4139404296875,796.996337890625
487,793.7728881835938,800.2197875976562,797.3992919921875,800.6226806640625
488,804.2490844726562,796.5933837890625,801.4285888671875,798.2051391601562
489,796.996337890625,796.5933837890625,801.8314819335938,801.4285888671875
490,798.2051391601562,799.010986328125,799.010986328125,793.3699340820312
491,803.040283203125,798.6080322265625,793.7728881835938,787.3259887695312
492,799.8168334960938,796.5933837890625,791.3552856445312,794.5787353515625
493,794.5787353515625,796.1904907226562,792.1611938476562,799.4139404296875
494,788.5347900390625,794.1758422851562,789.3406372070312,796.996337890625
495,783.6996459960938,791.3552856445312,794.1758422851562,798.6080322265625
496,786.5201416015625,797.3992919921875,799.4139404296875,799.8168334960938
497,794.1758422851562,797.8021850585938,798.2051391601562,796.5933837890625
498,800.6226806640625,793.7728881835938,794.1758422851562,794.5787353515625
499,796.996337890625,797.3992919921875,788.937744140625,785.3113403320312
500,792.1611938476562,798.6080322265625,790.1465454101562,779.6703491210938
501,790.5494384765625,795.3846435546875,792.967041015625,786.5201416015625
502,792.967041015625,800.6226806640625,793.3699340820312,797.8021850585938
503,798.2051391601562,799.010986328125,798.2051391601562,799.4139404296875
504,799.4139404296875,799.8168334960938,799.8168334960938,792.967041015625
505,787.3259887695312,796.5933837890625,799.010986328125,790.1465454101562
506,773.6264038085938,783.2966918945312,795.3846435546875,789.3406372070312
507,782.4908447265625,785.7142944335938,794.1758422851562,792.967041015625
508,792.967041015625,793.3699340820312,794.981689453125,793.7728881835938
509,801.8314819335938,786.923095703125,793.3699340820312,792.967041015625
510,801.025634765625,788.5347900390625,795.3846435546875,791.7582397460938
511,794.1758422851562,796.5933837890625,795.7875366210938,787.3259887695312
512,791.7582397460938,794.981689453125,793.7728881835938,786.5201416015625
513,793.3699340820312,794.1758422851562,798.2051391601562,796.5933837890625
514,800.2197875976562,794.981689453125,801.8314819335938,798.6080322265625
515,803.4432373046875,794.1758422851562,799.4139404296875,790.5494384765625
516,798.6080322265625,795.7875366210938,799.8168334960938,787.3259887695312
517,795.3846435546875,800.2197875976562,801.025634765625,789.7435913085938
518,796.5933837890625,800.2197875976562,799.8168334960938,796.5933837890625
519,793.3699340820312,797.8021850585938,797.3992919921875,789.7435913085938
520,788.937744140625,795.3846435546875,796.996337890625,785.7142944335938
521,784.908447265625,796.5933837890625,792.967041015625,785.7142944335938
522,782.087890625,802.2344360351562,792.1611938476562,784.1025390625
523,778.4615478515625,797.3992919921875,794.1758422851562,778.4615478515625
524,781.6849975585938,794.981689453125,792.5640869140625,773.6264038085938
525,793.3699340820312,797.8021850585938,791.7582397460938,779.6703491210938
526,792.967041015625,794.981689453125,794.981689453125,784.1025390625
527,793.3699340820312,792.1611938476562,795.7875366210938,779.2673950195312
528,804.6520385742188,790.1465454101562,796.5933837890625,778.4615478515625
529,801.8314819335938,784.5054931640625,794.1758422851562,785.3113403320312
530,793.3699340820312,782.087890625,791.7582397460938,786.1171875
531,786.1171875,782.893798828125,796.1904907226562,783.2966918945312
532,785.3113403320312,779.6703491210938,793.3699340820312,785.3113403320312
533,792.1611938476562,777.6557006835938,788.5347900390625,789.7435913085938
534,792.967041015625,778.8644409179688,788.1318969726562,793.3699340820312
535,794.981689453125,781.6849975585938,788.5347900390625,793.3699340820312
536,792.5640869140625,778.4615478515625,791.3552856445312,793.7728881835938
537,778.8644409179688,777.6557006835938,791.3552856445312,800.6226806640625
538,778.05859375,784.1025390625,792.1611938476562,801.025634765625
539,781.6849975585938,779.6703491210938,789.7435913085938,792.5640869140625
540,779.2673950195312,783.2966918945312,786.5201416015625,790.952392578125
541,778.4615478515625,786.923095703125,787.3259887695312,794.981689453125
542,777.6557006835938,781.6849975585938,788.1318969726562,791.7582397460938
543,784.1025390625,785.3113403320312,788.1318969726562,787.3259887695312
544,790.952392578125,788.5347900390625,786.923095703125,787.7289428710938
545,798.6080322265625,787.3259887695312,788.5347900390625,788.5347900390625
546,800.2197875976562,791.7582397460938,792.967041015625,786.923095703125
547,788.937744140625,791.3552856445312,796.1904907226562,785.3113403320312
548,790.952392578125,787.3259887695312,794.1758422851562,783.6996459960938
549,795.3846435546875,793.7728881835938,794.5787353515625,780.879150390625
550,800.6226806640625,798.6080322265625,795.3846435546875,782.087890625
551,804.2490844726562,795.3846435546875,792.5640869140625,782.087890625
552,798.2051391601562,796.1904907226562,793.7728881835938,782.4908447265625
553,793.3699340820312,794.981689453125,794.981689453125,782.087890625
554,792.1611938476562,794.5787353515625,797.3992919921875,785.3113403320312
555,796.1904907226562,796.1904907226562,797.3992919921875,784.908447265625
556,792.5640869140625,791.7582397460938,794.5787353515625,789.3406372070312
557,787.7289428710938,790.1465454101562,795.7875366210938,799.010986328125
558,787.7289428710938,793.3699340820312,798.2051391601562,793.7728881835938
559,784.5054931640625,792.1611938476562,797.3992919921875,789.7435913085938
560,786.923095703125,790.1465454101562,796.5933837890625,788.5347900390625
561,792.5640869140625,787.7289428710938,798.2051391601562,792.1611938476562
562,791.3552856445312,786.5201416015625,796.1904907226562,794.1758422851562
563,780.0732421875,786.5201416015625,793.3699340820312,788.1318969726562
564,782.087890625,788.1318969726562,796.1904907226562,790.1465454101562
565,784.5054931640625,792.5640869140625,796.996337890625,792.967041015625
566,783.6996459960938,796.5933837890625,796.5933837890625,787.3259887695312
567,782.4908447265625,795.7875366210938,797.3992919921875,783.2966918945312
568,784.1025390625,793.3699340820312,797.3992919921875,784.5054931640625
569,790.952392578125,792.967041015625,793.3699340820312,786.923095703125
570,789.3406372070312,797.3992919921875,791.3552856445312,785.3113403320312
571,784.1025390625,799.010986328125,792.1611938476562,785.3113403320312
572,784.908447265625,798.2051391601562,792.967041015625,789.7435913085938
573,786.5201416015625,799.010986328125,791.7582397460938,787.3259887695312
574,786.923095703125,796.996337890625,787.7289428710938,780.0732421875
575,786.923095703125,794.1758422851562,788.937744140625,785.3113403320312
576,783.6996459960938,793.7728881835938,794.5787353515625,796.1904907226562
577,780.0732421875,797.3992919921875,796.5933837890625,790.1465454101562
578,781.6849975585938,805.8607788085938,797.3992919921875,783.6996459960938
579,789.3406372070312,805.4578857421875,799.010986328125,789.7435913085938
580,787.7289428710938,805.4578857421875,798.6080322265625,792.5640869140625
581,782.893798828125,807.069580078125,796.5933837890625,779.2673950195312
582,781.2820434570312,803.4432373046875,795.7875366210938,772.0146484375
583,772.4176025390625,802.2344360351562,796.996337890625,770.4029541015625
584,764.3589477539062,801.025634765625,795.3846435546875,762.3442993164062
585,759.120849609375,800.2197875976562,789.7435913085938,754.2857055664062
586,762.3442993164062,813.113525390625,798.6080322265625,758.3150024414062
587,758.7179565429688,829.6337280273438,803.040283203125,758.7179565429688
588,741.7948608398438,830.4395751953125,792.967041015625,747.4359130859375
589,736.1538696289062,834.8717651367188,791.7582397460938,736.959716796875
590,741.7948608398438,848.1685180664062,790.952392578125,734.945068359375
591,741.3919677734375,852.1978149414062,786.923095703125,734.5421142578125
592,736.959716796875,855.4212646484375,780.879150390625,722.05126953125
593,726.08056640625,855.018310546875,779.2673950195312,712.3809814453125
594,710.7692260742188,855.8241577148438,782.893798828125,705.93408203125
595,708.7545776367188,864.6886596679688,785.3113403320312,703.91943359375
596,707.94873046875,869.120849609375,787.3259887695312,700.2930297851562
597,695.4578857421875,865.8974609375,787.3259887695312,687.8021850585938
598,689.010986328125,866.7033081054688,784.1025390625,681.3552856445312
599,693.8461303710938,872.7472534179688,786.923095703125,689.010986328125
600,694.2490844726562,870.7326049804688,789.7435913085938,697.069580078125
601,697.4725341796875,865.091552734375,789.3406372070312,700.6959838867188
602,705.93408203125,862.2710571289062,789.7435913085938,702.7106323242188
603,709.1575317382812,859.4505615234375,783.2966918945312,706.3369750976562
604,711.5750732421875,856.6300659179688,780.4761962890625,708.3516235351562
605,725.2747192382812,850.1831665039062,780.879150390625,717.6190185546875
606,734.1392211914062,845.7509155273438,786.923095703125,727.6923217773438
607,740.1831665039062,847.3626098632812,791.3552856445312,731.7216186523438
608,754.6886596679688,842.12451171875,788.5347900390625,737.7655639648438
609,760.7326049804688,827.2161254882812,787.7289428710938,750.6593627929688
610,762.3442993164062,816.7399291992188,783.2966918945312,767.9853515625
611,769.1941528320312,814.7252807617188,780.4761962890625,778.05859375
612,782.4908447265625,813.91943359375,784.908447265625,786.5201416015625
613,791.3552856445312,803.040283203125,790.952392578125,798.2051391601562
614,789.7435913085938,799.010986328125,794.5787353515625,803.8461303710938
615,797.3992919921875,795.3846435546875,797.8021850585938,805.054931640625
616,813.91943359375,784.908447265625,796.1904907226562,807.069580078125
617,814.7252807617188,782.893798828125,795.7875366210938,811.098876953125
618,819.1575317382812,776.8497924804688,794.5787353515625,815.1282348632812
619,822.7838745117188,774.8351440429688,788.1318969726562,815.93408203125
620,812.7106323242188,770.4029541015625,788.937744140625,816.7399291992188
621,818.3516235351562,767.1795043945312,793.3699340820312,834.06591796875
622,825.2014770507812,767.5823974609375,788.1318969726562,836.08056640625
623,818.3516235351562,762.7472534179688,786.1171875,826.4102783203125
624,817.5457763671875,766.3735961914062,794.5787353515625,831.2454223632812
625,827.6190185546875,763.9560546875,794.981689453125,833.6630249023438
626,832.4542236328125,754.2857055664062,793.7728881835938,833.6630249023438
627,832.05126953125,757.5091552734375,794.981689453125,832.8571166992188
628,832.05126953125,758.3150024414062,793.3699340820312,828.02197265625
629,830.03662109375,757.912109375,798.2051391601562,836.4835205078125
630,836.08056640625,763.5531005859375,797.8021850585938,838.901123046875
631,838.901123046875,765.970703125,792.5640869140625,830.8424682617188
632,826.00732421875,764.3589477539062,794.5787353515625,826.4102783203125
633,822.7838745117188,766.3735961914062,797.8021850585938,823.1868286132812
634,823.99267578125,768.3883056640625,799.010986328125,824.7985229492188
635,820.7692260742188,765.5677490234375,797.8021850585938,823.99267578125
636,825.2014770507812,762.3442993164062,796.5933837890625,823.5897216796875
637,828.02197265625,763.1502075195312,797.8021850585938,825.2014770507812
638,819.1575317382812,769.5970458984375,799.8168334960938,821.5750732421875
639,817.1428833007812,772.4176025390625,801.8314819335938,824.3956298828125
640,820.7692260742188,770.0,801.4285888671875,827.2161254882812
641,825.2014770507812,768.7911987304688,801.4285888671875,834.8717651367188
642,829.2307739257812,775.6410522460938,803.040283203125,834.06591796875
643,831.6483764648438,780.4761962890625,804.6520385742188,826.8131713867188
644,828.02197265625,778.8644409179688,802.6373901367188,821.1721801757812
645,819.96337890625,772.0146484375,799.8168334960938,814.7252807617188
646,818.3516235351562,774.4322509765625,802.6373901367188,821.1721801757812
647,829.2307739257812,780.4761962890625,801.4285888671875,827.2161254882812
648,821.5750732421875,777.6557006835938,794.1758422851562,818.3516235351562
649,806.2637329101562,774.8351440429688,792.5640869140625,813.5164794921875
650,808.6813354492188,777.6557006835938,797.3992919921875,814.3223266601562
651,813.5164794921875,781.2820434570312,798.6080322265625,813.113525390625
652,813.91943359375,783.2966918945312,797.3992919921875,818.7545776367188
653,815.1282348632812,784.5054931640625,799.4139404296875,821.97802734375
654,816.7399291992188,789.7435913085938,801.4285888671875,818.3516235351562
655,817.5457763671875,793.7728881835938,803.040283203125,817.1428833007812
656,821.1721801757812,783.6996459960938,800.6226806640625,815.1282348632812
657,823.1868286132812,776.0439453125,798.6080322265625,811.90478515625
658,830.4395751953125,780.4761962890625,799.010986328125,811.098876953125
659,821.5750732421875,786.5201416015625,799.010986328125,813.5164794921875
660,797.3992919921875,785.3113403320312,797.8021850585938,815.1282348632812
661,797.8021850585938,780.4761962890625,794.981689453125,810.6959838867188
662,801.8314819335938,780.4761962890625,794.981689453125,806.2637329101562
663,801.025634765625,785.7142944335938,797.8021850585938,806.6666870117188
664,799.010986328125,784.908447265625,794.1758422851562,807.4725341796875
665,795.7875366210938,785.7142944335938,794.1758422851562,803.040283203125
666,799.4139404296875,786.5201416015625,799.8168334960938,796.996337890625
667,798.2051391601562,784.1025390625,796.1904907226562,800.6226806640625
668,795.7875366210938,782.893798828125,799.010986328125,809.084228515625
669,794.981689453125,787.3259887695312,799.010986328125,809.89013671875
670,802.6373901367188,786.1171875,792.5640869140625,801.8314819335938
671,815.1282348632812,784.1025390625,796.5933837890625,800.6226806640625
672,808.2783813476562,785.7142944335938,801.4285888671875,801.4285888671875
673,798.2051391601562,785.3113403320312,800.2197875976562,799.010986328125
674,795.3846435546875,784.908447265625,800.2197875976562,800.6226806640625
675,792.967041015625,783.6996459960938,798.6080322265625,800.2197875976562
676,797.3992919921875,784.908447265625,798.2051391601562,804.6520385742188
677,802.2344360351562,785.7142944335938,797.8021850585938,800.6226806640625
678,807.069580078125,787.3259887695312,796.1904907226562,799.010986328125
679,802.2344360351562,786.5201416015625,794.5787353515625,805.054931640625
680,800.6226806640625,783.6996459960938,795.3846435546875,795.7875366210938
681,803.4432373046875,785.3113403320312,797.3992919921875,786.5201416015625
682,803.040283203125,790.1465454101562,795.7875366210938,787.3259887695312
683,801.4285888671875,786.5201416015625,792.5640869140625,789.3406372070312
684,794.5787353515625,783.6996459960938,791.7582397460938,788.937744140625
685,794.981689453125,790.5494384765625,790.952392578125,787.7289428710938
686,796.996337890625,790.5494384765625,789.3406372070312,788.1318969726562
687,787.7289428710938,789.7435913085938,790.952392578125,796.996337890625
688,792.5640869140625,793.7728881835938,795.7875366210938,798.6080322265625
689,795.3846435546875,786.923095703125,796.1904907226562,792.5640869140625
690,795.3846435546875,786.5201416015625,793.3699340820312,799.010986328125
691,801.8314819335938,792.967041015625,793.3699340820312,802.6373901367188
692,807.4725341796875,791.7582397460938,790.1465454101562,799.4139404296875
693,801.4285888671875,791.7582397460938,783.2966918945312,792.1611938476562
694,793.7728881835938,790.5494384765625,784.5054931640625,789.3406372070312
695,792.1611938476562,790.5494384765625,792.1611938476562,790.952392578125
696,788.1318969726562,790.952392578125,793.7728881835938,784.5054931640625
697,797.3992919921875,786.923095703125,791.3552856445312,786.1171875
698,802.6373901367188,781.6849975585938,787.3259887695312,792.1611938476562
699,796.5933837890625,780.4761962890625,792.5640869140625,798.6080322265625
700,798.2051391601562,785.3113403320312,796.5933837890625,797.3992919921875
701,792.1611938476562,784.1025390625,796.5933837890625,794.981689453125
702,794.1758422851562,780.879150390625,797.8021850585938,800.2197875976562
703,801.8314819335938,784.908447265625,796.5933837890625,799.010986328125
704,795.3846435546875,791.3552856445312,794.981689453125,794.5787353515625
705,792.967041015625,796.1904907226562,797.8021850585938,795.7875366210938
706,796.5933837890625,797.3992919921875,799.4139404296875,794.5787353515625
707,786.5201416015625,792.5640869140625,797.8021850585938,786.5201416015625
708,788.937744140625,789.3406372070312,795.3846435546875,787.3259887695312
709,797.3992919921875,793.7728881835938,799.8168334960938,790.1465454101562
710,792.967041015625,788.5347900390625,805.4578857421875,793.3699340820312
711,792.1611938476562,786.923095703125,801.025634765625,800.2197875976562
712,794.5787353515625,792.1611938476562,794.981689453125,792.5640869140625
713,792.967041015625,790.952392578125,795.7875366210938,786.1171875
714,794.981689453125,791.7582397460938,792.5640869140625,789.7435913085938
715,793.3699340820312,790.1465454101562,789.3406372070312,788.5347900390625
716,788.5347900390625,791.3552856445312,793.3699340820312,784.1025390625
717,789.3406372070312,794.1758422851562,791.7582397460938,786.1171875
718,792.967041015625,792.5640869140625,787.7289428710938,788.1318969726562
719,794.981689453125,792.1611938476562,789.7435913085938,788.5347900390625
720,792.967041015625,792.5640869140625,794.1758422851562,793.3699340820312
721,787.7289428710938,791.7582397460938,796.5933837890625,794.981689453125
722,785.3113403320312,790.1465454101562,795.3846435546875,791.3552856445312
723,793.3699340820312,789.3406372070312,792.967041015625,788.937744140625
724,795.7875366210938,794.5787353515625,791.3552856445312,788.5347900390625
725,795.3846435546875,797.8021850585938,795.3846435546875,798.2051391601562
726,795.3846435546875,799.010986328125,799.8168334960938,799.8168334960938
727,796.1904907226562,798.2051391601562,799.010986328125,799.4139404296875
728,799.8168334960938,798.2051391601562,798.6080322265625,799.4139404296875
729,802.6373901367188,792.967041015625,797.8021850585938,803.040283203125
730,805.4578857421875,793.7728881835938,796.5933837890625,805.8607788085938
731,799.8168334960938,799.8168334960938,797.3992919921875,794.1758422851562
732,796.996337890625,793.3699340820312,797.8021850585938,794.981689453125
733,806.2637329101562,790.952392578125,794.5787353515625,801.025634765625
734,806.2637329101562,796.1904907226562,795.3846435546875,801.025634765625
735,805.4578857421875,795.7875366210938,795.3846435546875,797.3992919921875
736,805.8607788085938,789.7435913085938,794.1758422851562,794.1758422851562
737,804.6520385742188,792.1611938476562,797.3992919921875,799.4139404296875
738,799.010986328125,796.1904907226562,796.5933837890625,796.5933837890625
739,787.7289428710938,797.3992919921875,794.981689453125,794.981689453125
740,789.7435913085938,797.3992919921875,798.6080322265625,796.996337890625
741,793.3699340820312,793.7728881835938,799.4139404296875,791.7582397460938
742,792.967041015625,796.1904907226562,802.6373901367188,789.7435913085938
743,795.3846435546875,799.010986328125,802.2344360351562,791.7582397460938
744,795.3846435546875,797.3992919921875,798.2051391601562,791.3552856445312
745,790.5494384765625,794.5787353515625,798.6080322265625,791.7582397460938
746,786.5201416015625,791.3552856445312,799.4139404296875,792.5640869140625
747,782.4908447265625,790.5494384765625,796.996337890625,789.7435913085938
748,779.6703491210938,790.1465454101562,794.5787353515625,793.3699340820312
749,778.05859375,792.5640869140625,797.8021850585938,795.3846435546875
750,781.6849975585938,796.1904907226562,799.010986328125,791.3552856445312
751,788.937744140625,793.3699340820312,796.996337890625,790.5494384765625
752,789.7435913085938,790.952392578125,800.2197875976562,793.3699340820312
753,786.923095703125,794.5787353515625,799.4139404296875,794.5787353515625
754,789.3406372070312,790.5494384765625,796.1904907226562,793.3699340820312
755,795.3846435546875,785.7142944335938,800.6226806640625,792.5640869140625
756,797.8021850585938,788.937744140625,799.8168334960938,797.3992919921875
757,792.5640869140625,797.3992919921875,800.2197875976562,801.025634765625
758,791.3552856445312,798.6080322265625,799.4139404296875,794.5787353515625
759,796.1904907226562,792.5640869140625,791.3552856445312,789.3406372070312
760,797.3992919921875,791.7582397460938,790.1465454101562,793.3699340820312
761,800.2197875976562,790.952392578125,796.996337890625,795.7875366210938
762,804.6520385742188,794.1758422851562,799.8168334960938,796.996337890625
763,799.8168334960938,796.996337890625,799.4139404296875,797.3992919921875
764,798.6080322265625,795.3846435546875,797.8021850585938,797.3992919921875
765,800.6226806640625,794.981689453125,795.7875366210938,795.7875366210938
766,797.3992919921875,790.5494384765625,800.2197875976562,790.952392578125
767,794.981689453125,786.5201416015625,797.8021850585938,786.5201416015625
768,794.1758422851562,785.7142944335938,791.7582397460938,787.7289428710938
769,790.5494384765625,786.923095703125,794.5787353515625,786.1171875
770,785.3113403320312,786.1171875,796.1904907226562,783.6996459960938
771,786.923095703125,784.908447265625,797.8021850585938,790.952392578125
772,784.5054931640625,784.5054931640625,796.1904907226562,794.981689453125
773,784.908447265625,788.1318969726562,795.7875366210938,784.5054931640625
774,793.7728881835938,790.5494384765625,800.6226806640625,784.1025390625
775,799.4139404296875,790.5494384765625,801.8314819335938,793.3699340820312
776,797.8021850585938,795.7875366210938,802.2344360351562,792.5640869140625
777,792.967041015625,796.5933837890625,801.8314819335938,792.1611938476562
778,792.5640869140625,793.3699340820312,801.4285888671875,794.1758422851562
779,790.5494384765625,794.1758422851562,798.2051391601562,793.3699340820312
780,794.5787353515625,798.6080322265625,795.3846435546875,799.010986328125
781,799.8168334960938,796.1904907226562,798.2051391601562,797.8021850585938
782,799.010986328125,790.1465454101562,796.1904907226562,792.967041015625
783,800.6226806640625,792.967041015625,791.7582397460938,802.6373901367188
784,798.6080322265625,790.5494384765625,793.3699340820312,801.8314819335938
785,799.4139404296875,784.908447265625,795.7875366210938,794.981689453125
786,798.6080322265625,790.1465454101562,794.981689453125,797.8021850585938
787,795.7875366210938,795.7875366210938,795.7875366210938,800.6226806640625
788,795.7875366210938,795.7875366210938,795.7875366210938,796.1904907226562
789,794.981689453125,799.010986328125,796.1904907226562,792.5640869140625
790,797.3992919921875,799.4139404296875,795.7875366210938,797.8021850585938
791,798.2051391601562,802.2344360351562,794.981689453125,794.1758422851562
792,795.3846435546875,808.2783813476562,796.1904907226562,792.1611938476562
793,788.937744140625,805.4578857421875,797.3992919921875,790.952392578125
794,789.7435913085938,803.8461303710938,799.010986328125,792.5640869140625
795,790.952392578125,801.8314819335938,794.1758422851562,794.1758422851562
796,792.5640869140625,801.8314819335938,796.1904907226562,792.5640869140625
797,801.4285888671875,807.87548828125,801.025634765625,799.010986328125
798,802.2344360351562,805.054931640625,797.8021850585938,799.010986328125
799,796.5933837890625,801.8314819335938,794.981689453125,794.1758422851562
800,791.7582397460938,801.8314819335938,796.996337890625,796.5933837890625
801,794.5787353515625,796.996337890625,801.8314819335938,797.3992919921875
802,798.6080322265625,794.5787353515625,800.6226806640625,791.7582397460938
803,796.996337890625,792.1611938476562,794.5787353515625,788.1318969726562
804,799.010986328125,792.5640869140625,795.7875366210938,794.1758422851562
805,796.5933837890625,791.3552856445312,791.7582397460938,795.7875366210938
806,792.5640869140625,789.7435913085938,791.7582397460938,800.2197875976562
807,790.5494384765625,795.7875366210938,792.1611938476562,799.8168334960938
808,792.967041015625,797.8021850585938,789.7435913085938,790.1465454101562
809,798.2051391601562,795.7875366210938,789.3406372070312,790.1465454101562
810,798.2051391601562,793.3699340820312,789.7435913085938,794.5787353515625
811,790.952392578125,791.7582397460938,793.3699340820312,788.1318969726562
812,787.7289428710938,793.3699340820312,791.7582397460938,784.908447265625
813,784.1025390625,791.7582397460938,787.3259887695312,781.6849975585938
814,782.893798828125,792.5640869140625,788.1318969726562,781.2820434570312
815,781.2820434570312,794.1758422851562,790.5494384765625,782.893798828125
816,777.2527465820312,789.3406372070312,790.5494384765625,776.0439453125
817,782.087890625,784.5054931640625,790.5494384765625,778.8644409179688
818,782.893798828125,787.3259887695312,795.7875366210938,786.1171875
819,782.087890625,791.7582397460938,796.1904907226562,786.923095703125
820,788.937744140625,791.3552856445312,793.7728881835938,791.7582397460938
821,783.6996459960938,786.923095703125,786.5201416015625,792.1611938476562
822,777.2527465820312,787.3259887695312,784.5054931640625,786.1171875
823,783.6996459960938,791.7582397460938,787.7289428710938,777.6557006835938
824,794.1758422851562,789.7435913085938,787.3259887695312,780.0732421875
825,794.1758422851562,790.5494384765625,787.3259887695312,788.937744140625
826,792.5640869140625,791.3552856445312,788.1318969726562,789.3406372070312
827,792.1611938476562,786.5201416015625,790.952392578125,784.908447265625
828,799.010986328125,786.5201416015625,790.952392578125,786.1171875
829,798.2051391601562,788.937744140625,790.1465454101562,788.1318969726562
830,787.3259887695312,792.967041015625,787.3259887695312,784.908447265625
831,791.3552856445312,794.981689453125,788.1318969726562,790.952392578125
832,792.967041015625,793.7728881835938,786.5201416015625,793.3699340820312
833,788.937744140625,794.1758422851562,783.2966918945312,789.3406372070312
834,788.5347900390625,793.3699340820312,785.7142944335938,783.2966918945312
835,792.5640869140625,790.952392578125,788.937744140625,786.5201416015625
836,798.6080322265625,794.5787353515625,786.923095703125,794.981689453125
837,798.6080322265625,796.996337890625,788.5347900390625,796.996337890625
838,798.2051391601562,790.5494384765625,788.937744140625,794.981689453125
839,794.5787353515625,785.3113403320312,785.3113403320312,792.5640869140625
840,791.3552856445312,790.952392578125,784.908447265625,793.7728881835938
841,793.7728881835938,794.981689453125,787.7289428710938,798.2051391601562
842,792.1611938476562,794.1758422851562,792.967041015625,797.3992919921875
843,790.952392578125,796.5933837890625,794.1758422851562,792.967041015625
844,784.1025390625,793.7728881835938,792.967041015625,796.1904907226562
845,784.908447265625,794.1758422851562,792.5640869140625,803.040283203125
846,792.1611938476562,790.5494384765625,789.7435913085938,796.996337890625
847,791.7582397460938,787.7289428710938,790.5494384765625,789.3406372070312
848,796.996337890625,796.1904907226562,792.5640869140625,788.937744140625
849,799.010986328125,795.7875366210938,795.7875366210938,786.1171875
850,798.2051391601562,794.981689453125,796.1904907226562,788.1318969726562
851,801.4285888671875,796.996337890625,796.1904907226562,792.5640869140625
852,806.2637329101562,798.2051391601562,801.025634765625,797.3992919921875
853,801.025634765625,800.2197875976562,801.8314819335938,797.3992919921875
854,792.5640869140625,798.6080322265625,799.8168334960938,792.1611938476562
855,791.7582397460938,801.4285888671875,797.3992919921875,793.7728881835938
856,792.967041015625,800.6226806640625,796.5933837890625,805.054931640625
857,796.5933837890625,802.2344360351562,799.8168334960938,802.6373901367188
858,799.010986328125,796.1904907226562,796.996337890625,790.952392578125
859,792.5640869140625,792.1611938476562,789.7435913085938,791.3552856445312
860,782.4908447265625,793.7728881835938,788.937744140625,792.1611938476562
861,778.4615478515625,790.5494384765625,789.7435913085938,792.967041015625
862,782.087890625,793.3699340820312,788.5347900390625,794.5787353515625
863,782.087890625,794.1758422851562,789.7435913085938,788.937744140625
864,779.2673950195312,788.5347900390625,792.5640869140625,784.1025390625
865,774.029296875,785.3113403320312,790.952392578125,782.087890625
866,777.6557006835938,786.1171875,789.7435913085938,783.2966918945312
867,778.05859375,787.3259887695312,786.923095703125,786.1171875
868,778.8644409179688,789.3406372070312,789.7435913085938,788.937744140625
869,787.3259887695312,794.981689453125,792.5640869140625,784.5054931640625
870,786.923095703125,794.981689453125,792.967041015625,779.6703491210938
871,786.5201416015625,791.7582397460938,791.7582397460938,783.2966918945312
872,790.5494384765625,791.3552856445312,789.3406372070312,784.1025390625
873,794.1758422851562,793.3699340820312,791.7582397460938,782.893798828125
874,795.3846435546875,791.7582397460938,790.5494384765625,784.5054931640625
875,792.5640869140625,793.7728881835938,791.3552856445312,787.7289428710938
876,789.3406372070312,793.3699340820312,790.1465454101562,787.7289428710938
877,785.7142944335938,794.1758422851562,785.3113403320312,783.2966918945312
878,784.908447265625,795.7875366210938,786.5201416015625,777.6557006835938
879,787.3259887695312,792.5640869140625,790.952392578125,784.5054931640625
880,783.2966918945312,790.1465454101562,793.3699340820312,785.7142944335938
881,784.1025390625,792.967041015625,794.1758422851562,781.6849975585938
882,792.967041015625,800.2197875976562,795.7875366210938,786.1171875
883,792.5640869140625,799.4139404296875,796.996337890625,790.1465454101562
884,792.5640869140625,794.1758422851562,796.5933837890625,785.7142944335938
885,784.908447265625,788.1318969726562,795.3846435546875,779.2673950195312
886,781.6849975585938,790.1465454101562,796.996337890625,785.7142944335938
887,788.5347900390625,796.996337890625,797.8021850585938,788.937744140625
888,790.952392578125,799.4139404296875,796.5933837890625,786.5201416015625
889,791.7582397460938,800.6226806640625,794.1758422851562,786.5201416015625
890,789.3406372070312,799.4139404296875,792.967041015625,787.7289428710938
891,788.1318969726562,799.4139404296875,794.5787353515625,792.5640869140625
892,792.967041015625,799.8168334960938,791.7582397460938,791.3552856445312
893,792.5640869140625,794.981689453125,790.5494384765625,783.2966918945312
894,790.952392578125,791.7582397460938,792.1611938476562,783.2966918945312
895,791.7582397460938,793.3699340820312,794.1758422851562,786.1171875
896,795.7875366210938,796.996337890625,792.967041015625,788.1318969726562
897,793.7728881835938,798.6080322265625,789.3406372070312,793.7728881835938
898,788.5347900390625,797.3992919921875,791.3552856445312,792.1611938476562
899,791.3552856445312,796.996337890625,793.3699340820312,792.967041015625
900,788.5347900390625,795.3846435546875,792.1611938476562,788.5347900390625
901,789.7435913085938,792.967041015625,796.996337890625,788.937744140625
902,791.3552856445312,796.5933837890625,798.2051391601562,798.2051391601562
903,783.6996459960938,796.996337890625,795.3846435546875,791.3552856445312
904,783.6996459960938,790.952392578125,798.2051391601562,790.1465454101562
905,783.6996459960938,792.967041015625,803.8461303710938,792.967041015625
906,783.6996459960938,796.996337890625,801.025634765625,788.1318969726562
907,791.7582397460938,796.1904907226562,799.010986328125,783.2966918945312
908,800.6226806640625,799.4139404296875,801.025634765625,787.7289428710938
909,790.952392578125,801.025634765625,800.2197875976562,792.5640869140625
910,788.5347900390625,800.6226806640625,796.5933837890625,791.7582397460938
911,792.967041015625,800.2197875976562,797.3992919921875,790.952392578125
912,787.7289428710938,798.6080322265625,794.981689453125,785.3113403320312
913,794.5787353515625,794.981689453125,789.3406372070312,784.908447265625
914,797.8021850585938,790.1465454101562,792.967041015625,784.5054931640625
915,795.7875366210938,790.1465454101562,794.5787353515625,781.6849975585938
916,807.069580078125,799.8168334960938,794.981689453125,787.7289428710938
917,810.2930297851562,807.4725341796875,794.5787353515625,791.7582397460938
918,800.2197875976562,808.2783813476562,794.1758422851562,796.1904907226562
919,798.6080322265625,807.4725341796875,793.3699340820312,798.6080322265625
920,798.2051391601562,802.2344360351562,788.937744140625,793.3699340820312
921,798.2051391601562,798.2051391601562,792.5640869140625,795.7875366210938
922,797.8021850585938,799.4139404296875,794.981689453125,796.5933837890625
923,799.8168334960938,800.6226806640625,791.7582397460938,798.2051391601562
924,805.054931640625,799.010986328125,795.7875366210938,801.8314819335938
925,795.3846435546875,789.7435913085938,798.6080322265625,799.4139404296875
926,782.4908447265625,785.7142944335938,796.5933837890625,794.5787353515625
927,785.7142944335938,789.3406372070312,794.5787353515625,790.952392578125
928,786.5201416015625,789.3406372070312,793.3699340820312,787.3259887695312
929,772.4176025390625,786.923095703125,796.1904907226562,784.5054931640625
930,765.5677490234375,789.3406372070312,799.010986328125,780.4761962890625
931,763.1502075195312,791.3552856445312,799.010986328125,774.029296875
932,763.1502075195312,788.1318969726562,796.996337890625,768.3883056640625
933,770.8058471679688,790.1465454101562,795.7875366210938,769.5970458984375
934,775.2380981445312,791.3552856445312,799.010986328125,771.6116943359375
935,774.4322509765625,787.7289428710938,800.2197875976562,768.3883056640625
936,776.0439453125,787.3259887695312,801.4285888671875,771.6116943359375
937,780.0732421875,790.5494384765625,800.2197875976562,780.0732421875
938,786.5201416015625,795.3846435546875,797.3992919921875,782.893798828125
939,791.3552856445312,798.2051391601562,797.3992919921875,786.1171875
940,783.2966918945312,794.981689453125,792.967041015625,789.3406372070312
941,775.2380981445312,790.5494384765625,794.5787353515625,786.5201416015625
942,782.893798828125,793.3699340820312,792.1611938476562,782.087890625
943,793.3699340820312,794.5787353515625,788.937744140625,785.7142944335938
944,799.010986328125,795.7875366210938,791.3552856445312,795.3846435546875
945,805.4578857421875,802.6373901367188,788.1318969726562,797.3992919921875
946,806.2637329101562,807.4725341796875,790.952392578125,794.1758422851562
947,801.025634765625,807.069580078125,789.7435913085938,794.981689453125
948,792.5640869140625,800.6226806640625,787.3259887695312,795.7875366210938
949,794.5787353515625,790.952392578125,789.7435913085938,801.025634765625
950,796.1904907226562,795.3846435546875,790.1465454101562,801.4285888671875
951,788.5347900390625,798.6080322265625,791.7582397460938,794.1758422851562
952,787.7289428710938,797.3992919921875,794.1758422851562,795.7875366210938
953,793.3699340820312,799.8168334960938,799.8168334960938,799.010986328125
954,795.3846435546875,801.4285888671875,799.4139404296875,798.2051391601562
955,795.3846435546875,801.4285888671875,797.3992919921875,796.996337890625
956,789.7435913085938,800.2197875976562,798.6080322265625,794.5787353515625
957,783.6996459960938,798.6080322265625,796.996337890625,791.3552856445312
958,792.1611938476562,798.2051391601562,794.1758422851562,791.3552856445312
959,795.7875366210938,796.5933837890625,792.5640869140625,792.967041015625
960,790.5494384765625,792.1611938476562,794.1758422851562,791.3552856445312
961,784.908447265625,794.981689453125,794.5787353515625,785.3113403320312
962,780.879150390625,797.3992919921875,793.7728881835938,784.908447265625
963,781.6849975585938,794.981689453125,794.5787353515625,788.937744140625
964,792.5640869140625,793.3699340820312,794.981689453125,795.3846435546875
965,795.3846435546875,790.5494384765625,792.5640869140625,790.5494384765625
966,786.1171875,793.7728881835938,792.967041015625,784.1025390625
967,787.7289428710938,798.2051391601562,794.981689453125,780.0732421875
968,786.5201416015625,797.3992919921875,792.1611938476562,778.8644409179688
969,786.5201416015625,795.7875366210938,791.3552856445312,788.1318969726562
970,790.952392578125,794.981689453125,795.7875366210938,784.908447265625
971,784.908447265625,793.3699340820312,798.6080322265625,783.2966918945312
972,784.5054931640625,790.5494384765625,793.3699340820312,783.2966918945312
973,783.6996459960938,791.7582397460938,789.3406372070312,778.4615478515625
974,781.2820434570312,789.3406372070312,791.3552856445312,779.2673950195312
975,790.952392578125,782.4908447265625,793.3699340820312,786.5201416015625
976,802.2344360351562,781.6849975585938,793.7728881835938,787.7289428710938
977,789.7435913085938,788.1318969726562,792.5640869140625,786.5201416015625
978,783.6996459960938,796.5933837890625,791.7582397460938,792.1611938476562
979,789.3406372070312,793.3699340820312,794.1758422851562,793.3699340820312
980,784.1025390625,788.1318969726562,795.3846435546875,790.1465454101562
981,782.893798828125,787.7289428710938,796.996337890625,796.1904907226562
982,788.937744140625,789.3406372070312,799.010986328125,798.2051391601562
983,790.1465454101562,793.7728881835938,799.8168334960938,793.7728881835938
984,789.7435913085938,797.3992919921875,803.4432373046875,795.7875366210938
985,788.937744140625,794.981689453125,801.8314819335938,802.6373901367188
986,784.5054931640625,793.7728881835938,797.3992919921875,805.8607788085938
987,780.879150390625,792.5640869140625,800.6226806640625,802.2344360351562
988,782.087890625,789.3406372070312,803.4432373046875,794.1758422851562
989,779.6703491210938,786.5201416015625,803.040283203125,794.981689453125
990,783.6996459960938,789.3406372070312,808.2783813476562,801.8314819335938
991,784.1025390625,792.1611938476562,811.098876953125,796.5933837890625
992,784.1025390625,790.1465454101562,810.2930297851562,792.5640869140625
993,793.7728881835938,790.1465454101562,806.6666870117188,790.1465454101562
994,789.3406372070312,791.3552856445312,808.6813354492188,798.2051391601562
995,786.5201416015625,794.5787353515625,809.89013671875,800.6226806640625
996,787.7289428710938,796.1904907226562,807.87548828125,792.1611938476562
997,783.2966918945312,791.7582397460938,804.6520385742188,792.5640869140625
998,784.5054931640625,792.5640869140625,798.2051391601562,796.5933837890625
999,788.5347900390625,793.7728881835938,802.6373901367188,792.967041015625
1000,791.7582397460938,793.3699340820312,803.4432373046875,786.5201416015625
1001,796.5933837890625,796.5933837890625,801.8314819335938,789.3406372070312
1002,796.996337890625,799.4139404296875,809.4871826171875,795.7875366210938
1003,799.4139404296875,799.010986328125,805.8607788085938,790.1465454101562
1004,796.5933837890625,788.5347900390625,801.025634765625,782.893798828125
1005,786.923095703125,785.3113403320312,805.4578857421875,791.7582397460938
1006,776.4468994140625,787.7289428710938,807.4725341796875,789.7435913085938
1007,764.3589477539062,781.6849975585938,799.8168334960938,781.2820434570312
1008,762.3442993164062,782.4908447265625,793.3699340820312,782.4908447265625
1009,765.1648559570312,786.1171875,799.010986328125,789.3406372070312
1010,769.5970458984375,786.1171875,800.2197875976562,799.4139404296875
1011,772.8204956054688,788.5347900390625,794.1758422851562,798.2051391601562
1012,772.0146484375,792.1611938476562,792.1611938476562,799.010986328125
1013,773.2234497070312,787.7289428710938,794.5787353515625,801.4285888671875
1014,780.879150390625,789.7435913085938,799.8168334960938,805.4578857421875
1015,791.3552856445312,796.1904907226562,801.4285888671875,811.5018310546875
1016,798.6080322265625,794.5787353515625,802.2344360351562,807.4725341796875
1017,804.6520385742188,794.981689453125,803.4432373046875,801.4285888671875
1018,806.2637329101562,795.3846435546875,803.4432373046875,800.2197875976562
1019,807.069580078125,795.3846435546875,803.8461303710938,798.6080322265625
1020,808.6813354492188,794.1758422851562,804.2490844726562,803.040283203125
1021,806.6666870117188,796.1904907226562,802.6373901367188,801.4285888671875
1022,801.4285888671875,795.3846435546875,800.2197875976562,789.7435913085938
1023,794.981689453125,792.967041015625,795.7875366210938,780.879150390625
1024,797.3992919921875,794.5787353515625,792.5640869140625,779.2673950195312
1025,801.8314819335938,792.5640869140625,790.952392578125,786.5201416015625
1026,794.5787353515625,794.1758422851562,790.952392578125,776.4468994140625
1027,789.7435913085938,794.981689453125,791.7582397460938,771.6116943359375
1028,787.7289428710938,794.981689453125,794.981689453125,774.029296875
1029,793.7728881835938,795.7875366210938,796.5933837890625,773.6264038085938
1030,795.3846435546875,796.996337890625,790.5494384765625,780.4761962890625
1031,789.3406372070312,793.3699340820312,791.7582397460938,786.1171875
1032,784.908447265625,789.7435913085938,795.3846435546875,786.5201416015625
1033,780.879150390625,788.5347900390625,789.7435913085938,783.2966918945312
1034,787.3259887695312,786.923095703125,792.5640869140625,786.5201416015625
1035,792.5640869140625,784.908447265625,794.5787353515625,792.967041015625
1036,779.2673950195312,783.6996459960938,795.3846435546875,798.2051391601562
1037,765.5677490234375,786.1171875,794.1758422851562,799.4139404296875
1038,765.1648559570312,788.5347900390625,794.981689453125,796.5933837890625
1039,762.7472534179688,786.1171875,797.8021850585938,795.7875366210938
1040,768.7911987304688,786.1171875,798.6080322265625,796.996337890625
1041,780.0732421875,788.1318969726562,801.025634765625,796.996337890625
1042,780.0732421875,790.952392578125,800.6226806640625,792.1611938476562
1043,786.923095703125,798.2051391601562,804.2490844726562,793.7728881835938
1044,795.3846435546875,800.2197875976562,806.2637329101562,794.981689453125
1045,790.5494384765625,799.4139404296875,797.8021850585938,797.8021850585938
1046,782.893798828125,803.040283203125,796.1904907226562,803.040283203125
1047,792.1611938476562,807.069580078125,801.8314819335938,804.6520385742188
1048,798.2051391601562,807.069580078125,804.2490844726562,811.5018310546875
1049,799.010986328125,809.084228515625,804.2490844726562,805.8607788085938
1050,808.6813354492188,809.084228515625,800.6226806640625,803.4432373046875
1051,807.4725341796875,805.4578857421875,802.6373901367188,803.4432373046875
1052,801.8314819335938,804.2490844726562,802.6373901367188,792.1611938476562
1053,802.2344360351562,804.2490844726562,794.5787353515625,786.923095703125
1054,801.025634765625,801.8314819335938,787.7289428710938,783.6996459960938
1055,797.8021850585938,799.010986328125,786.1171875,780.0732421875
1056,792.1611938476562,795.3846435546875,786.923095703125,777.2527465820312
1057,787.3259887695312,790.952392578125,789.3406372070312,774.4322509765625
1058,791.3552856445312,794.5787353515625,786.923095703125,772.8204956054688
1059,794.1758422851562,794.1758422851562,786.5201416015625,776.4468994140625
1060,797.8021850585938,790.952392578125,792.5640869140625,780.0732421875
1061,806.6666870117188,795.3846435546875,792.5640869140625,775.6410522460938
1062,803.4432373046875,793.7728881835938,793.7728881835938,776.4468994140625
1063,793.7728881835938,794.5787353515625,795.7875366210938,780.879150390625
1064,786.923095703125,799.010986328125,795.3846435546875,775.2380981445312
1065,787.7289428710938,800.6226806640625,794.1758422851562,771.6116943359375
1066,792.967041015625,795.7875366210938,794.981689453125,781.2820434570312
1067,780.879150390625,794.5787353515625,796.996337890625,788.1318969726562
1068,777.2527465820312,795.3846435546875,798.6080322265625,788.1318969726562
1069,782.893798828125,796.996337890625,797.8021850585938,790.5494384765625
1070,780.879150390625,797.3992919921875,795.3846435546875,793.3699340820312
1071,786.1171875,791.3552856445312,797.3992919921875,803.040283203125
1072,790.952392578125,790.952392578125,803.4432373046875,799.010986328125
1073,788.1318969726562,790.952392578125,803.4432373046875,790.952392578125
1074,784.1025390625,789.7435913085938,800.6226806640625,797.3992919921875
1075,791.7582397460938,791.7582397460938,799.010986328125,794.981689453125
1076,802.2344360351562,794.1758422851562,794.5787353515625,791.7582397460938
1077,803.040283203125,797.8021850585938,798.6080322265625,803.040283203125
1078,798.2051391601562,794.5787353515625,805.054931640625,804.2490844726562
1079,795.7875366210938,792.5640869140625,807.4725341796875,797.8021850585938
1080,801.025634765625,796.5933837890625,803.040283203125,796.5933837890625
1081,807.4725341796875,800.6226806640625,796.1904907226562,792.5640869140625
1082,813.91943359375,802.2344360351562,792.967041015625,788.937744140625
1083,806.6666870117188,796.996337890625,792.1611938476562,787.7289428710938
1084,791.7582397460938,803.4432373046875,790.952392578125,784.1025390625
1085,790.5494384765625,808.6813354492188,787.3259887695312,779.2673950195312
1086,793.3699340820312,793.7728881835938,785.3113403320312,776.8497924804688
1087,796.1904907226562,787.3259887695312,783.6996459960938,773.6264038085938
1088,789.7435913085938,797.3992919921875,788.5347900390625,770.4029541015625
1089,782.087890625,801.025634765625,788.937744140625,773.6264038085938
1090,780.4761962890625,801.025634765625,784.5054931640625,776.8497924804688
1091,780.4761962890625,796.5933837890625,790.952392578125,776.8497924804688
1092,777.6557006835938,792.1611938476562,788.5347900390625,780.0732421875
1093,775.6410522460938,794.1758422851562,784.1025390625,781.2820434570312
1094,776.8497924804688,799.010986328125,787.3259887695312,779.2673950195312
1095,778.05859375,799.4139404296875,790.1465454101562,786.5201416015625
1096,779.2673950195312,795.3846435546875,794.5787353515625,787.7289428710938
1097,774.4322509765625,794.981689453125,795.7875366210938,784.1025390625
1098,771.2088012695312,795.3846435546875,792.5640869140625,785.3113403320312
1099,777.2527465820312,792.1611938476562,786.923095703125,787.3259887695312
1100,779.6703491210938,789.3406372070312,787.3259887695312,785.3113403320312
1101,782.087890625,794.1758422851562,790.952392578125,789.3406372070312
1102,787.7289428710938,794.981689453125,789.7435913085938,796.996337890625
1103,799.010986328125,794.981689453125,789.3406372070312,796.996337890625
1104,807.87548828125,796.5933837890625,790.1465454101562,797.8021850585938
1105,797.3992919921875,794.5787353515625,791.7582397460938,798.6080322265625
1106,797.8021850585938,796.5933837890625,793.7728881835938,800.6226806640625
1107,807.4725341796875,798.6080322265625,795.3846435546875,808.6813354492188
1108,810.2930297851562,796.5933837890625,791.3552856445312,807.87548828125
1109,800.6226806640625,793.3699340820312,785.7142944335938,803.8461303710938
1110,793.7728881835938,788.937744140625,792.967041015625,805.8607788085938
1111,802.2344360351562,790.5494384765625,792.967041015625,797.8021850585938
1112,807.069580078125,794.1758422851562,792.1611938476562,793.7728881835938
1113,799.4139404296875,794.1758422851562,794.5787353515625,790.5494384765625
1114,799.4139404296875,798.2051391601562,792.5640869140625,790.952392578125
1115,800.2197875976562,800.2197875976562,794.1758422851562,790.5494384765625
1116,792.5640869140625,792.5640869140625,795.7875366210938,788.937744140625
1117,792.967041015625,785.3113403320312,790.1465454101562,789.3406372070312
1118,792.5640869140625,783.6996459960938,785.7142944335938,786.5201416015625
1119,797.3992919921875,788.937744140625,788.5347900390625,788.937744140625
1120,795.7875366210938,794.5787353515625,789.3406372070312,791.7582397460938
1121,793.3699340820312,792.1611938476562,789.7435913085938,792.5640869140625
1122,800.2197875976562,792.1611938476562,791.7582397460938,792.5640869140625
1123,802.6373901367188,795.3846435546875,790.1465454101562,791.7582397460938
1124,803.8461303710938,795.7875366210938,794.5787353515625,792.967041015625
1125,799.8168334960938,797.8021850585938,796.5933837890625,794.981689453125
1126,792.967041015625,796.996337890625,792.967041015625,799.8168334960938
1127,784.5054931640625,795.7875366210938,793.7728881835938,803.040283203125
1128,778.4615478515625,793.7728881835938,789.3406372070312,796.996337890625
1129,778.8644409179688,788.5347900390625,788.1318969726562,790.5494384765625
1130,779.2673950195312,792.5640869140625,791.7582397460938,790.952392578125
1131,781.2820434570312,797.8021850585938,794.1758422851562,786.5201416015625
1132,784.1025390625,797.8021850585938,792.967041015625,786.5201416015625
1133,785.7142944335938,799.010986328125,794.981689453125,791.7582397460938
1134,790.1465454101562,801.025634765625,797.8021850585938,785.7142944335938
1135,783.2966918945312,801.025634765625,793.7728881835938,782.087890625
1136,779.6703491210938,799.8168334960938,796.1904907226562,792.1611938476562
1137,790.5494384765625,796.996337890625,799.4139404296875,792.5640869140625
1138,791.7582397460938,788.5347900390625,799.4139404296875,786.923095703125
1139,786.5201416015625,788.1318969726562,798.6080322265625,784.5054931640625
1140,781.6849975585938,788.937744140625,795.3846435546875,778.4615478515625
1141,776.4468994140625,780.0732421875,794.981689453125,779.6703491210938
1142,778.4615478515625,780.0732421875,796.5933837890625,786.5201416015625
1143,787.3259887695312,791.3552856445312,796.996337890625,792.1611938476562
1144,784.1025390625,794.5787353515625,797.8021850585938,794.1758422851562
1145,781.6849975585938,791.7582397460938,797.8021850585938,784.1025390625
1146,793.7728881835938,793.7728881835938,796.996337890625,780.879150390625
1147,796.5933837890625,792.1611938476562,794.981689453125,782.893798828125
1148,798.2051391601562,789.7435913085938,792.1611938476562,783.2966918945312
1149,803.4432373046875,792.5640869140625,791.7582397460938,786.1171875
1150,794.5787353515625,796.1904907226562,789.7435913085938,788.1318969726562
1151,790.952392578125,794.981689453125,787.7289428710938,791.3552856445312
1152,790.952392578125,794.1758422851562,791.3552856445312,789.7435913085938
1153,789.7435913085938,800.2197875976562,792.5640869140625,787.7289428710938
1154,801.8314819335938,803.8461303710938,795.7875366210938,788.5347900390625
1155,804.2490844726562,803.8461303710938,797.3992919921875,784.908447265625
1156,798.6080322265625,806.6666870117188,794.5787353515625,784.908447265625
1157,796.5933837890625,801.8314819335938,797.8021850585938,782.893798828125
1158,790.952392578125,796.996337890625,798.2051391601562,784.908447265625
1159,794.1758422851562,805.8607788085938,799.010986328125,787.7289428710938
1160,798.6080322265625,807.4725341796875,803.040283203125,788.937744140625
1161,790.1465454101562,803.040283203125,805.4578857421875,787.3259887695312
1162,782.087890625,797.8021850585938,804.2490844726562,786.5201416015625
1163,789.7435913085938,794.1758422851562,805.4578857421875,793.3699340820312
1164,789.7435913085938,794.981689453125,803.8461303710938,790.1465454101562
1165,783.6996459960938,797.8021850585938,798.2051391601562,782.4908447265625
1166,787.7289428710938,799.010986328125,799.4139404296875,782.893798828125
1167,786.1171875,796.996337890625,798.2051391601562,795.3846435546875
1168,782.4908447265625,797.8021850585938,794.5787353515625,783.2966918945312
1169,787.7289428710938,792.1611938476562,795.3846435546875,768.7911987304688
1170,776.4468994140625,786.923095703125,796.1904907226562,768.3883056640625
1171,769.1941528320312,793.3699340820312,794.1758422851562,771.2088012695312
1172,773.2234497070312,790.1465454101562,788.937744140625,769.5970458984375
1173,778.05859375,787.3259887695312,788.1318969726562,764.7619018554688
1174,784.908447265625,793.7728881835938,790.1465454101562,769.5970458984375
1175,786.5201416015625,794.981689453125,792.1611938476562,772.0146484375
1176,786.5201416015625,791.7582397460938,790.952392578125,772.0146484375
1177,792.5640869140625,793.7728881835938,793.3699340820312,776.0439453125
1178,799.8168334960938,794.1758422851562,798.2051391601562,781.2820434570312
1179,794.981689453125,794.1758422851562,792.5640869140625,786.923095703125
1180,788.937744140625,794.5787353515625,787.7289428710938,786.1171875
1181,789.7435913085938,795.3846435546875,791.3552856445312,787.7289428710938
1182,784.1025390625,794.5787353515625,791.3552856445312,790.952392578125
1183,787.7289428710938,791.7582397460938,788.5347900390625,796.1904907226562
1184,796.1904907226562,794.981689453125,793.7728881835938,802.6373901367188
1185,802.2344360351562,797.3992919921875,798.2051391601562,809.084228515625
1186,798.6080322265625,801.8314819335938,799.8168334960938,808.6813354492188
1187,788.937744140625,799.8168334960938,803.040283203125,801.8314819335938
1188,786.923095703125,794.1758422851562,803.4432373046875,799.8168334960938
1189,789.7435913085938,792.1611938476562,803.8461303710938,803.8461303710938
1190,784.5054931640625,789.3406372070312,802.2344360351562,809.084228515625
1191,783.6996459960938,791.7582397460938,801.4285888671875,805.054931640625
1192,793.7728881835938,792.5640869140625,800.2197875976562,794.5787353515625
1193,800.6226806640625,793.7728881835938,801.025634765625,792.967041015625
1194,803.040283203125,795.7875366210938,804.6520385742188,799.010986328125
1195,799.010986328125,796.5933837890625,803.4432373046875,796.996337890625
1196,801.025634765625,803.040283203125,798.6080322265625,796.5933837890625
1197,806.2637329101562,802.6373901367188,794.1758422851562,787.7289428710938
1198,797.8021850585938,796.5933837890625,792.967041015625,779.2673950195312
1199,799.8168334960938,799.8168334960938,794.981689453125,784.1025390625
1200,803.4432373046875,794.5787353515625,792.1611938476562,782.087890625
1201,794.981689453125,786.5201416015625,792.967041015625,778.8644409179688
1202,782.893798828125,784.1025390625,793.7728881835938,776.8497924804688
1203,783.2966918945312,784.5054931640625,794.5787353515625,770.8058471679688
1204,786.5201416015625,788.5347900390625,794.981689453125,776.0439453125
1205,780.879150390625,790.1465454101562,796.5933837890625,788.937744140625
1206,776.4468994140625,786.1171875,794.1758422851562,792.1611938476562
1207,777.2527465820312,782.087890625,794.5787353515625,785.3113403320312
1208,783.6996459960938,782.087890625,799.8168334960938,784.1025390625
1209,790.952392578125,785.3113403320312,801.4285888671875,791.3552856445312
1210,788.5347900390625,785.7142944335938,800.6226806640625,788.937744140625
1211,786.5201416015625,788.937744140625,795.3846435546875,783.2966918945312
1212,790.5494384765625,790.952392578125,790.5494384765625,784.908447265625
1213,793.7728881835938,788.5347900390625,792.967041015625,784.1025390625
1214,790.952392578125,784.908447265625,795.7875366210938,783.2966918945312
1215,788.5347900390625,782.893798828125,792.967041015625,786.1171875
1216,790.5494384765625,785.3113403320312,793.7728881835938,790.5494384765625
1217,788.5347900390625,790.952392578125,796.5933837890625,801.8314819335938
1218,786.1171875,794.1758422851562,800.2197875976562,802.2344360351562
1219,787.7289428710938,793.7728881835938,802.2344360351562,791.7582397460938
1220,790.952392578125,797.3992919921875,799.010986328125,787.7289428710938
1221,788.1318969726562,795.7875366210938,801.8314819335938,788.937744140625
1222,779.2673950195312,794.1758422851562,798.6080322265625,782.893798828125
1223,776.8497924804688,795.7875366210938,795.3846435546875,777.2527465820312
1224,778.4615478515625,796.996337890625,798.6080322265625,781.6849975585938
1225,776.4468994140625,795.3846435546875,798.2051391601562,784.1025390625
1226,776.4468994140625,793.3699340820312,796.996337890625,780.0732421875
1227,775.2380981445312,796.996337890625,798.2051391601562,776.8497924804688
1228,782.893798828125,798.2051391601562,796.996337890625,781.2820434570312
1229,784.5054931640625,795.3846435546875,796.996337890625,783.6996459960938
1230,784.1025390625,800.2197875976562,798.2051391601562,782.893798828125
1231,787.7289428710938,799.8168334960938,798.2051391601562,788.1318969726562
1232,785.7142944335938,797.8021850585938,797.3992919921875,789.7435913085938
1233,783.6996459960938,794.5787353515625,796.996337890625,784.5054931640625
1234,786.923095703125,790.952392578125,796.1904907226562,783.6996459960938
1235,794.1758422851562,794.5787353515625,796.1904907226562,788.937744140625
1236,801.8314819335938,795.3846435546875,799.8168334960938,789.7435913085938
1237,801.025634765625,794.1758422851562,801.025634765625,783.6996459960938
1238,799.4139404296875,794.1758422851562,800.6226806640625,784.1025390625
1239,804.2490844726562,796.1904907226562,803.040283203125,789.3406372070312
1240,805.4578857421875,791.7582397460938,802.2344360351562,792.1611938476562
1241,797.8021850585938,793.3699340820312,800.6226806640625,795.7875366210938
1242,792.5640869140625,797.3992919921875,801.025634765625,792.967041015625
1243,792.5640869140625,794.1758422851562,801.8314819335938,788.937744140625
1244,788.5347900390625,789.7435913085938,803.040283203125,787.7289428710938
1245,788.937744140625,789.3406372070312,799.010986328125,788.5347900390625
1246,795.7875366210938,792.967041015625,796.1904907226562,795.7875366210938
1247,795.7875366210938,792.5640869140625,799.4139404296875,795.3846435546875
1248,790.1465454101562,784.5054931640625,799.8168334960938,788.937744140625
1249,787.7289428710938,788.5347900390625,797.3992919921875,787.3259887695312
1250,788.937744140625,796.1904907226562,801.4285888671875,788.1318969726562
1251,787.3259887695312,794.5787353515625,801.4285888671875,794.1758422851562
1252,780.879150390625,790.952392578125,796.5933837890625,798.2051391601562
1253,778.05859375,788.5347900390625,796.1904907226562,787.7289428710938
1254,772.4176025390625,789.7435913085938,793.3699340820312,790.1465454101562
1255,772.4176025390625,789.7435913085938,790.952392578125,790.5494384765625
1256,783.6996459960938,793.3699340820312,790.952392578125,787.3259887695312
1257,785.7142944335938,793.3699340820312,791.7582397460938,780.4761962890625
1258,787.7289428710938,797.8021850585938,793.3699340820312,777.2527465820312
1259,785.7142944335938,798.2051391601562,791.3552856445312,780.0732421875
1260,786.1171875,796.1904907226562,790.5494384765625,778.05859375
1261,798.2051391601562,798.2051391601562,788.5347900390625,778.4615478515625
1262,803.4432373046875,799.4139404296875,790.952392578125,784.5054931640625
1263,801.4285888671875,802.2344360351562,795.3846435546875,795.7875366210938
1264,795.3846435546875,805.4578857421875,792.1611938476562,796.1904907226562
1265,792.967041015625,803.4432373046875,792.1611938476562,791.7582397460938
1266,791.7582397460938,798.6080322265625,792.1611938476562,794.1758422851562
1267,788.5347900390625,796.5933837890625,792.1611938476562,790.952392578125
1268,787.7289428710938,794.5787353515625,793.7728881835938,790.5494384765625
1269,786.5201416015625,793.7728881835938,796.5933837890625,792.5640869140625
1270,788.5347900390625,792.5640869140625,797.3992919921875,790.952392578125
1271,788.5347900390625,789.3406372070312,798.6080322265625,794.981689453125
1272,784.908447265625,789.7435913085938,800.6226806640625,795.3846435546875
1273,784.1025390625,790.5494384765625,801.025634765625,796.996337890625
1274,776.4468994140625,784.5054931640625,801.025634765625,805.054931640625
1275,776.4468994140625,784.1025390625,800.2197875976562,799.010986328125
1276,784.908447265625,790.5494384765625,797.3992919921875,794.5787353515625
1277,785.3113403320312,788.1318969726562,799.010986328125,789.7435913085938
1278,780.4761962890625,784.1025390625,796.5933837890625,784.908447265625
1279,774.029296875,780.4761962890625,795.3846435546875,784.908447265625
1280,774.8351440429688,777.2527465820312,801.025634765625,787.7289428710938
1281,785.7142944335938,775.2380981445312,801.4285888671875,790.952392578125
1282,793.7728881835938,779.6703491210938,797.8021850585938,799.010986328125
1283,787.7289428710938,786.5201416015625,800.6226806640625,802.2344360351562
1284,781.6849975585938,782.087890625,799.4139404296875,786.923095703125
1285,785.3113403320312,782.087890625,799.010986328125,786.5201416015625
1286,792.967041015625,785.3113403320312,798.6080322265625,801.025634765625
1287,794.1758422851562,789.7435913085938,793.3699340820312,791.7582397460938
1288,788.937744140625,793.7728881835938,789.7435913085938,780.4761962890625
1289,788.937744140625,794.981689453125,792.1611938476562,786.1171875
1290,788.937744140625,796.5933837890625,795.3846435546875,789.7435913085938
1291,786.5201416015625,792.967041015625,793.7728881835938,787.3259887695312
1292,788.5347900390625,786.923095703125,795.3846435546875,786.5201416015625
1293,782.087890625,785.7142944335938,797.8021850585938,791.3552856445312
1294,780.0732421875,790.1465454101562,801.025634765625,800.2197875976562
1295,786.5201416015625,788.937744140625,800.6226806640625,800.6226806640625
1296,786.5201416015625,783.2966918945312,797.3992919921875,788.937744140625
1297,784.1025390625,785.7142944335938,796.1904907226562,785.7142944335938
1298,777.6557006835938,789.3406372070312,798.2051391601562,790.952392578125
1299,774.4322509765625,786.923095703125,798.2051391601562,785.3113403320312
1300,779.6703491210938,785.7142944335938,793.3699340820312,780.879150390625
1301,787.7289428710938,782.893798828125,793.3699340820312,788.5347900390625
1302,786.5201416015625,782.893798828125,793.7728881835938,791.3552856445312
1303,784.908447265625,785.3113403320312,789.7435913085938,787.3259887695312
1304,787.7289428710938,786.923095703125,790.952392578125,787.7289428710938
1305,787.7289428710938,782.087890625,792.967041015625,787.3259887695312
1306,794.1758422851562,777.6557006835938,794.981689453125,784.1025390625
1307,801.4285888671875,781.6849975585938,795.3846435546875,783.6996459960938
1308,803.4432373046875,784.5054931640625,795.7875366210938,784.908447265625
1309,806.6666870117188,781.2820434570312,801.025634765625,787.3259887695312
1310,808.6813354492188,784.908447265625,805.8607788085938,790.1465454101562
1311,812.3076782226562,790.5494384765625,805.054931640625,792.5640869140625
1312,811.90478515625,791.3552856445312,800.6226806640625,794.981689453125
1313,807.87548828125,792.5640869140625,800.2197875976562,801.025634765625
1314,792.967041015625,793.3699340820312,796.996337890625,795.7875366210938
1315,778.05859375,790.5494384765625,794.5787353515625,788.1318969726562
1316,786.1171875,789.7435913085938,805.054931640625,795.3846435546875
1317,793.3699340820312,792.1611938476562,807.069580078125,804.2490844726562
1318,789.3406372070312,790.1465454101562,802.2344360351562,800.6226806640625
1319,786.5201416015625,787.7289428710938,803.4432373046875,793.7728881835938
1320,794.1758422851562,785.7142944335938,808.2783813476562,794.1758422851562
1321,797.8021850585938,789.3406372070312,802.6373901367188,796.1904907226562
1322,787.3259887695312,791.3552856445312,794.981689453125,788.5347900390625
1323,778.05859375,792.1611938476562,799.8168334960938,787.7289428710938
1324,782.087890625,790.952392578125,806.6666870117188,800.2197875976562
1325,788.1318969726562,792.967041015625,809.4871826171875,801.025634765625
1326,789.3406372070312,793.3699340820312,807.4725341796875,799.4139404296875
1327,791.3552856445312,789.3406372070312,802.2344360351562,801.4285888671875
1328,796.1904907226562,789.7435913085938,799.8168334960938,794.5787353515625
1329,794.981689453125,788.937744140625,800.6226806640625,791.7582397460938
1330,791.3552856445312,786.923095703125,797.8021850585938,787.3259887695312
1331,795.3846435546875,790.5494384765625,792.1611938476562,786.1171875
1332,799.010986328125,790.5494384765625,792.1611938476562,788.5347900390625
1333,792.967041015625,790.952392578125,792.5640869140625,785.7142944335938
1334,789.7435913085938,796.996337890625,790.5494384765625,784.908447265625
1335,790.952392578125,794.981689453125,790.952392578125,788.937744140625
1336,791.3552856445312,794.1758422851562,794.5787353515625,801.4285888671875
1337,798.2051391601562,798.6080322265625,793.3699340820312,808.2783813476562
1338,801.025634765625,797.8021850585938,785.7142944335938,803.8461303710938
1339,797.8021850585938,796.996337890625,789.3406372070312,796.1904907226562
1340,794.1758422851562,797.3992919921875,798.2051391601562,795.3846435546875
1341,789.7435913085938,794.5787353515625,797.8021850585938,797.8021850585938
1342,793.7728881835938,791.7582397460938,799.4139404296875,797.3992919921875
1343,796.996337890625,790.952392578125,799.4139404296875,794.1758422851562
1344,788.5347900390625,792.967041015625,791.3552856445312,788.937744140625
1345,781.6849975585938,794.1758422851562,789.3406372070312,785.3113403320312
1346,782.893798828125,794.5787353515625,788.937744140625,787.7289428710938
1347,795.7875366210938,794.1758422851562,791.3552856445312,795.7875366210938
1348,796.996337890625,796.5933837890625,794.5787353515625,799.010986328125
1349,788.937744140625,803.040283203125,792.1611938476562,793.7728881835938
1350,790.5494384765625,802.6373901367188,789.7435913085938,791.3552856445312
1351,794.1758422851562,797.8021850585938,792.967041015625,793.3699340820312
1352,795.3846435546875,799.4139404296875,795.3846435546875,792.5640869140625
1353,792.1611938476562,795.7875366210938,790.1465454101562,792.5640869140625
1354,788.5347900390625,792.1611938476562,787.7289428710938,793.7728881835938
1355,783.6996459960938,795.7875366210938,787.7289428710938,786.1171875
1356,780.879150390625,798.2051391601562,782.4908447265625,779.2673950195312
1357,784.5054931640625,800.2197875976562,783.2966918945312,781.2820434570312
1358,790.952392578125,806.2637329101562,786.1171875,780.0732421875
1359,797.3992919921875,805.054931640625,791.3552856445312,785.7142944335938
1360,794.1758422851562,800.6226806640625,795.7875366210938,790.1465454101562
1361,788.1318969726562,799.8168334960938,793.7728881835938,784.5054931640625
1362,794.5787353515625,794.5787353515625,792.1611938476562,780.879150390625
1363,801.8314819335938,792.967041015625,792.967041015625,779.6703491210938
1364,792.1611938476562,795.7875366210938,794.1758422851562,780.4761962890625
1365,783.6996459960938,796.5933837890625,793.3699340820312,781.6849975585938
1366,784.5054931640625,798.6080322265625,797.3992919921875,782.893798828125
1367,788.937744140625,803.040283203125,804.2490844726562,788.1318969726562
1368,792.1611938476562,804.6520385742188,802.2344360351562,790.1465454101562
1369,788.937744140625,795.7875366210938,797.8021850585938,790.952392578125
1370,787.7289428710938,792.5640869140625,795.7875366210938,789.7435913085938
1371,788.1318969726562,801.4285888671875,796.1904907226562,789.3406372070312
1372,788.5347900390625,803.4432373046875,794.1758422851562,786.5201416015625
1373,795.7875366210938,803.040283203125,796.1904907226562,784.1025390625
1374,792.5640869140625,803.040283203125,794.1758422851562,786.923095703125
1375,782.893798828125,797.8021850585938,793.3699340820312,789.3406372070312
1376,778.4615478515625,801.025634765625,799.010986328125,793.3699340820312
1377,784.5054931640625,809.4871826171875,801.8314819335938,801.025634765625
1378,790.1465454101562,803.8461303710938,800.2197875976562,798.2051391601562
1379,798.2051391601562,796.996337890625,796.1904907226562,787.3259887695312
1380,802.2344360351562,798.6080322265625,795.3846435546875,790.952392578125
1381,794.1758422851562,799.8168334960938,792.5640869140625,790.1465454101562
1382,791.3552856445312,796.5933837890625,786.5201416015625,784.1025390625
1383,790.1465454101562,794.981689453125,787.7289428710938,785.3113403320312
1384,794.981689453125,794.1758422851562,793.7728881835938,785.3113403320312
1385,792.1611938476562,795.3846435546875,791.7582397460938,780.0732421875
1386,795.3846435546875,798.2051391601562,793.7728881835938,779.6703491210938
1387,795.7875366210938,797.3992919921875,794.981689453125,778.4615478515625
1388,788.1318969726562,795.3846435546875,794.1758422851562,781.6849975585938
1389,796.996337890625,798.2051391601562,794.1758422851562,788.5347900390625
1390,795.3846435546875,798.6080322265625,793.3699340820312,788.1318969726562
1391,784.908447265625,793.7728881835938,793.3699340820312,786.923095703125
1392,783.6996459960938,793.7728881835938,792.967041015625,786.5201416015625
1393,775.6410522460938,788.937744140625,793.7728881835938,785.3113403320312
1394,774.8351440429688,786.1171875,793.3699340820312,785.3113403320312
1395,781.6849975585938,786.5201416015625,794.1758422851562,779.6703491210938
1396,785.3113403320312,784.1025390625,791.7582397460938,778.05859375
1397,787.7289428710938,780.0732421875,789.7435913085938,782.087890625
1398,782.4908447265625,783.2966918945312,787.3259887695312,780.879150390625
1399,781.6849975585938,786.1171875,792.1611938476562,782.4908447265625
1400,781.2820434570312,790.1465454101562,797.3992919921875,785.3113403320312
1401,772.8204956054688,792.1611938476562,794.5787353515625,780.4761962890625
1402,773.2234497070312,792.1611938476562,794.5787353515625,779.2673950195312
1403,779.2673950195312,789.3406372070312,793.3699340820312,777.2527465820312
1404,778.8644409179688,786.923095703125,792.5640869140625,774.8351440429688
1405,778.4615478515625,786.5201416015625,796.1904907226562,782.087890625
1406,777.2527465820312,785.7142944335938,795.3846435546875,780.879150390625
1407,777.6557006835938,787.7289428710938,790.5494384765625,775.6410522460938
1408,787.7289428710938,792.1611938476562,793.7728881835938,781.6849975585938
1409,798.2051391601562,789.3406372070312,795.3846435546875,787.3259887695312
1410,798.2051391601562,790.5494384765625,796.996337890625,790.1465454101562
1411,789.7435913085938,792.1611938476562,799.010986328125,789.7435913085938
1412,789.3406372070312,790.5494384765625,797.8021850585938,789.3406372070312
1413,794.981689453125,788.1318969726562,796.996337890625,788.1318969726562
1414,795.7875366210938,783.2966918945312,794.5787353515625,784.1025390625
1415,795.3846435546875,783.2966918945312,788.1318969726562,787.3259887695312
1416,799.8168334960938,789.7435913085938,790.5494384765625,791.7582397460938
1417,792.967041015625,791.3552856445312,793.3699340820312,789.3406372070312
1418,789.3406372070312,786.5201416015625,792.967041015625,791.3552856445312
1419,793.7728881835938,787.3259887695312,793.3699340820312,791.7582397460938
1420,786.1171875,790.1465454101562,792.5640869140625,794.1758422851562
1421,772.4176025390625,788.937744140625,791.7582397460938,797.8021850585938
1422,774.029296875,790.952392578125,792.5640869140625,786.1171875
1423,780.879150390625,792.5640869140625,788.937744140625,783.2966918945312
1424,780.879150390625,792.1611938476562,784.908447265625,789.3406372070312
1425,788.1318969726562,790.952392578125,792.5640869140625,790.5494384765625
1426,789.7435913085938,794.1758422851562,793.3699340820312,790.5494384765625
1427,786.923095703125,793.3699340820312,790.5494384765625,791.7582397460938
1428,790.1465454101562,790.1465454101562,792.5640869140625,790.952392578125
1429,795.7875366210938,796.996337890625,794.1758422851562,791.3552856445312
1430,797.8021850585938,798.6080322265625,797.3992919921875,792.5640869140625
1431,791.3552856445312,794.5787353515625,793.7728881835938,791.7582397460938
1432,787.7289428710938,801.025634765625,794.5787353515625,794.981689453125
1433,792.5640869140625,802.2344360351562,800.6226806640625,794.1758422851562
1434,801.8314819335938,801.8314819335938,800.6226806640625,794.5787353515625
1435,801.025634765625,803.040283203125,801.025634765625,796.5933837890625
1436,790.952392578125,800.2197875976562,797.3992919921875,792.1611938476562
1437,783.6996459960938,796.996337890625,793.3699340820312,788.5347900390625
1438,788.5347900390625,798.2051391601562,796.996337890625,787.3259887695312
1439,791.7582397460938,794.981689453125,793.7728881835938,788.1318969726562
1440,791.7582397460938,787.3259887695312,792.1611938476562,789.3406372070312
1441,793.3699340820312,790.1465454101562,798.6080322265625,793.7728881835938
1442,791.3552856445312,790.5494384765625,798.6080322265625,794.981689453125
1443,788.1318969726562,784.908447265625,801.8314819335938,799.4139404296875
1444,782.087890625,786.5201416015625,807.87548828125,800.2197875976562
1445,776.4468994140625,786.923095703125,804.6520385742188,791.7582397460938
1446,772.0146484375,786.5201416015625,801.8314819335938,787.3259887695312
1447,776.8497924804688,788.937744140625,801.4285888671875,789.3406372070312
1448,786.923095703125,795.7875366210938,799.8168334960938,786.923095703125
1449,793.3699340820312,796.996337890625,802.2344360351562,786.1171875
1450,800.2197875976562,799.010986328125,801.8314819335938,790.5494384765625
1451,796.996337890625,801.8314819335938,797.8021850585938,788.5347900390625
1452,790.952392578125,798.2051391601562,795.7875366210938,787.7289428710938
1453,786.923095703125,796.1904907226562,791.3552856445312,779.6703491210938
1454,788.5347900390625,790.1465454101562,788.937744140625,772.4176025390625
1455,794.1758422851562,790.952392578125,789.7435913085938,778.4615478515625
1456,787.3259887695312,795.3846435546875,789.7435913085938,776.0439453125
1457,783.6996459960938,792.967041015625,785.3113403320312,776.4468994140625
1458,785.7142944335938,790.5494384765625,788.1318969726562,782.4908447265625
1459,782.893798828125,793.3699340820312,792.1611938476562,779.2673950195312
1460,783.6996459960938,790.5494384765625,790.1465454101562,780.4761962890625
1461,788.5347900390625,785.7142944335938,789.3406372070312,784.5054931640625
1462,791.3552856445312,788.1318969726562,790.5494384765625,786.5201416015625
1463,790.5494384765625,790.952392578125,795.7875366210938,790.5494384765625
1464,793.3699340820312,788.1318969726562,797.3992919921875,792.1611938476562
1465,789.7435913085938,788.1318969726562,793.3699340820312,786.5201416015625
1466,786.1171875,785.7142944335938,789.3406372070312,787.7289428710938
1467,788.5347900390625,786.923095703125,790.952392578125,790.952392578125
1468,782.087890625,794.981689453125,788.937744140625,782.893798828125
1469,783.2966918945312,792.967041015625,792.1611938476562,784.5054931640625
1470,792.1611938476562,791.7582397460938,796.996337890625,792.5640869140625
1471,792.967041015625,792.967041015625,795.3846435546875,792.5640869140625
1472,793.7728881835938,793.3699340820312,796.996337890625,790.952392578125
1473,792.967041015625,797.3992919921875,799.4139404296875,789.7435913085938
1474,786.923095703125,796.996337890625,796.1904907226562,789.7435913085938
1475,787.3259887695312,791.3552856445312,794.981689453125,784.1025390625
1476,790.952392578125,792.967041015625,795.3846435546875,777.6557006835938
1477,788.937744140625,792.1611938476562,788.1318969726562,777.6557006835938
1478,790.1465454101562,791.7582397460938,792.5640869140625,789.7435913085938
1479,797.3992919921875,793.7728881835938,799.010986328125,799.010986328125
1480,802.6373901367188,789.7435913085938,797.3992919921875,792.5640869140625
1481,802.2344360351562,788.937744140625,799.4139404296875,794.1758422851562
1482,799.8168334960938,791.7582397460938,801.4285888671875,799.4139404296875
1483,792.967041015625,789.3406372070312,802.6373901367188,801.8314819335938
1484,790.1465454101562,785.3113403320312,802.6373901367188,804.2490844726562
1485,792.1611938476562,789.3406372070312,802.6373901367188,802.2344360351562
1486,792.967041015625,795.7875366210938,801.025634765625,803.040283203125
1487,792.5640869140625,792.5640869140625,801.8314819335938,805.054931640625
1488,789.7435913085938,789.3406372070312,800.2197875976562,800.6226806640625
1489,782.893798828125,793.3699340820312,794.981689453125,791.3552856445312
1490,781.2820434570312,790.952392578125,797.8021850585938,786.5201416015625
1491,786.5201416015625,789.7435913085938,802.2344360351562,787.3259887695312
1492,782.087890625,787.3259887695312,799.010986328125,783.2966918945312
1493,776.0439453125,788.5347900390625,797.3992919921875,780.0732421875
1494,772.4176025390625,797.3992919921875,800.2197875976562,782.087890625
1495,787.3259887695312,795.7875366210938,801.8314819335938,785.7142944335938
1496,796.996337890625,796.1904907226562,797.8021850585938,784.1025390625
1497,791.3552856445312,797.3992919921875,798.2051391601562,790.1465454101562
1498,792.5640869140625,792.1611938476562,799.8168334960938,794.981689453125
1499,787.7289428710938,793.3699340820312,794.1758422851562,781.2820434570312
1500,785.7142944335938,793.3699340820312,795.7875366210938,778.8644409179688
1501,791.3552856445312,792.1611938476562,794.981689453125,783.2966918945312
1502,787.7289428710938,794.981689453125,787.3259887695312,776.4468994140625
1503,785.7142944335938,793.3699340820312,784.908447265625,776.0439453125
1504,787.7289428710938,790.1465454101562,785.7142944335938,774.8351440429688
1505,792.1611938476562,788.937744140625,785.3113403320312,783.6996459960938
1506,795.7875366210938,790.5494384765625,786.1171875,792.967041015625
1507,797.3992919921875,793.7728881835938,791.7582397460938,793.7728881835938
1508,801.4285888671875,796.1904907226562,794.1758422851562,797.8021850585938
1509,799.8168334960938,799.4139404296875,790.5494384765625,802.2344360351562
1510,801.4285888671875,799.8168334960938,796.5933837890625,803.8461303710938
1511,799.4139404296875,799.8168334960938,798.2051391601562,799.8168334960938
1512,794.981689453125,796.996337890625,794.1758422851562,797.8021850585938
1513,794.5787353515625,797.8021850585938,797.3992919921875,796.5933837890625
1514,791.7582397460938,796.1904907226562,795.7875366210938,794.5787353515625
1515,790.5494384765625,793.3699340820312,791.3552856445312,791.3552856445312
1516,796.5933837890625,793.3699340820312,794.1758422851562,794.1758422851562
1517,796.1904907226562,788.5347900390625,796.1904907226562,805.4578857421875
1518,786.923095703125,786.5201416015625,794.1758422851562,796.5933837890625
1519,776.0439453125,791.7582397460938,795.3846435546875,781.2820434570312
1520,776.4468994140625,790.952392578125,798.6080322265625,785.3113403320312
1521,778.4615478515625,787.7289428710938,794.1758422851562,786.5201416015625
1522,780.879150390625,789.7435913085938,792.5640869140625,785.7142944335938
1523,788.937744140625,789.7435913085938,793.3699340820312,787.7289428710938
1524,787.3259887695312,786.1171875,790.5494384765625,784.1025390625
1525,788.1318969726562,785.7142944335938,790.5494384765625,787.3259887695312
1526,795.3846435546875,791.3552856445312,793.7728881835938,790.1465454101562
1527,795.7875366210938,791.7582397460938,791.7582397460938,785.7142944335938
1528,792.967041015625,791.7582397460938,795.3846435546875,792.967041015625
1529,793.7728881835938,796.996337890625,803.4432373046875,794.981689453125
1530,799.4139404296875,798.6080322265625,800.6226806640625,794.5787353515625
1531,807.4725341796875,797.3992919921875,800.2197875976562,795.3846435546875
1532,799.4139404296875,794.5787353515625,797.8021850585938,789.3406372070312
1533,794.981689453125,793.3699340820312,796.1904907226562,789.3406372070312
1534,795.7875366210938,792.967041015625,797.3992919921875,791.7582397460938
1535,791.3552856445312,790.1465454101562,796.5933837890625,791.7582397460938
1536,795.3846435546875,788.937744140625,798.6080322265625,793.7728881835938
1537,803.4432373046875,789.7435913085938,800.2197875976562,798.6080322265625
1538,797.3992919921875,794.1758422851562,800.2197875976562,795.3846435546875
1539,788.937744140625,794.5787353515625,797.3992919921875,791.7582397460938
1540,789.7435913085938,791.3552856445312,795.3846435546875,793.3699340820312
1541,790.1465454101562,787.7289428710938,793.7728881835938,790.1465454101562
1542,796.996337890625,787.7289428710938,795.7875366210938,794.5787353515625
1543,804.6520385742188,789.3406372070312,794.981689453125,790.952392578125
1544,806.2637329101562,790.1465454101562,791.7582397460938,788.1318969726562
1545,793.3699340820312,792.967041015625,791.7582397460938,786.923095703125
1546,783.2966918945312,794.5787353515625,791.7582397460938,790.952392578125
1547,790.5494384765625,791.3552856445312,797.8021850585938,797.3992919921875
1548,794.981689453125,792.1611938476562,800.6226806640625,794.981689453125
1549,799.4139404296875,796.5933837890625,798.2051391601562,791.3552856445312
1550,797.8021850585938,799.8168334960938,794.1758422851562,782.893798828125
1551,792.1611938476562,801.4285888671875,790.952392578125,785.3113403320312
1552,798.6080322265625,803.4432373046875,794.1758422851562,785.7142944335938
1553,804.2490844726562,800.6226806640625,792.967041015625,782.087890625
1554,794.5787353515625,798.2051391601562,790.1465454101562,781.6849975585938
1555,793.3699340820312,799.010986328125,786.5201416015625,780.879150390625
1556,793.7728881835938,801.4285888671875,784.908447265625,780.4761962890625
1557,792.1611938476562,799.8168334960938,785.3113403320312,778.8644409179688
1558,796.5933837890625,799.4139404296875,786.923095703125,786.1171875
1559,786.1171875,795.7875366210938,786.5201416015625,785.7142944335938
1560,777.6557006835938,795.3846435546875,788.5347900390625,783.2966918945312
1561,780.879150390625,798.6080322265625,788.5347900390625,785.3113403320312
1562,782.893798828125,790.5494384765625,784.1025390625,788.937744140625
1563,786.5201416015625,788.5347900390625,787.3259887695312,797.3992919921875
1564,786.1171875,789.3406372070312,791.7582397460938,794.981689453125
1565,784.1025390625,794.5787353515625,794.5787353515625,794.981689453125
1566,783.6996459960938,798.6080322265625,796.996337890625,795.7875366210938
1567,792.1611938476562,794.1758422851562,793.7728881835938,793.3699340820312
1568,798.2051391601562,794.5787353515625,796.5933837890625,799.4139404296875
1569,795.7875366210938,795.3846435546875,799.4139404296875,806.6666870117188
1570,795.7875366210938,793.7728881835938,795.7875366210938,806.2637329101562
1571,793.3699340820312,791.7582397460938,794.1758422851562,788.937744140625
1572,790.1465454101562,792.5640869140625,795.3846435546875,791.3552856445312
1573,794.1758422851562,794.1758422851562,799.010986328125,802.6373901367188
1574,792.967041015625,792.1611938476562,799.8168334960938,808.2783813476562
1575,796.996337890625,797.8021850585938,801.8314819335938,807.4725341796875
1576,799.8168334960938,800.2197875976562,800.6226806640625,804.2490844726562
1577,799.8168334960938,796.996337890625,797.8021850585938,808.6813354492188
1578,794.981689453125,793.7728881835938,797.3992919921875,806.6666870117188
1579,789.3406372070312,794.1758422851562,794.5787353515625,797.8021850585938
1580,791.7582397460938,796.1904907226562,787.3259887695312,789.3406372070312
1581,796.996337890625,795.7875366210938,788.937744140625,790.952392578125
1582,799.4139404296875,796.5933837890625,790.5494384765625,793.3699340820312
1583,795.3846435546875,794.981689453125,788.1318969726562,786.5201416015625
