timestamp,RAW_TP9,RAW_AF7,RAW_AF8,RAW_TP10
1,791.3552856445312,792.1611938476562,788.5347900390625,786.1171875
2,791.3552856445312,799.010986328125,784.5054931640625,789.7435913085938
3,790.1465454101562,799.010986328125,786.5201416015625,781.6849975585938
4,786.923095703125,796.5933837890625,785.3113403320312,776.8497924804688
5,788.5347900390625,788.1318969726562,782.087890625,788.937744140625
6,787.3259887695312,788.5347900390625,785.7142944335938,790.952392578125
7,782.893798828125,794.981689453125,790.952392578125,783.6996459960938
8,784.908447265625,795.7875366210938,792.967041015625,784.1025390625
9,790.5494384765625,796.5933837890625,793.7728881835938,786.5201416015625
10,793.7728881835938,792.967041015625,797.3992919921875,792.967041015625
11,795.3846435546875,792.5640869140625,799.010986328125,792.1611938476562
12,793.3699340820312,790.1465454101562,796.996337890625,790.5494384765625
13,788.937744140625,786.5201416015625,794.1758422851562,791.3552856445312
14,786.1171875,786.5201416015625,793.3699340820312,792.1611938476562
15,781.6849975585938,788.937744140625,794.981689453125,787.7289428710938
16,785.3113403320312,793.7728881835938,790.952392578125,782.893798828125
17,786.5201416015625,788.937744140625,788.937744140625,787.7289428710938
18,786.5201416015625,785.3113403320312,791.3552856445312,784.5054931640625
19,787.7289428710938,790.1465454101562,788.5347900390625,774.4322509765625
20,788.5347900390625,794.1758422851562,787.7289428710938,770.8058471679688
21,789.7435913085938,798.2051391601562,793.3699340820312,778.4615478515625
22,784.5054931640625,794.981689453125,792.5640869140625,789.7435913085938
23,788.937744140625,792.1611938476562,791.7582397460938,792.5640869140625
24,798.6080322265625,793.3699340820312,792.5640869140625,793.3699340820312
25,799.010986328125,792.5640869140625,794.5787353515625,791.7582397460938
26,798.6080322265625,792.1611938476562,797.3992919921875,790.5494384765625
27,799.8168334960938,787.3259887695312,796.5933837890625,792.967041015625
28,797.8021850585938,788.5347900390625,797.3992919921875,801.8314819335938
29,792.967041015625,794.981689453125,794.5787353515625,807.87548828125
30,789.3406372070312,793.3699340820312,797.3992919921875,803.4432373046875
31,789.3406372070312,791.3552856445312,798.2051391601562,802.6373901367188
32,788.1318969726562,793.3699340820312,794.1758422851562,800.2197875976562
33,787.3259887695312,794.5787353515625,794.5787353515625,794.981689453125
34,785.3113403320312,794.981689453125,793.7728881835938,794.1758422851562
35,786.923095703125,797.3992919921875,793.3699340820312,790.5494384765625
36,790.1465454101562,796.996337890625,796.1904907226562,788.5347900390625
37,791.7582397460938,795.3846435546875,796.1904907226562,788.5347900390625
38,786.1171875,793.3699340820312,793.7728881835938,787.3259887695312
39,783.2966918945312,788.1318969726562,796.1904907226562,788.1318969726562
40,787.7289428710938,785.7142944335938,799.4139404296875,790.1465454101562
41,786.923095703125,786.5201416015625,799.4139404296875,793.7728881835938
42,779.6703491210938,784.1025390625,795.7875366210938,790.952392578125
43,777.2527465820312,784.908447265625,798.2051391601562,797.3992919921875
44,785.3113403320312,788.5347900390625,796.996337890625,800.2197875976562
45,788.937744140625,791.3552856445312,795.3846435546875,788.1318969726562
46,788.1318969726562,790.1465454101562,796.996337890625,792.5640869140625
47,788.937744140625,786.923095703125,795.7875366210938,803.040283203125
48,790.952392578125,787.3259887695312,795.3846435546875,800.2197875976562
49,789.7435913085938,787.7289428710938,796.5933837890625,793.3699340820312
50,790.952392578125,789.3406372070312,791.7582397460938,789.7435913085938
51,796.1904907226562,792.5640869140625,792.5640869140625,793.7728881835938
52,788.937744140625,786.923095703125,794.1758422851562,794.981689453125
53,785.3113403320312,784.1025390625,790.952392578125,792.1611938476562
54,782.4908447265625,787.3259887695312,791.3552856445312,787.3259887695312
55,785.3113403320312,783.6996459960938,790.1465454101562,788.937744140625
56,790.5494384765625,787.3259887695312,791.7582397460938,792.1611938476562
57,786.5201416015625,796.1904907226562,792.967041015625,789.3406372070312
58,787.3259887695312,800.2197875976562,789.7435913085938,790.5494384765625
59,788.937744140625,795.7875366210938,787.7289428710938,791.3552856445312
60,789.7435913085938,797.8021850585938,788.937744140625,793.3699340820312
61,790.5494384765625,798.2051391601562,794.981689453125,797.3992919921875
62,790.5494384765625,790.5494384765625,793.7728881835938,796.5933837890625
63,790.5494384765625,788.1318969726562,782.893798828125,792.1611938476562
64,786.5201416015625,786.1171875,784.908447265625,792.5640869140625
65,784.5054931640625,784.1025390625,788.5347900390625,793.7728881835938
66,784.1025390625,781.6849975585938,780.4761962890625,793.3699340820312
67,784.1025390625,787.3259887695312,782.893798828125,796.1904907226562
68,783.2966918945312,787.7289428710938,788.937744140625,800.2197875976562
69,782.4908447265625,779.2673950195312,785.3113403320312,799.4139404296875
70,785.7142944335938,779.2673950195312,781.2820434570312,790.952392578125
71,789.3406372070312,782.4908447265625,783.6996459960938,793.3699340820312
72,792.967041015625,789.3406372070312,787.3259887695312,793.3699340820312
73,785.7142944335938,786.923095703125,786.923095703125,783.6996459960938
74,784.5054931640625,783.2966918945312,791.7582397460938,791.7582397460938
75,794.1758422851562,786.5201416015625,793.3699340820312,794.5787353515625
76,792.1611938476562,783.6996459960938,792.5640869140625,785.7142944335938
77,787.7289428710938,779.6703491210938,794.5787353515625,789.7435913085938
78,789.3406372070312,780.879150390625,788.1318969726562,796.996337890625
79,787.7289428710938,788.5347900390625,789.3406372070312,797.3992919921875
80,788.937744140625,792.967041015625,791.3552856445312,794.5787353515625
81,793.7728881835938,786.1171875,787.3259887695312,796.1904907226562
82,794.5787353515625,788.937744140625,789.3406372070312,798.6080322265625
83,788.5347900390625,793.7728881835938,790.5494384765625,793.3699340820312
84,789.3406372070312,789.7435913085938,788.937744140625,789.3406372070312
85,799.4139404296875,788.937744140625,790.952392578125,793.3699340820312
86,799.4139404296875,788.937744140625,792.1611938476562,793.3699340820312
87,797.3992919921875,786.923095703125,792.1611938476562,792.5640869140625
88,797.8021850585938,789.7435913085938,792.1611938476562,790.1465454101562
89,799.8168334960938,788.937744140625,789.7435913085938,790.1465454101562
90,801.025634765625,787.3259887695312,791.3552856445312,796.996337890625
91,794.981689453125,797.3992919921875,792.967041015625,793.3699340820312
92,789.3406372070312,792.967041015625,789.3406372070312,790.952392578125
93,786.5201416015625,791.3552856445312,788.1318969726562,796.1904907226562
94,786.1171875,799.010986328125,788.937744140625,795.7875366210938
95,785.3113403320312,794.1758422851562,791.3552856445312,792.1611938476562
96,792.967041015625,793.7728881835938,791.7582397460938,797.8021850585938
97,796.5933837890625,793.3699340820312,790.952392578125,801.8314819335938
98,792.967041015625,790.1465454101562,790.952392578125,797.8021850585938
99,792.967041015625,786.923095703125,791.7582397460938,793.7728881835938
100,791.7582397460938,788.5347900390625,793.7728881835938,794.5787353515625
101,795.7875366210938,789.7435913085938,794.1758422851562,801.4285888671875
102,796.1904907226562,790.5494384765625,797.8021850585938,792.5640869140625
103,786.5201416015625,792.5640869140625,795.3846435546875,783.2966918945312
104,786.923095703125,791.3552856445312,789.7435913085938,783.6996459960938
105,790.1465454101562,788.5347900390625,791.7582397460938,786.923095703125
106,790.952392578125,794.1758422851562,799.4139404296875,794.1758422851562
107,796.5933837890625,803.040283203125,802.6373901367188,792.5640869140625
108,796.1904907226562,798.6080322265625,800.2197875976562,791.7582397460938
109,791.7582397460938,794.1758422851562,795.7875366210938,792.5640869140625
110,788.1318969726562,796.5933837890625,790.952392578125,789.3406372070312
111,784.1025390625,796.1904907226562,787.3259887695312,788.5347900390625
112,783.2966918945312,790.952392578125,787.7289428710938,798.6080322265625
113,786.1171875,793.3699340820312,794.5787353515625,805.054931640625
114,784.5054931640625,798.2051391601562,799.010986328125,794.1758422851562
115,788.1318969726562,796.996337890625,799.8168334960938,793.3699340820312
116,796.996337890625,793.3699340820312,796.5933837890625,793.3699340820312
117,794.1758422851562,793.7728881835938,796.1904907226562,790.1465454101562
118,789.7435913085938,797.3992919921875,794.1758422851562,793.3699340820312
119,790.1465454101562,792.1611938476562,792.5640869140625,796.996337890625
120,790.1465454101562,790.5494384765625,795.7875366210938,799.010986328125
121,787.7289428710938,792.967041015625,797.8021850585938,799.4139404296875
122,789.3406372070312,791.3552856445312,794.1758422851562,798.6080322265625
123,792.1611938476562,790.5494384765625,791.3552856445312,799.4139404296875
124,792.1611938476562,791.7582397460938,796.5933837890625,803.040283203125
125,794.981689453125,795.3846435546875,798.2051391601562,796.996337890625
126,799.4139404296875,797.3992919921875,796.1904907226562,790.952392578125
127,807.4725341796875,799.8168334960938,799.4139404296875,796.996337890625
128,804.6520385742188,803.8461303710938,801.8314819335938,796.1904907226562
129,792.1611938476562,799.4139404296875,803.040283203125,792.5640869140625
130,788.5347900390625,790.1465454101562,802.6373901367188,793.7728881835938
131,788.1318969726562,792.1611938476562,799.010986328125,796.1904907226562
132,788.1318969726562,794.981689453125,796.1904907226562,796.1904907226562
133,790.5494384765625,792.967041015625,795.3846435546875,793.3699340820312
134,790.5494384765625,790.5494384765625,794.1758422851562,790.5494384765625
135,791.3552856445312,790.5494384765625,795.3846435546875,791.7582397460938
136,792.1611938476562,792.5640869140625,795.3846435546875,789.7435913085938
137,792.1611938476562,789.3406372070312,794.981689453125,786.1171875
138,796.1904907226562,792.967041015625,793.3699340820312,786.923095703125
139,794.1758422851562,793.7728881835938,790.1465454101562,790.1465454101562
140,794.5787353515625,786.1171875,787.7289428710938,789.3406372070312
141,801.025634765625,788.1318969726562,784.908447265625,790.952392578125
142,797.8021850585938,792.5640869140625,784.5054931640625,790.5494384765625
143,792.1611938476562,791.7582397460938,783.6996459960938,788.937744140625
144,794.5787353515625,796.5933837890625,782.893798828125,787.7289428710938
145,796.5933837890625,802.2344360351562,785.7142944335938,781.6849975585938
146,796.996337890625,803.8461303710938,787.7289428710938,780.0732421875
147,794.981689453125,800.6226806640625,785.3113403320312,785.7142944335938
148,792.1611938476562,794.5787353515625,784.5054931640625,787.3259887695312
149,786.923095703125,793.3699340820312,788.5347900390625,783.2966918945312
150,788.5347900390625,798.2051391601562,792.967041015625,784.908447265625
151,794.1758422851562,796.996337890625,792.1611938476562,792.1611938476562
152,793.7728881835938,797.3992919921875,796.1904907226562,792.5640869140625
153,791.7582397460938,792.5640869140625,795.3846435546875,794.1758422851562
154,788.1318969726562,788.937744140625,792.967041015625,788.5347900390625
155,791.7582397460938,796.1904907226562,797.3992919921875,784.1025390625
156,790.5494384765625,794.5787353515625,798.6080322265625,790.1465454101562
157,791.3552856445312,794.981689453125,797.3992919921875,790.952392578125
158,797.8021850585938,794.1758422851562,793.7728881835938,788.937744140625
159,799.010986328125,792.5640869140625,794.1758422851562,794.981689453125
160,795.3846435546875,796.5933837890625,797.8021850585938,794.1758422851562
161,790.952392578125,794.1758422851562,798.6080322265625,786.1171875
162,790.952392578125,789.3406372070312,795.7875366210938,791.3552856445312
163,788.937744140625,790.5494384765625,799.4139404296875,793.3699340820312
164,792.1611938476562,792.967041015625,801.025634765625,791.3552856445312
165,798.2051391601562,792.5640869140625,796.996337890625,793.7728881835938
166,791.3552856445312,788.937744140625,790.5494384765625,792.1611938476562
167,789.7435913085938,791.7582397460938,786.1171875,789.3406372070312
168,792.967041015625,792.5640869140625,790.5494384765625,784.1025390625
169,796.5933837890625,795.3846435546875,788.937744140625,786.923095703125
170,799.4139404296875,803.040283203125,789.3406372070312,794.981689453125
171,795.3846435546875,802.6373901367188,789.7435913085938,795.7875366210938
172,792.967041015625,798.2051391601562,784.5054931640625,792.1611938476562
173,794.5787353515625,794.1758422851562,784.1025390625,792.967041015625
174,802.6373901367188,797.3992919921875,782.4908447265625,800.2197875976562
175,799.010986328125,801.8314819335938,785.7142944335938,797.3992919921875
176,792.967041015625,798.6080322265625,792.1611938476562,796.5933837890625
177,795.7875366210938,792.5640869140625,790.1465454101562,799.010986328125
178,796.996337890625,791.3552856445312,792.1611938476562,794.981689453125
179,799.010986328125,795.7875366210938,797.8021850585938,796.1904907226562
180,796.5933837890625,797.8021850585938,799.8168334960938,794.1758422851562
181,790.952392578125,794.1758422851562,796.5933837890625,790.952392578125
182,790.1465454101562,792.5640869140625,794.1758422851562,794.981689453125
183,793.7728881835938,791.3552856445312,798.6080322265625,803.8461303710938
184,800.2197875976562,790.952392578125,799.4139404296875,808.6813354492188
185,796.5933837890625,785.7142944335938,800.2197875976562,810.6959838867188
186,788.937744140625,784.908447265625,797.3992919921875,803.040283203125
187,793.7728881835938,790.1465454101562,796.1904907226562,793.7728881835938
188,796.996337890625,791.3552856445312,800.2197875976562,790.952392578125
189,801.4285888671875,790.952392578125,795.3846435546875,796.5933837890625
190,805.4578857421875,788.1318969726562,794.1758422851562,803.040283203125
191,801.8314819335938,790.1465454101562,798.6080322265625,794.5787353515625
192,801.8314819335938,793.7728881835938,799.4139404296875,792.1611938476562
193,801.8314819335938,792.967041015625,795.3846435546875,796.996337890625
194,799.4139404296875,794.1758422851562,793.3699340820312,790.952392578125
195,794.1758422851562,791.3552856445312,792.5640869140625,785.3113403320312
196,791.7582397460938,787.7289428710938,789.3406372070312,794.1758422851562
197,794.981689453125,791.7582397460938,790.1465454101562,799.8168334960938
198,790.5494384765625,793.3699340820312,792.967041015625,792.1611938476562
199,785.3113403320312,783.6996459960938,790.1465454101562,792.967041015625
200,785.3113403320312,782.4908447265625,791.3552856445312,796.996337890625
201,787.7289428710938,792.1611938476562,793.7728881835938,794.5787353515625
202,784.908447265625,791.7582397460938,792.5640869140625,792.967041015625
203,779.6703491210938,783.6996459960938,792.967041015625,792.1611938476562
204,784.1025390625,785.3113403320312,794.981689453125,794.981689453125
205,791.3552856445312,788.937744140625,795.3846435546875,800.2197875976562
206,801.025634765625,786.5201416015625,796.5933837890625,809.89013671875
207,797.8021850585938,788.937744140625,799.8168334960938,808.6813354492188
208,787.3259887695312,791.7582397460938,793.3699340820312,797.3992919921875
209,785.7142944335938,788.1318969726562,790.1465454101562,799.8168334960938
210,788.5347900390625,791.3552856445312,798.2051391601562,799.010986328125
211,780.4761962890625,790.952392578125,795.3846435546875,794.1758422851562
212,778.8644409179688,785.3113403320312,796.1904907226562,801.025634765625
213,785.7142944335938,784.908447265625,803.040283203125,801.025634765625
214,793.3699340820312,783.6996459960938,802.6373901367188,801.4285888671875
215,806.2637329101562,789.7435913085938,801.8314819335938,811.098876953125
216,801.4285888671875,790.1465454101562,799.8168334960938,806.6666870117188
217,797.3992919921875,789.3406372070312,798.6080322265625,796.996337890625
218,799.010986328125,787.7289428710938,800.6226806640625,799.010986328125
219,797.3992919921875,782.087890625,798.2051391601562,804.2490844726562
220,800.6226806640625,784.908447265625,804.2490844726562,807.4725341796875
221,792.5640869140625,790.1465454101562,805.8607788085938,800.6226806640625
222,787.7289428710938,791.7582397460938,799.4139404296875,794.1758422851562
223,791.7582397460938,792.967041015625,803.4432373046875,800.6226806640625
224,792.967041015625,794.981689453125,802.6373901367188,800.6226806640625
225,798.2051391601562,793.7728881835938,802.6373901367188,796.1904907226562
226,801.8314819335938,790.952392578125,805.4578857421875,799.010986328125
227,799.010986328125,786.1171875,804.6520385742188,801.025634765625
228,802.6373901367188,791.3552856445312,803.4432373046875,801.4285888671875
229,809.4871826171875,797.3992919921875,799.4139404296875,796.996337890625
230,810.2930297851562,796.5933837890625,794.5787353515625,796.5933837890625
231,808.2783813476562,794.5787353515625,792.1611938476562,799.4139404296875
232,805.8607788085938,790.952392578125,791.3552856445312,796.5933837890625
233,800.2197875976562,790.952392578125,790.1465454101562,793.3699340820312
234,800.2197875976562,792.967041015625,792.1611938476562,795.7875366210938
235,800.2197875976562,790.952392578125,792.5640869140625,813.91943359375
236,791.3552856445312,788.5347900390625,791.7582397460938,815.1282348632812
237,790.5494384765625,794.1758422851562,794.5787353515625,812.3076782226562
238,793.7728881835938,795.3846435546875,793.7728881835938,810.2930297851562
239,794.981689453125,790.952392578125,796.5933837890625,799.8168334960938
240,796.5933837890625,791.3552856445312,796.996337890625,794.1758422851562
241,799.4139404296875,791.3552856445312,794.981689453125,794.5787353515625
242,797.8021850585938,788.1318969726562,798.6080322265625,792.967041015625
243,793.3699340820312,794.1758422851562,799.010986328125,793.7728881835938
244,789.3406372070312,795.7875366210938,799.4139404296875,798.2051391601562
245,787.3259887695312,792.967041015625,799.4139404296875,795.7875366210938
246,790.952392578125,791.3552856445312,801.4285888671875,795.3846435546875
247,794.1758422851562,793.7728881835938,799.010986328125,801.8314819335938
248,796.5933837890625,795.3846435546875,796.1904907226562,799.8168334960938
249,800.2197875976562,788.5347900390625,800.2197875976562,799.010986328125
250,801.4285888671875,788.937744140625,800.6226806640625,800.6226806640625
251,799.010986328125,796.5933837890625,799.4139404296875,796.996337890625
252,790.1465454101562,796.1904907226562,797.8021850585938,798.2051391601562
253,790.952392578125,789.3406372070312,790.952392578125,798.2051391601562
254,792.5640869140625,791.7582397460938,787.3259887695312,790.5494384765625
255,789.7435913085938,795.7875366210938,787.7289428710938,789.3406372070312
256,785.7142944335938,790.952392578125,788.1318969726562,792.967041015625
257,782.893798828125,791.3552856445312,790.1465454101562,795.7875366210938
258,786.5201416015625,793.7728881835938,791.7582397460938,805.4578857421875
259,792.5640869140625,794.1758422851562,791.7582397460938,805.054931640625
260,795.7875366210938,799.010986328125,795.3846435546875,797.3992919921875
261,790.5494384765625,798.2051391601562,792.1611938476562,796.996337890625
262,791.7582397460938,796.5933837890625,795.3846435546875,797.3992919921875
263,794.5787353515625,793.7728881835938,799.8168334960938,797.3992919921875
264,790.1465454101562,790.1465454101562,797.8021850585938,795.7875366210938
265,784.908447265625,790.5494384765625,796.1904907226562,788.5347900390625
266,776.8497924804688,784.908447265625,798.6080322265625,783.6996459960938
267,780.0732421875,779.6703491210938,800.6226806640625,786.5201416015625
268,788.937744140625,784.1025390625,796.1904907226562,792.1611938476562
269,784.908447265625,786.5201416015625,792.967041015625,787.7289428710938
270,788.1318969726562,790.1465454101562,792.967041015625,786.923095703125
271,793.7728881835938,794.1758422851562,793.3699340820312,789.3406372070312
272,790.952392578125,792.967041015625,795.7875366210938,785.7142944335938
273,796.1904907226562,785.3113403320312,792.5640869140625,793.3699340820312
274,803.8461303710938,783.2966918945312,791.7582397460938,800.6226806640625
275,804.6520385742188,792.5640869140625,795.7875366210938,799.8168334960938
276,802.6373901367188,794.981689453125,788.5347900390625,799.8168334960938
277,802.6373901367188,792.5640869140625,785.7142944335938,792.967041015625
278,802.6373901367188,792.967041015625,792.967041015625,788.5347900390625
279,803.040283203125,792.5640869140625,789.3406372070312,784.5054931640625
280,802.6373901367188,793.7728881835938,783.6996459960938,782.893798828125
281,802.2344360351562,799.010986328125,782.087890625,792.5640869140625
282,800.2197875976562,797.8021850585938,784.1025390625,798.6080322265625
283,793.7728881835938,799.4139404296875,788.5347900390625,794.1758422851562
284,789.7435913085938,803.8461303710938,787.3259887695312,790.1465454101562
285,790.1465454101562,800.2197875976562,782.4908447265625,791.3552856445312
286,790.1465454101562,796.996337890625,786.1171875,788.1318969726562
287,790.952392578125,796.5933837890625,790.952392578125,789.3406372070312
288,788.5347900390625,798.2051391601562,790.1465454101562,790.1465454101562
289,781.6849975585938,791.3552856445312,787.7289428710938,787.3259887695312
290,780.4761962890625,784.5054931640625,792.1611938476562,786.5201416015625
291,786.1171875,786.1171875,792.967041015625,785.7142944335938
292,786.923095703125,790.5494384765625,791.3552856445312,788.937744140625
293,784.908447265625,789.3406372070312,796.5933837890625,801.025634765625
294,779.6703491210938,788.1318969726562,798.6080322265625,798.2051391601562
295,784.1025390625,793.7728881835938,798.6080322265625,789.3406372070312
296,799.4139404296875,794.981689453125,796.5933837890625,792.1611938476562
297,801.025634765625,795.7875366210938,801.025634765625,800.2197875976562
298,796.5933837890625,793.7728881835938,804.6520385742188,804.6520385742188
299,803.4432373046875,793.3699340820312,802.2344360351562,803.040283203125
300,804.2490844726562,788.937744140625,799.8168334960938,803.4432373046875
301,801.8314819335938,790.1465454101562,799.8168334960938,806.6666870117188
302,799.4139404296875,793.7728881835938,799.4139404296875,807.069580078125
303,796.5933837890625,799.010986328125,800.2197875976562,808.2783813476562
304,800.2197875976562,801.8314819335938,797.8021850585938,807.4725341796875
305,795.7875366210938,798.6080322265625,793.7728881835938,802.6373901367188
306,795.7875366210938,799.8168334960938,795.3846435546875,791.7582397460938
307,801.025634765625,798.2051391601562,794.1758422851562,786.5201416015625
308,794.5787353515625,794.5787353515625,785.7142944335938,787.7289428710938
309,788.937744140625,798.2051391601562,783.2966918945312,780.879150390625
310,788.937744140625,796.5933837890625,785.7142944335938,772.8204956054688
311,786.1171875,798.6080322265625,786.923095703125,780.4761962890625
312,786.923095703125,803.8461303710938,788.5347900390625,788.1318969726562
313,786.923095703125,801.8314819335938,786.923095703125,782.893798828125
314,786.923095703125,803.4432373046875,787.7289428710938,782.4908447265625
315,788.937744140625,804.6520385742188,790.952392578125,793.3699340820312
316,794.981689453125,801.4285888671875,792.967041015625,801.8314819335938
317,792.967041015625,800.2197875976562,796.996337890625,796.5933837890625
318,785.3113403320312,797.8021850585938,795.3846435546875,790.5494384765625
319,783.2966918945312,790.5494384765625,791.3552856445312,789.7435913085938
320,786.1171875,786.923095703125,791.3552856445312,789.7435913085938
321,787.3259887695312,783.6996459960938,791.7582397460938,790.1465454101562
322,786.5201416015625,781.6849975585938,791.7582397460938,791.3552856445312
323,788.1318969726562,788.1318969726562,789.3406372070312,790.5494384765625
324,792.967041015625,790.5494384765625,789.3406372070312,790.952392578125
325,795.3846435546875,787.3259887695312,790.1465454101562,793.7728881835938
326,787.7289428710938,786.923095703125,788.5347900390625,793.3699340820312
327,792.5640869140625,785.7142944335938,794.981689453125,801.025634765625
328,799.010986328125,794.5787353515625,797.3992919921875,807.069580078125
329,795.7875366210938,798.6080322265625,794.5787353515625,803.4432373046875
330,796.1904907226562,796.1904907226562,792.967041015625,801.025634765625
331,799.4139404296875,799.8168334960938,786.5201416015625,806.2637329101562
332,788.5347900390625,794.5787353515625,788.5347900390625,807.4725341796875
333,782.087890625,786.5201416015625,792.967041015625,800.2197875976562
334,784.5054931640625,788.1318969726562,791.3552856445312,798.6080322265625
335,780.879150390625,788.5347900390625,790.952392578125,798.6080322265625
336,784.5054931640625,788.1318969726562,792.967041015625,795.7875366210938
337,784.1025390625,788.937744140625,797.8021850585938,792.1611938476562
338,780.879150390625,786.923095703125,799.4139404296875,796.5933837890625
339,786.5201416015625,789.7435913085938,800.6226806640625,803.040283203125
340,784.5054931640625,794.1758422851562,799.8168334960938,798.6080322265625
341,782.087890625,796.1904907226562,798.6080322265625,791.7582397460938
342,789.3406372070312,796.1904907226562,797.3992919921875,794.1758422851562
343,790.1465454101562,788.937744140625,792.1611938476562,793.3699340820312
344,785.7142944335938,786.923095703125,792.5640869140625,787.3259887695312
345,786.1171875,789.7435913085938,796.1904907226562,788.5347900390625
346,784.1025390625,784.5054931640625,795.7875366210938,785.3113403320312
347,781.2820434570312,786.1171875,795.3846435546875,781.2820434570312
348,782.893798828125,790.1465454101562,795.7875366210938,789.7435913085938
349,780.879150390625,787.7289428710938,796.1904907226562,794.1758422851562
350,782.893798828125,789.7435913085938,796.996337890625,800.2197875976562
351,790.5494384765625,790.5494384765625,793.3699340820312,809.89013671875
352,788.1318969726562,793.3699340820312,791.7582397460938,804.2490844726562
353,784.908447265625,792.967041015625,794.5787353515625,788.5347900390625
354,791.3552856445312,791.3552856445312,795.3846435546875,794.981689453125
355,790.952392578125,794.1758422851562,797.3992919921875,799.8168334960938
356,784.5054931640625,795.7875366210938,797.8021850585938,791.7582397460938
357,788.1318969726562,794.1758422851562,796.5933837890625,786.5201416015625
358,796.5933837890625,787.3259887695312,797.3992919921875,784.1025390625
359,798.2051391601562,793.3699340820312,794.981689453125,788.1318969726562
360,795.3846435546875,799.4139404296875,790.952392578125,787.7289428710938
361,798.2051391601562,800.2197875976562,794.1758422851562,790.5494384765625
362,798.6080322265625,801.4285888671875,799.8168334960938,798.6080322265625
363,794.5787353515625,796.996337890625,796.996337890625,800.2197875976562
364,801.4285888671875,792.1611938476562,796.5933837890625,799.4139404296875
365,809.084228515625,793.3699340820312,801.8314819335938,798.6080322265625
366,800.6226806640625,798.6080322265625,795.3846435546875,799.010986328125
367,798.2051391601562,802.2344360351562,796.1904907226562,796.1904907226562
368,799.8168334960938,801.025634765625,801.4285888671875,792.5640869140625
369,797.8021850585938,800.2197875976562,797.3992919921875,798.6080322265625
370,792.967041015625,801.025634765625,797.3992919921875,796.996337890625
371,780.4761962890625,792.967041015625,798.6080322265625,789.3406372070312
372,779.6703491210938,790.1465454101562,799.4139404296875,788.5347900390625
373,785.3113403320312,792.5640869140625,793.7728881835938,787.3259887695312
374,782.893798828125,793.7728881835938,789.3406372070312,788.5347900390625
375,777.2527465820312,794.5787353515625,789.3406372070312,780.0732421875
376,777.2527465820312,788.5347900390625,789.3406372070312,776.4468994140625
377,779.2673950195312,787.7289428710938,792.967041015625,782.4908447265625
378,776.8497924804688,798.6080322265625,798.2051391601562,783.6996459960938
379,784.5054931640625,805.8607788085938,799.4139404296875,781.2820434570312
380,792.967041015625,802.2344360351562,801.4285888671875,786.1171875
381,784.5054931640625,793.7728881835938,801.025634765625,790.5494384765625
382,790.1465454101562,790.5494384765625,796.996337890625,793.7728881835938
383,788.937744140625,789.3406372070312,796.5933837890625,787.7289428710938
384,786.5201416015625,792.1611938476562,796.5933837890625,788.937744140625
385,796.5933837890625,797.8021850585938,799.010986328125,797.3992919921875
386,794.5787353515625,795.3846435546875,801.025634765625,790.5494384765625
387,793.3699340820312,791.7582397460938,801.025634765625,791.7582397460938
388,796.5933837890625,791.3552856445312,795.7875366210938,803.4432373046875
389,799.010986328125,787.3259887695312,793.3699340820312,807.4725341796875
390,798.2051391601562,791.3552856445312,798.2051391601562,796.5933837890625
391,790.1465454101562,791.7582397460938,795.3846435546875,789.7435913085938
392,790.952392578125,790.952392578125,792.5640869140625,796.5933837890625
393,798.6080322265625,796.5933837890625,794.981689453125,800.2197875976562
394,799.010986328125,796.1904907226562,797.3992919921875,799.010986328125
395,789.3406372070312,789.3406372070312,790.5494384765625,794.981689453125
396,786.5201416015625,783.6996459960938,790.952392578125,795.7875366210938
397,792.1611938476562,791.3552856445312,798.2051391601562,799.8168334960938
398,795.7875366210938,797.3992919921875,796.1904907226562,799.4139404296875
399,796.5933837890625,795.7875366210938,793.3699340820312,789.7435913085938
400,798.6080322265625,793.3699340820312,791.3552856445312,790.1465454101562
401,799.010986328125,796.1904907226562,794.5787353515625,803.8461303710938
402,790.5494384765625,797.8021850585938,796.5933837890625,791.3552856445312
403,787.7289428710938,797.8021850585938,794.1758422851562,786.923095703125
404,790.5494384765625,797.3992919921875,792.1611938476562,788.1318969726562
405,792.5640869140625,800.2197875976562,790.952392578125,789.3406372070312
406,790.5494384765625,805.4578857421875,791.3552856445312,793.3699340820312
407,785.7142944335938,801.8314819335938,797.8021850585938,786.5201416015625
408,785.3113403320312,798.2051391601562,804.2490844726562,784.5054931640625
409,791.3552856445312,794.5787353515625,797.8021850585938,790.5494384765625
410,795.3846435546875,796.996337890625,794.5787353515625,791.7582397460938
411,795.3846435546875,795.3846435546875,796.5933837890625,791.7582397460938
412,796.996337890625,790.952392578125,795.7875366210938,797.3992919921875
413,794.1758422851562,794.1758422851562,796.996337890625,799.8168334960938
414,796.5933837890625,796.996337890625,796.996337890625,799.8168334960938
415,800.6226806640625,792.967041015625,796.996337890625,804.2490844726562
416,798.6080322265625,792.5640869140625,797.8021850585938,803.8461303710938
417,794.981689453125,796.5933837890625,795.7875366210938,800.6226806640625
418,794.1758422851562,799.4139404296875,796.5933837890625,803.8461303710938
419,794.5787353515625,793.7728881835938,797.3992919921875,804.6520385742188
420,796.1904907226562,789.3406372070312,797.8021850585938,803.8461303710938
421,795.7875366210938,795.7875366210938,793.7728881835938,794.981689453125
422,794.5787353515625,798.6080322265625,792.967041015625,792.1611938476562
423,795.3846435546875,794.981689453125,793.7728881835938,791.3552856445312
424,795.3846435546875,794.981689453125,789.7435913085938,784.5054931640625
425,798.2051391601562,795.7875366210938,791.3552856445312,788.5347900390625
426,796.1904907226562,794.1758422851562,792.1611938476562,790.1465454101562
427,795.7875366210938,794.1758422851562,786.923095703125,795.7875366210938
428,796.996337890625,792.5640869140625,786.923095703125,795.3846435546875
429,792.5640869140625,794.1758422851562,790.952392578125,784.1025390625
430,790.952392578125,791.3552856445312,792.5640869140625,778.8644409179688
431,793.3699340820312,783.6996459960938,788.1318969726562,776.8497924804688
432,792.967041015625,787.3259887695312,785.7142944335938,776.0439453125
433,789.3406372070312,794.981689453125,790.1465454101562,776.0439453125
434,788.1318969726562,793.7728881835938,788.5347900390625,777.2527465820312
435,796.1904907226562,793.7728881835938,790.1465454101562,784.5054931640625
436,801.025634765625,799.4139404296875,795.7875366210938,792.967041015625
437,797.8021850585938,804.2490844726562,792.5640869140625,793.3699340820312
438,795.7875366210938,797.3992919921875,790.1465454101562,791.7582397460938
439,797.8021850585938,795.7875366210938,794.1758422851562,796.996337890625
440,797.8021850585938,794.981689453125,793.3699340820312,796.5933837890625
441,802.6373901367188,788.937744140625,792.1611938476562,795.3846435546875
442,794.981689453125,792.5640869140625,794.981689453125,799.8168334960938
443,784.5054931640625,796.5933837890625,798.6080322265625,801.8314819335938
444,784.908447265625,791.7582397460938,795.3846435546875,793.7728881835938
445,785.7142944335938,794.981689453125,792.1611938476562,788.5347900390625
446,784.1025390625,796.1904907226562,794.5787353515625,791.3552856445312
447,786.5201416015625,790.1465454101562,788.937744140625,788.1318969726562
448,788.1318969726562,791.3552856445312,789.3406372070312,787.3259887695312
449,787.3259887695312,794.981689453125,793.7728881835938,788.5347900390625
450,786.5201416015625,795.3846435546875,790.5494384765625,794.981689453125
451,787.7289428710938,792.967041015625,786.1171875,796.1904907226562
452,792.967041015625,791.3552856445312,786.923095703125,786.1171875
453,794.5787353515625,791.7582397460938,792.967041015625,787.7289428710938
454,793.3699340820312,793.7728881835938,795.7875366210938,794.1758422851562
455,790.952392578125,795.3846435546875,795.3846435546875,787.3259887695312
456,789.7435913085938,793.7728881835938,792.5640869140625,788.5347900390625
457,789.3406372070312,796.1904907226562,793.3699340820312,795.3846435546875
458,784.908447265625,802.6373901367188,797.3992919921875,794.1758422851562
459,783.6996459960938,801.8314819335938,792.967041015625,790.952392578125
460,786.5201416015625,797.8021850585938,792.1611938476562,790.1465454101562
461,782.087890625,792.1611938476562,793.7728881835938,790.5494384765625
462,781.2820434570312,790.952392578125,789.3406372070312,794.981689453125
463,782.087890625,794.1758422851562,792.1611938476562,792.1611938476562
464,782.087890625,792.1611938476562,792.967041015625,785.7142944335938
465,780.879150390625,791.3552856445312,791.3552856445312,780.4761962890625
466,783.2966918945312,796.996337890625,794.5787353515625,777.6557006835938
467,790.5494384765625,794.981689453125,791.3552856445312,777.6557006835938
468,790.1465454101562,792.967041015625,789.7435913085938,778.8644409179688
469,788.5347900390625,789.7435913085938,790.1465454101562,785.3113403320312
470,792.5640869140625,792.5640869140625,787.7289428710938,791.3552856445312
471,796.1904907226562,801.4285888671875,792.1611938476562,788.1318969726562
472,796.1904907226562,800.6226806640625,796.996337890625,788.1318969726562
473,791.7582397460938,796.996337890625,789.7435913085938,794.5787353515625
474,790.5494384765625,798.2051391601562,788.5347900390625,795.7875366210938
475,791.7582397460938,800.6226806640625,791.7582397460938,789.3406372070312
476,790.1465454101562,799.4139404296875,792.5640869140625,786.5201416015625
477,786.923095703125,794.981689453125,792.5640869140625,782.4908447265625
478,785.7142944335938,792.5640869140625,793.7728881835938,780.0732421875
479,784.908447265625,794.981689453125,796.5933837890625,781.2820434570312
480,785.3113403320312,795.7875366210938,799.010986328125,787.7289428710938
481,788.937744140625,796.1904907226562,803.8461303710938,792.5640869140625
482,790.952392578125,796.5933837890625,807.069580078125,793.7728881835938
483,786.5201416015625,795.3846435546875,799.8168334960938,794.981689453125
484,786.1171875,793.7728881835938,794.1758422851562,790.5494384765625
485,790.952392578125,790.5494384765625,801.025634765625,791.7582397460938
486,789.3406372070312,790.1465454101562,804.2490844726562,786.923095703125
487,786.5201416015625,788.5347900390625,801.8314819335938,778.4615478515625
488,784.908447265625,791.7582397460938,798.6080322265625,782.4908447265625
489,785.3113403320312,793.7728881835938,793.3699340820312,780.879150390625
490,791.7582397460938,792.5640869140625,791.7582397460938,782.087890625
491,792.1611938476562,788.1318969726562,791.3552856445312,791.7582397460938
492,793.7728881835938,787.3259887695312,788.1318969726562,790.952392578125
493,796.996337890625,790.1465454101562,786.923095703125,784.908447265625
494,791.7582397460938,788.1318969726562,790.1465454101562,790.5494384765625
495,792.5640869140625,792.5640869140625,790.1465454101562,792.967041015625
496,796.5933837890625,794.1758422851562,786.923095703125,792.967041015625
497,792.5640869140625,792.1611938476562,789.3406372070312,795.7875366210938
498,793.3699340820312,793.3699340820312,793.3699340820312,788.937744140625
499,794.5787353515625,788.937744140625,793.7728881835938,788.937744140625
500,792.1611938476562,782.4908447265625,792.967041015625,795.7875366210938
501,791.7582397460938,784.1025390625,793.7728881835938,793.3699340820312
502,792.5640869140625,789.7435913085938,794.981689453125,790.1465454101562
503,796.5933837890625,791.7582397460938,794.1758422851562,794.1758422851562
504,797.8021850585938,788.937744140625,792.5640869140625,799.8168334960938
505,795.7875366210938,787.7289428710938,789.7435913085938,802.2344360351562
506,794.981689453125,791.3552856445312,792.5640869140625,803.4432373046875
507,794.1758422851562,789.3406372070312,796.1904907226562,807.4725341796875
508,799.010986328125,786.5201416015625,794.5787353515625,809.4871826171875
509,799.010986328125,793.3699340820312,793.3699340820312,802.2344360351562
510,790.5494384765625,792.1611938476562,792.5640869140625,793.7728881835938
511,794.1758422851562,787.3259887695312,786.5201416015625,790.5494384765625
512,801.025634765625,786.1171875,788.1318969726562,796.5933837890625
513,800.2197875976562,788.1318969726562,796.5933837890625,792.967041015625
514,797.3992919921875,787.7289428710938,796.1904907226562,790.952392578125
515,801.8314819335938,789.7435913085938,793.3699340820312,793.3699340820312
516,799.010986328125,795.7875366210938,788.937744140625,784.908447265625
517,796.1904907226562,794.981689453125,791.3552856445312,786.923095703125
518,795.7875366210938,786.1171875,796.1904907226562,799.4139404296875
519,789.7435913085938,782.4908447265625,794.5787353515625,797.8021850585938
520,790.1465454101562,786.5201416015625,786.5201416015625,793.3699340820312
521,788.1318969726562,790.5494384765625,788.937744140625,799.8168334960938
522,780.0732421875,786.923095703125,794.981689453125,804.2490844726562
523,779.2673950195312,782.4908447265625,794.1758422851562,808.6813354492188
524,778.8644409179688,786.5201416015625,794.981689453125,807.87548828125
525,778.05859375,793.7728881835938,799.8168334960938,797.8021850585938
526,786.5201416015625,793.7728881835938,803.8461303710938,800.2197875976562
527,795.7875366210938,791.3552856445312,803.040283203125,811.098876953125
528,794.1758422851562,790.5494384765625,801.025634765625,805.8607788085938
529,790.952392578125,791.7582397460938,799.8168334960938,798.6080322265625
530,793.3699340820312,794.981689453125,801.4285888671875,801.025634765625
531,796.996337890625,797.3992919921875,799.8168334960938,794.981689453125
532,792.967041015625,791.7582397460938,796.5933837890625,786.1171875
533,792.5640869140625,789.7435913085938,794.1758422851562,788.937744140625
534,801.4285888671875,792.5640869140625,794.1758422851562,790.1465454101562
535,799.8168334960938,788.937744140625,794.1758422851562,787.7289428710938
536,797.3992919921875,786.5201416015625,790.5494384765625,782.893798828125
537,796.1904907226562,788.1318969726562,789.3406372070312,779.2673950195312
538,794.1758422851562,796.1904907226562,793.7728881835938,785.7142944335938
539,788.937744140625,798.6080322265625,794.981689453125,788.1318969726562
540,780.0732421875,796.5933837890625,794.1758422851562,785.3113403320312
541,777.2527465820312,792.967041015625,792.5640869140625,784.908447265625
542,784.5054931640625,790.952392578125,791.7582397460938,792.967041015625
543,788.5347900390625,789.3406372070312,792.1611938476562,797.3992919921875
544,784.1025390625,786.1171875,794.981689453125,794.981689453125
545,777.2527465820312,786.5201416015625,801.8314819335938,798.2051391601562
546,778.8644409179688,780.879150390625,803.8461303710938,805.4578857421875
547,774.4322509765625,783.6996459960938,803.4432373046875,800.2197875976562
548,769.1941528320312,790.1465454101562,802.2344360351562,787.7289428710938
549,778.8644409179688,783.6996459960938,799.8168334960938,791.7582397460938
550,784.908447265625,780.0732421875,797.8021850585938,795.3846435546875
551,786.1171875,779.6703491210938,795.7875366210938,796.5933837890625
552,796.5933837890625,785.7142944335938,797.8021850585938,796.996337890625
553,796.1904907226562,793.3699340820312,799.010986328125,793.7728881835938
554,794.981689453125,796.1904907226562,797.3992919921875,800.6226806640625
555,796.5933837890625,787.7289428710938,796.996337890625,805.4578857421875
556,801.025634765625,790.1465454101562,799.8168334960938,801.025634765625
557,809.084228515625,797.8021850585938,800.6226806640625,801.4285888671875
558,819.1575317382812,795.7875366210938,801.4285888671875,811.90478515625
559,822.3809814453125,801.8314819335938,801.8314819335938,804.6520385742188
560,814.7252807617188,803.4432373046875,797.3992919921875,795.3846435546875
561,814.3223266601562,799.010986328125,792.967041015625,796.5933837890625
562,814.7252807617188,800.2197875976562,792.5640869140625,799.010986328125
563,809.4871826171875,799.010986328125,791.3552856445312,803.040283203125
564,807.4725341796875,798.6080322265625,796.5933837890625,805.054931640625
565,798.2051391601562,800.6226806640625,798.6080322265625,799.4139404296875
566,791.7582397460938,792.967041015625,794.1758422851562,801.025634765625
567,792.5640869140625,789.3406372070312,794.981689453125,801.4285888671875
568,782.087890625,792.1611938476562,788.5347900390625,786.923095703125
569,776.8497924804688,789.7435913085938,783.6996459960938,792.1611938476562
570,778.8644409179688,792.967041015625,790.1465454101562,800.6226806640625
571,774.4322509765625,797.8021850585938,796.1904907226562,791.3552856445312
572,771.2088012695312,795.7875366210938,792.1611938476562,786.923095703125
573,776.0439453125,793.3699340820312,792.1611938476562,786.923095703125
574,772.0146484375,785.3113403320312,794.5787353515625,783.2966918945312
575,772.4176025390625,786.1171875,799.8168334960938,785.7142944335938
576,779.2673950195312,789.7435913085938,794.981689453125,785.7142944335938
577,778.8644409179688,791.7582397460938,786.923095703125,782.087890625
578,785.3113403320312,793.7728881835938,789.3406372070312,787.3259887695312
579,798.6080322265625,790.5494384765625,793.7728881835938,800.6226806640625
580,795.7875366210938,788.1318969726562,795.7875366210938,805.4578857421875
581,792.5640869140625,787.3259887695312,792.967041015625,811.098876953125
582,796.5933837890625,795.3846435546875,791.7582397460938,804.6520385742188
583,796.996337890625,800.6226806640625,792.5640869140625,788.1318969726562
584,803.040283203125,791.3552856445312,792.967041015625,789.7435913085938
585,802.6373901367188,787.3259887695312,792.967041015625,790.5494384765625
586,799.8168334960938,795.7875366210938,793.7728881835938,786.1171875
587,795.3846435546875,794.5787353515625,790.952392578125,790.1465454101562
588,795.7875366210938,792.967041015625,794.5787353515625,785.3113403320312
589,799.8168334960938,791.7582397460938,799.8168334960938,785.7142944335938
590,800.6226806640625,786.1171875,799.4139404296875,792.967041015625
591,796.996337890625,790.1465454101562,801.025634765625,798.2051391601562
592,801.8314819335938,792.1611938476562,795.7875366210938,811.098876953125
593,804.2490844726562,790.1465454101562,794.5787353515625,815.1282348632812
594,799.4139404296875,787.7289428710938,802.2344360351562,805.8607788085938
595,792.1611938476562,791.3552856445312,800.2197875976562,799.010986328125
596,783.6996459960938,790.5494384765625,795.7875366210938,800.6226806640625
597,781.2820434570312,788.5347900390625,799.010986328125,802.6373901367188
598,777.6557006835938,786.923095703125,801.025634765625,806.2637329101562
599,776.8497924804688,786.923095703125,801.8314819335938,808.2783813476562
600,780.879150390625,788.5347900390625,803.8461303710938,804.2490844726562
601,785.3113403320312,790.5494384765625,802.6373901367188,800.6226806640625
602,790.5494384765625,788.937744140625,794.981689453125,792.1611938476562
603,794.981689453125,783.6996459960938,788.5347900390625,790.952392578125
604,799.010986328125,786.5201416015625,792.5640869140625,798.2051391601562
605,804.6520385742188,792.967041015625,796.1904907226562,794.1758422851562
606,805.054931640625,792.5640869140625,792.5640869140625,788.5347900390625
607,799.8168334960938,796.1904907226562,784.5054931640625,794.1758422851562
608,798.2051391601562,799.4139404296875,786.1171875,800.2197875976562
609,802.6373901367188,794.981689453125,788.1318969726562,798.2051391601562
610,801.4285888671875,796.5933837890625,789.3406372070312,798.2051391601562
611,800.6226806640625,801.4285888671875,792.5640869140625,798.2051391601562
612,799.4139404296875,796.1904907226562,794.1758422851562,796.996337890625
613,796.5933837890625,792.1611938476562,794.5787353515625,786.923095703125
614,790.952392578125,790.5494384765625,793.7728881835938,781.6849975585938
615,789.7435913085938,786.5201416015625,790.1465454101562,782.893798828125
616,794.1758422851562,789.3406372070312,785.7142944335938,780.879150390625
617,792.5640869140625,792.5640869140625,789.7435913085938,780.0732421875
618,784.5054931640625,791.3552856445312,792.967041015625,785.7142944335938
619,788.5347900390625,795.3846435546875,792.5640869140625,794.981689453125
620,792.5640869140625,794.1758422851562,794.5787353515625,792.967041015625
621,787.7289428710938,792.967041015625,797.3992919921875,787.3259887695312
622,780.4761962890625,791.7582397460938,794.5787353515625,784.1025390625
623,778.05859375,791.7582397460938,791.3552856445312,784.908447265625
624,785.7142944335938,797.8021850585938,796.5933837890625,789.3406372070312
625,791.3552856445312,799.010986328125,799.010986328125,788.937744140625
626,794.5787353515625,795.3846435546875,797.8021850585938,791.3552856445312
627,800.6226806640625,790.5494384765625,791.3552856445312,799.010986328125
628,805.8607788085938,794.981689453125,790.1465454101562,801.8314819335938
629,804.2490844726562,795.3846435546875,790.952392578125,794.5787353515625
630,803.8461303710938,787.7289428710938,789.7435913085938,790.952392578125
631,801.4285888671875,792.1611938476562,791.3552856445312,803.4432373046875
632,794.981689453125,790.1465454101562,789.3406372070312,801.4285888671875
633,792.1611938476562,788.5347900390625,786.5201416015625,794.981689453125
634,789.7435913085938,799.010986328125,788.5347900390625,794.981689453125
635,793.3699340820312,803.8461303710938,792.967041015625,794.5787353515625
636,792.967041015625,801.4285888671875,794.5787353515625,794.981689453125
637,793.3699340820312,800.2197875976562,795.3846435546875,796.996337890625
638,800.2197875976562,800.2197875976562,793.7728881835938,802.6373901367188
639,802.2344360351562,799.010986328125,790.1465454101562,802.2344360351562
640,800.2197875976562,798.2051391601562,794.1758422851562,800.6226806640625
641,794.5787353515625,798.6080322265625,801.025634765625,799.010986328125
642,789.3406372070312,795.3846435546875,799.4139404296875,802.2344360351562
643,790.5494384765625,790.952392578125,796.996337890625,801.025634765625
644,793.3699340820312,789.7435913085938,795.7875366210938,789.7435913085938
645,796.1904907226562,794.981689453125,795.7875366210938,792.5640869140625
646,792.5640869140625,793.3699340820312,797.3992919921875,794.981689453125
647,787.7289428710938,793.7728881835938,795.7875366210938,789.7435913085938
648,792.1611938476562,796.996337890625,800.6226806640625,786.923095703125
649,796.1904907226562,796.996337890625,803.8461303710938,796.996337890625
650,792.967041015625,794.1758422851562,797.8021850585938,798.2051391601562
651,793.7728881835938,792.5640869140625,799.010986328125,798.2051391601562
652,791.3552856445312,797.3992919921875,800.6226806640625,803.8461303710938
653,791.7582397460938,791.7582397460938,799.8168334960938,800.6226806640625
654,794.981689453125,790.1465454101562,798.6080322265625,807.4725341796875
655,793.3699340820312,796.996337890625,803.8461303710938,803.040283203125
656,789.7435913085938,794.5787353515625,804.6520385742188,795.3846435546875
657,794.1758422851562,791.7582397460938,794.5787353515625,798.6080322265625
658,797.8021850585938,792.967041015625,790.952392578125,798.6080322265625
659,792.967041015625,789.7435913085938,791.3552856445312,795.7875366210938
660,792.967041015625,794.981689453125,788.1318969726562,792.5640869140625
661,792.967041015625,802.2344360351562,787.7289428710938,791.7582397460938
662,794.5787353515625,799.4139404296875,790.5494384765625,790.5494384765625
663,796.1904907226562,792.5640869140625,791.3552856445312,788.1318969726562
664,790.5494384765625,793.3699340820312,789.7435913085938,782.893798828125
665,790.952392578125,794.981689453125,790.5494384765625,782.893798828125
666,788.1318969726562,789.3406372070312,789.7435913085938,786.5201416015625
667,780.0732421875,786.1171875,791.3552856445312,777.2527465820312
668,779.6703491210938,783.2966918945312,791.7582397460938,772.8204956054688
669,776.8497924804688,785.3113403320312,791.3552856445312,781.6849975585938
670,779.6703491210938,788.1318969726562,792.1611938476562,790.5494384765625
671,783.2966918945312,786.5201416015625,786.5201416015625,783.6996459960938
672,785.7142944335938,789.3406372070312,788.1318969726562,783.2966918945312
673,787.7289428710938,789.7435913085938,794.1758422851562,785.3113403320312
674,788.1318969726562,790.952392578125,793.3699340820312,781.2820434570312
675,790.952392578125,797.3992919921875,795.7875366210938,780.879150390625
676,793.3699340820312,799.8168334960938,799.4139404296875,783.6996459960938
677,800.6226806640625,794.981689453125,799.8168334960938,792.1611938476562
678,797.3992919921875,791.7582397460938,799.010986328125,795.7875366210938
679,791.7582397460938,793.7728881835938,797.3992919921875,790.5494384765625
680,794.1758422851562,789.7435913085938,794.5787353515625,792.1611938476562
681,792.967041015625,792.5640869140625,798.2051391601562,796.5933837890625
682,793.3699340820312,792.967041015625,801.4285888671875,795.3846435546875
683,791.7582397460938,787.3259887695312,799.010986328125,795.3846435546875
684,794.5787353515625,788.5347900390625,797.8021850585938,797.3992919921875
685,797.3992919921875,791.3552856445312,794.1758422851562,796.5933837890625
686,794.981689453125,789.7435913085938,799.010986328125,801.8314819335938
687,789.3406372070312,784.5054931640625,803.040283203125,808.6813354492188
688,792.967041015625,786.1171875,801.8314819335938,809.4871826171875
689,795.3846435546875,788.937744140625,801.025634765625,806.6666870117188
690,788.937744140625,788.937744140625,800.2197875976562,802.2344360351562
691,796.1904907226562,790.952392578125,799.4139404296875,802.6373901367188
692,805.8607788085938,790.1465454101562,801.4285888671875,801.8314819335938
693,806.6666870117188,792.1611938476562,801.4285888671875,800.2197875976562
694,807.069580078125,793.7728881835938,796.1904907226562,797.8021850585938
695,807.069580078125,790.1465454101562,796.1904907226562,804.2490844726562
696,803.8461303710938,789.3406372070312,797.3992919921875,809.4871826171875
697,806.6666870117188,790.952392578125,797.3992919921875,799.010986328125
698,810.2930297851562,790.5494384765625,796.996337890625,796.5933837890625
699,806.6666870117188,786.923095703125,794.1758422851562,798.2051391601562
700,803.040283203125,782.4908447265625,789.7435913085938,802.2344360351562
701,796.996337890625,786.5201416015625,790.1465454101562,797.8021850585938
702,790.5494384765625,785.3113403320312,791.7582397460938,789.3406372070312
703,790.952392578125,783.6996459960938,793.3699340820312,795.7875366210938
704,788.5347900390625,787.3259887695312,801.025634765625,800.6226806640625
705,788.937744140625,792.967041015625,805.8607788085938,805.8607788085938
706,788.5347900390625,794.981689453125,800.2197875976562,799.010986328125
707,788.5347900390625,792.967041015625,795.7875366210938,789.3406372070312
708,786.923095703125,789.7435913085938,796.1904907226562,792.5640869140625
709,780.0732421875,784.908447265625,795.3846435546875,790.5494384765625
710,781.6849975585938,786.1171875,797.8021850585938,788.937744140625
711,780.4761962890625,784.1025390625,794.981689453125,791.3552856445312
712,779.2673950195312,780.879150390625,792.5640869140625,792.5640869140625
713,781.2820434570312,787.7289428710938,798.6080322265625,788.937744140625
714,781.6849975585938,786.1171875,796.5933837890625,790.1465454101562
715,785.7142944335938,784.908447265625,793.7728881835938,796.1904907226562
716,787.3259887695312,795.3846435546875,794.981689453125,792.5640869140625
717,787.3259887695312,798.6080322265625,794.1758422851562,788.937744140625
718,789.7435913085938,798.2051391601562,794.5787353515625,790.5494384765625
719,790.1465454101562,800.2197875976562,794.1758422851562,792.967041015625
720,792.1611938476562,796.996337890625,792.967041015625,791.3552856445312
721,798.2051391601562,790.5494384765625,794.5787353515625,789.3406372070312
722,797.3992919921875,790.952392578125,796.1904907226562,792.1611938476562
723,795.7875366210938,795.3846435546875,797.8021850585938,797.8021850585938
724,796.5933837890625,796.5933837890625,793.7728881835938,804.2490844726562
725,794.5787353515625,792.967041015625,793.7728881835938,799.4139404296875
726,794.1758422851562,788.1318969726562,794.5787353515625,796.996337890625
727,794.1758422851562,783.6996459960938,788.1318969726562,802.6373901367188
728,793.7728881835938,798.6080322265625,788.5347900390625,796.1904907226562
729,793.7728881835938,807.4725341796875,792.1611938476562,788.1318969726562
730,794.1758422851562,800.2197875976562,793.3699340820312,790.1465454101562
731,786.5201416015625,797.8021850585938,790.1465454101562,790.5494384765625
732,777.6557006835938,796.5933837890625,788.1318969726562,792.967041015625
733,780.4761962890625,794.1758422851562,791.3552856445312,800.6226806640625
734,786.923095703125,792.1611938476562,794.5787353515625,800.2197875976562
735,784.5054931640625,785.7142944335938,788.937744140625,794.981689453125
736,788.5347900390625,785.3113403320312,788.1318969726562,792.967041015625
737,789.3406372070312,792.1611938476562,793.7728881835938,787.7289428710938
738,790.1465454101562,791.7582397460938,796.1904907226562,790.5494384765625
739,796.5933837890625,791.7582397460938,792.967041015625,796.996337890625
740,798.2051391601562,798.6080322265625,792.967041015625,794.981689453125
741,799.4139404296875,799.4139404296875,794.981689453125,794.5787353515625
742,795.7875366210938,796.996337890625,793.7728881835938,799.8168334960938
743,790.952392578125,792.967041015625,792.967041015625,803.4432373046875
744,790.1465454101562,788.5347900390625,788.937744140625,796.5933837890625
745,791.7582397460938,785.3113403320312,788.1318969726562,790.952392578125
746,799.4139404296875,782.893798828125,792.5640869140625,797.3992919921875
747,795.3846435546875,784.1025390625,796.5933837890625,793.3699340820312
748,788.937744140625,785.7142944335938,794.981689453125,780.0732421875
749,792.5640869140625,791.7582397460938,794.5787353515625,781.6849975585938
750,792.1611938476562,787.3259887695312,793.7728881835938,788.5347900390625
751,790.952392578125,784.5054931640625,791.7582397460938,784.5054931640625
752,788.1318969726562,790.952392578125,789.3406372070312,783.2966918945312
753,784.1025390625,791.7582397460938,785.7142944335938,784.5054931640625
754,789.7435913085938,786.5201416015625,787.7289428710938,784.5054931640625
755,785.7142944335938,785.7142944335938,792.5640869140625,784.1025390625
756,779.2673950195312,790.952392578125,794.981689453125,788.5347900390625
757,779.2673950195312,789.7435913085938,793.3699340820312,789.3406372070312
758,784.908447265625,787.7289428710938,796.1904907226562,788.1318969726562
759,782.893798828125,790.1465454101562,796.1904907226562,789.3406372070312
760,778.8644409179688,790.1465454101562,792.5640869140625,786.1171875
761,782.087890625,785.3113403320312,782.4908447265625,786.1171875
762,780.0732421875,787.7289428710938,779.2673950195312,789.3406372070312
763,778.4615478515625,790.952392578125,788.1318969726562,791.3552856445312
764,790.1465454101562,793.3699340820312,790.1465454101562,792.967041015625
765,797.8021850585938,793.7728881835938,789.7435913085938,792.967041015625
766,796.1904907226562,796.1904907226562,790.1465454101562,793.3699340820312
767,797.3992919921875,802.2344360351562,793.7728881835938,799.8168334960938
768,801.4285888671875,799.8168334960938,793.7728881835938,800.6226806640625
769,799.4139404296875,791.7582397460938,788.5347900390625,797.8021850585938
770,794.981689453125,784.1025390625,787.3259887695312,796.1904907226562
771,790.952392578125,782.087890625,787.3259887695312,791.7582397460938
772,788.1318969726562,784.908447265625,788.1318969726562,791.3552856445312
773,792.5640869140625,790.5494384765625,791.3552856445312,802.2344360351562
774,794.5787353515625,797.8021850585938,791.7582397460938,804.6520385742188
775,798.6080322265625,792.967041015625,792.967041015625,802.2344360351562
776,799.4139404296875,788.1318969726562,794.981689453125,797.8021850585938
777,796.1904907226562,791.7582397460938,790.952392578125,786.5201416015625
778,793.3699340820312,791.3552856445312,787.3259887695312,784.908447265625
779,790.5494384765625,790.5494384765625,784.908447265625,787.7289428710938
780,793.7728881835938,794.1758422851562,788.937744140625,793.3699340820312
781,792.5640869140625,791.7582397460938,792.5640869140625,795.7875366210938
782,782.087890625,788.1318969726562,788.1318969726562,787.3259887695312
783,784.908447265625,791.3552856445312,791.3552856445312,784.5054931640625
784,788.5347900390625,787.7289428710938,792.1611938476562,789.3406372070312
785,781.6849975585938,782.4908447265625,792.5640869140625,790.952392578125
786,780.879150390625,787.3259887695312,791.3552856445312,787.7289428710938
787,786.923095703125,788.937744140625,789.7435913085938,788.5347900390625
788,790.5494384765625,790.1465454101562,796.1904907226562,789.7435913085938
789,790.952392578125,782.4908447265625,796.5933837890625,793.3699340820312
790,785.7142944335938,780.0732421875,792.5640869140625,793.3699340820312
791,780.879150390625,784.5054931640625,787.3259887695312,788.937744140625
792,783.6996459960938,784.5054931640625,788.1318969726562,788.5347900390625
793,789.3406372070312,784.1025390625,792.1611938476562,792.5640869140625
794,789.3406372070312,782.893798828125,792.5640869140625,794.1758422851562
795,789.7435913085938,786.5201416015625,790.5494384765625,793.7728881835938
796,793.3699340820312,784.908447265625,789.3406372070312,794.981689453125
797,796.1904907226562,788.5347900390625,793.7728881835938,785.3113403320312
798,792.1611938476562,797.3992919921875,794.1758422851562,780.4761962890625
799,793.3699340820312,794.981689453125,793.7728881835938,788.937744140625
800,799.4139404296875,785.3113403320312,792.967041015625,792.1611938476562
801,799.4139404296875,787.3259887695312,792.1611938476562,794.5787353515625
802,794.981689453125,787.7289428710938,796.996337890625,795.7875366210938
803,794.5787353515625,784.1025390625,801.4285888671875,798.6080322265625
804,794.981689453125,786.5201416015625,800.2197875976562,795.7875366210938
805,795.7875366210938,785.7142944335938,794.981689453125,792.967041015625
806,798.6080322265625,791.7582397460938,797.3992919921875,793.7728881835938
807,801.4285888671875,793.3699340820312,800.6226806640625,799.8168334960938
808,802.6373901367188,792.5640869140625,797.8021850585938,798.2051391601562
809,805.4578857421875,794.5787353515625,796.996337890625,798.2051391601562
810,803.040283203125,791.3552856445312,796.996337890625,806.6666870117188
811,799.010986328125,786.1171875,794.5787353515625,807.069580078125
812,802.2344360351562,791.7582397460938,797.3992919921875,807.87548828125
813,798.6080322265625,790.5494384765625,799.010986328125,800.6226806640625
814,793.7728881835938,779.2673950195312,795.7875366210938,795.3846435546875
815,790.952392578125,784.908447265625,798.2051391601562,790.1465454101562
816,790.5494384765625,795.3846435546875,792.967041015625,780.4761962890625
817,792.1611938476562,797.8021850585938,791.3552856445312,784.1025390625
818,789.7435913085938,797.8021850585938,797.8021850585938,787.7289428710938
819,791.3552856445312,797.8021850585938,799.4139404296875,785.7142944335938
820,789.3406372070312,796.996337890625,791.7582397460938,784.908447265625
821,782.893798828125,794.981689453125,787.3259887695312,789.3406372070312
822,787.3259887695312,790.952392578125,790.5494384765625,797.3992919921875
823,791.3552856445312,794.5787353515625,794.981689453125,801.8314819335938
824,787.7289428710938,799.4139404296875,796.5933837890625,794.981689453125
825,786.5201416015625,792.967041015625,796.5933837890625,787.7289428710938
826,784.5054931640625,788.5347900390625,795.7875366210938,790.5494384765625
827,780.0732421875,786.923095703125,789.7435913085938,788.5347900390625
828,780.4761962890625,789.7435913085938,788.5347900390625,790.5494384765625
829,785.3113403320312,793.7728881835938,795.3846435546875,794.1758422851562
830,790.5494384765625,794.981689453125,794.5787353515625,795.7875366210938
831,790.5494384765625,790.952392578125,788.937744140625,790.5494384765625
832,790.1465454101562,789.3406372070312,788.937744140625,786.923095703125
833,789.3406372070312,789.3406372070312,788.937744140625,781.2820434570312
834,786.1171875,784.1025390625,786.923095703125,782.087890625
835,793.3699340820312,789.7435913085938,792.967041015625,795.3846435546875
836,797.3992919921875,801.4285888671875,793.7728881835938,792.1611938476562
837,798.6080322265625,799.8168334960938,792.967041015625,790.5494384765625
838,796.996337890625,796.996337890625,797.3992919921875,797.8021850585938
839,795.7875366210938,800.2197875976562,796.1904907226562,792.1611938476562
840,798.6080322265625,795.7875366210938,792.967041015625,789.7435913085938
841,793.7728881835938,798.2051391601562,794.981689453125,791.3552856445312
842,791.7582397460938,806.6666870117188,796.5933837890625,792.5640869140625
843,793.7728881835938,802.6373901367188,799.4139404296875,801.4285888671875
844,788.1318969726562,797.3992919921875,803.8461303710938,803.040283203125
845,785.7142944335938,796.996337890625,798.6080322265625,797.8021850585938
846,790.1465454101562,793.3699340820312,795.7875366210938,803.4432373046875
847,784.908447265625,789.3406372070312,798.2051391601562,797.3992919921875
848,782.893798828125,788.1318969726562,796.1904907226562,791.7582397460938
849,784.5054931640625,791.7582397460938,792.1611938476562,788.1318969726562
850,789.7435913085938,792.5640869140625,792.5640869140625,788.5347900390625
851,792.967041015625,788.937744140625,796.1904907226562,787.7289428710938
852,788.5347900390625,790.1465454101562,796.996337890625,789.3406372070312
853,786.5201416015625,784.1025390625,794.1758422851562,794.981689453125
854,786.5201416015625,780.879150390625,793.3699340820312,787.3259887695312
855,792.5640869140625,787.3259887695312,793.7728881835938,782.087890625
856,786.923095703125,788.1318969726562,793.7728881835938,786.923095703125
857,790.1465454101562,782.4908447265625,793.3699340820312,795.7875366210938
858,796.1904907226562,791.3552856445312,797.8021850585938,799.4139404296875
859,790.5494384765625,801.4285888671875,797.8021850585938,791.7582397460938
860,791.3552856445312,795.7875366210938,796.1904907226562,784.908447265625
861,791.7582397460938,792.967041015625,795.7875366210938,786.5201416015625
862,792.967041015625,797.8021850585938,797.8021850585938,790.5494384765625
863,794.5787353515625,797.8021850585938,798.2051391601562,797.8021850585938
864,789.7435913085938,793.3699340820312,794.981689453125,801.8314819335938
865,788.937744140625,793.7728881835938,796.1904907226562,796.1904907226562
866,789.3406372070312,789.7435913085938,795.7875366210938,792.1611938476562
867,785.7142944335938,790.5494384765625,794.5787353515625,791.3552856445312
868,786.1171875,796.996337890625,793.3699340820312,784.908447265625
869,785.3113403320312,795.7875366210938,787.7289428710938,781.6849975585938
870,779.2673950195312,795.3846435546875,782.4908447265625,777.6557006835938
871,782.087890625,798.2051391601562,784.5054931640625,778.8644409179688
872,784.5054931640625,799.8168334960938,784.1025390625,783.2966918945312
873,786.923095703125,800.2197875976562,784.908447265625,780.879150390625
874,792.5640869140625,793.3699340820312,791.7582397460938,778.05859375
875,798.6080322265625,792.1611938476562,799.8168334960938,786.1171875
876,798.6080322265625,798.6080322265625,796.1904907226562,792.1611938476562
877,794.1758422851562,800.2197875976562,792.1611938476562,788.937744140625
878,795.3846435546875,790.952392578125,789.7435913085938,790.952392578125
879,795.7875366210938,789.3406372070312,790.1465454101562,796.1904907226562
880,793.3699340820312,796.1904907226562,789.7435913085938,796.5933837890625
881,798.2051391601562,796.1904907226562,787.7289428710938,799.8168334960938
882,796.996337890625,794.5787353515625,789.7435913085938,798.2051391601562
883,790.952392578125,794.5787353515625,790.1465454101562,795.7875366210938
884,796.996337890625,794.1758422851562,794.1758422851562,796.996337890625
885,803.8461303710938,794.5787353515625,794.981689453125,799.010986328125
886,796.996337890625,794.981689453125,791.3552856445312,796.996337890625
887,799.010986328125,793.7728881835938,790.952392578125,795.7875366210938
888,806.6666870117188,799.8168334960938,794.5787353515625,800.6226806640625
889,801.4285888671875,805.8607788085938,799.8168334960938,799.8168334960938
890,796.5933837890625,800.2197875976562,796.5933837890625,792.5640869140625
891,795.3846435546875,790.952392578125,794.1758422851562,799.010986328125
892,793.3699340820312,787.7289428710938,794.5787353515625,800.6226806640625
893,796.1904907226562,795.7875366210938,793.3699340820312,793.3699340820312
894,796.5933837890625,801.4285888671875,793.7728881835938,791.7582397460938
895,787.3259887695312,794.981689453125,793.3699340820312,787.7289428710938
896,783.6996459960938,794.5787353515625,793.3699340820312,780.4761962890625
897,783.6996459960938,794.5787353515625,792.967041015625,772.0146484375
898,781.2820434570312,790.952392578125,789.3406372070312,774.8351440429688
899,781.6849975585938,791.7582397460938,788.5347900390625,781.6849975585938
900,780.0732421875,787.7289428710938,789.7435913085938,786.923095703125
901,783.6996459960938,788.5347900390625,784.908447265625,792.5640869140625
902,788.937744140625,789.7435913085938,780.879150390625,792.967041015625
903,789.3406372070312,787.7289428710938,782.893798828125,791.3552856445312
904,790.5494384765625,787.3259887695312,787.3259887695312,788.5347900390625
905,790.5494384765625,794.1758422851562,789.7435913085938,789.7435913085938
906,786.1171875,798.2051391601562,789.7435913085938,794.1758422851562
907,792.967041015625,795.3846435546875,788.937744140625,802.2344360351562
908,793.7728881835938,790.5494384765625,789.3406372070312,799.4139404296875
909,786.1171875,788.5347900390625,788.5347900390625,791.3552856445312
910,786.923095703125,790.5494384765625,786.1171875,789.3406372070312
911,790.1465454101562,786.923095703125,788.5347900390625,788.937744140625
912,795.7875366210938,784.5054931640625,790.952392578125,792.1611938476562
913,789.7435913085938,787.3259887695312,788.1318969726562,796.5933837890625
914,789.3406372070312,792.1611938476562,788.937744140625,798.6080322265625
915,794.5787353515625,792.5640869140625,793.3699340820312,792.5640869140625
916,792.5640869140625,785.3113403320312,790.952392578125,789.3406372070312
917,788.1318969726562,786.5201416015625,787.3259887695312,794.1758422851562
918,784.5054931640625,790.952392578125,787.7289428710938,791.7582397460938
919,785.7142944335938,793.7728881835938,793.3699340820312,790.5494384765625
920,786.1171875,790.952392578125,793.3699340820312,794.5787353515625
921,787.7289428710938,789.7435913085938,790.1465454101562,794.1758422851562
922,791.7582397460938,794.1758422851562,792.5640869140625,797.8021850585938
923,790.5494384765625,794.5787353515625,795.7875366210938,795.7875366210938
924,788.1318969726562,794.5787353515625,794.5787353515625,787.7289428710938
925,788.937744140625,794.5787353515625,793.3699340820312,788.1318969726562
926,789.3406372070312,785.3113403320312,794.981689453125,793.3699340820312
927,793.3699340820312,782.4908447265625,800.2197875976562,801.025634765625
928,794.981689453125,790.952392578125,792.5640869140625,793.3699340820312
929,784.5054931640625,792.1611938476562,789.3406372070312,785.3113403320312
930,780.879150390625,787.3259887695312,792.967041015625,791.7582397460938
931,787.7289428710938,791.7582397460938,788.937744140625,794.981689453125
932,787.3259887695312,792.967041015625,787.3259887695312,789.7435913085938
933,781.6849975585938,790.1465454101562,790.952392578125,786.1171875
934,786.1171875,790.1465454101562,794.5787353515625,790.5494384765625
935,785.3113403320312,795.7875366210938,793.7728881835938,786.1171875
936,779.6703491210938,794.1758422851562,792.5640869140625,781.6849975585938
937,783.2966918945312,786.1171875,796.1904907226562,788.5347900390625
938,789.3406372070312,788.5347900390625,792.967041015625,787.3259887695312
939,792.1611938476562,787.3259887695312,788.1318969726562,779.6703491210938
940,790.952392578125,784.5054931640625,794.1758422851562,778.4615478515625
941,785.7142944335938,788.1318969726562,799.8168334960938,782.893798828125
942,789.7435913085938,794.5787353515625,798.6080322265625,789.3406372070312
943,794.5787353515625,792.5640869140625,794.981689453125,786.1171875
944,785.3113403320312,784.908447265625,795.3846435546875,780.0732421875
945,783.6996459960938,789.7435913085938,794.981689453125,782.087890625
946,792.1611938476562,796.1904907226562,796.1904907226562,787.3259887695312
947,791.3552856445312,797.8021850585938,799.010986328125,786.923095703125
948,790.5494384765625,795.7875366210938,796.5933837890625,787.3259887695312
949,792.1611938476562,790.5494384765625,794.981689453125,795.7875366210938
950,795.7875366210938,788.5347900390625,799.010986328125,799.010986328125
951,796.5933837890625,789.3406372070312,798.2051391601562,796.5933837890625
952,796.1904907226562,794.981689453125,799.010986328125,795.7875366210938
953,796.1904907226562,794.1758422851562,802.6373901367188,803.040283203125
954,792.5640869140625,792.967041015625,801.4285888671875,808.2783813476562
955,787.7289428710938,796.1904907226562,800.2197875976562,799.4139404296875
956,784.1025390625,790.1465454101562,795.3846435546875,792.967041015625
957,782.4908447265625,780.879150390625,792.967041015625,800.2197875976562
958,784.5054931640625,785.7142944335938,793.3699340820312,802.6373901367188
959,790.952392578125,794.1758422851562,789.7435913085938,794.1758422851562
960,795.3846435546875,798.2051391601562,786.5201416015625,796.5933837890625
961,788.1318969726562,799.010986328125,787.7289428710938,799.010986328125
962,786.5201416015625,798.6080322265625,795.3846435546875,792.967041015625
963,791.7582397460938,796.5933837890625,796.5933837890625,793.3699340820312
964,796.996337890625,796.5933837890625,798.2051391601562,797.8021850585938
965,796.1904907226562,792.1611938476562,799.010986328125,800.6226806640625
966,790.1465454101562,795.7875366210938,797.8021850585938,794.5787353515625
967,790.1465454101562,799.8168334960938,796.5933837890625,791.7582397460938
968,792.5640869140625,794.981689453125,799.4139404296875,793.3699340820312
969,788.937744140625,790.952392578125,798.6080322265625,789.7435913085938
970,791.3552856445312,793.7728881835938,798.6080322265625,794.5787353515625
971,793.7728881835938,797.8021850585938,802.2344360351562,796.5933837890625
972,795.7875366210938,797.3992919921875,797.8021850585938,790.1465454101562
973,796.1904907226562,795.7875366210938,795.3846435546875,793.7728881835938
974,796.996337890625,796.1904907226562,801.4285888671875,800.6226806640625
975,798.2051391601562,797.8021850585938,799.4139404296875,806.6666870117188
976,799.8168334960938,793.3699340820312,796.1904907226562,814.3223266601562
977,798.2051391601562,795.3846435546875,798.6080322265625,814.7252807617188
978,793.3699340820312,796.1904907226562,802.2344360351562,809.89013671875
979,796.1904907226562,796.1904907226562,803.4432373046875,807.87548828125
980,802.6373901367188,794.1758422851562,802.2344360351562,806.2637329101562
981,802.2344360351562,792.1611938476562,802.6373901367188,806.2637329101562
982,796.5933837890625,790.1465454101562,802.6373901367188,811.098876953125
983,801.025634765625,788.937744140625,799.8168334960938,813.5164794921875
984,799.010986328125,791.7582397460938,799.8168334960938,811.098876953125
985,796.1904907226562,799.8168334960938,799.8168334960938,808.2783813476562
986,799.4139404296875,801.8314819335938,799.8168334960938,811.098876953125
987,798.2051391601562,801.025634765625,801.4285888671875,813.5164794921875
988,795.7875366210938,796.996337890625,799.8168334960938,807.4725341796875
989,792.967041015625,788.1318969726562,794.981689453125,792.1611938476562
990,792.967041015625,791.3552856445312,796.5933837890625,788.1318969726562
991,793.3699340820312,796.5933837890625,796.5933837890625,789.7435913085938
992,794.5787353515625,792.5640869140625,790.1465454101562,787.3259887695312
993,791.3552856445312,791.3552856445312,788.937744140625,783.6996459960938
994,793.3699340820312,795.7875366210938,786.1171875,788.5347900390625
995,798.2051391601562,794.5787353515625,787.7289428710938,794.981689453125
996,798.6080322265625,795.3846435546875,793.3699340820312,797.8021850585938
997,798.6080322265625,799.010986328125,797.8021850585938,799.010986328125
998,799.4139404296875,798.2051391601562,794.981689453125,799.8168334960938
999,799.8168334960938,792.5640869140625,786.5201416015625,801.4285888671875
1000,800.2197875976562,788.1318969726562,789.3406372070312,798.6080322265625
1001,797.8021850585938,789.7435913085938,795.7875366210938,800.6226806640625
1002,794.981689453125,793.7728881835938,797.3992919921875,804.6520385742188
1003,787.7289428710938,790.5494384765625,797.8021850585938,812.7106323242188
1004,780.879150390625,789.3406372070312,798.6080322265625,809.89013671875
1005,782.087890625,792.1611938476562,793.3699340820312,795.3846435546875
1006,785.3113403320312,788.1318969726562,790.5494384765625,792.967041015625
1007,786.1171875,789.3406372070312,794.5787353515625,792.5640869140625
1008,788.1318969726562,794.1758422851562,797.3992919921875,790.5494384765625
1009,786.5201416015625,791.3552856445312,793.7728881835938,793.3699340820312
1010,789.3406372070312,793.7728881835938,790.5494384765625,795.7875366210938
1011,795.3846435546875,793.7728881835938,792.1611938476562,796.996337890625
1012,794.981689453125,791.3552856445312,791.7582397460938,797.3992919921875
1013,786.1171875,797.3992919921875,792.967041015625,788.937744140625
1014,786.1171875,790.1465454101562,795.3846435546875,786.923095703125
1015,792.5640869140625,788.1318969726562,794.5787353515625,793.3699340820312
1016,795.7875366210938,797.3992919921875,791.3552856445312,780.879150390625
1017,794.981689453125,797.3992919921875,794.981689453125,783.6996459960938
1018,789.3406372070312,792.967041015625,794.1758422851562,792.1611938476562
1019,784.1025390625,793.3699340820312,793.7728881835938,785.7142944335938
1020,788.5347900390625,796.996337890625,796.996337890625,786.5201416015625
1021,785.7142944335938,790.5494384765625,794.1758422851562,789.7435913085938
1022,778.05859375,788.1318969726562,792.1611938476562,789.3406372070312
1023,784.1025390625,794.5787353515625,794.5787353515625,790.952392578125
1024,786.1171875,794.5787353515625,794.981689453125,795.7875366210938
1025,788.1318969726562,793.7728881835938,796.996337890625,798.6080322265625
1026,793.3699340820312,794.5787353515625,794.5787353515625,799.010986328125
1027,791.3552856445312,793.7728881835938,792.967041015625,794.981689453125
1028,790.952392578125,789.7435913085938,790.5494384765625,782.893798828125
1029,794.1758422851562,791.7582397460938,790.1465454101562,780.879150390625
1030,794.1758422851562,798.6080322265625,790.952392578125,791.3552856445312
1031,790.5494384765625,799.010986328125,789.7435913085938,787.7289428710938
1032,786.923095703125,793.3699340820312,787.3259887695312,778.8644409179688
1033,783.2966918945312,789.3406372070312,787.7289428710938,774.8351440429688
1034,778.05859375,788.937744140625,788.5347900390625,771.6116943359375
1035,780.4761962890625,789.3406372070312,788.937744140625,772.4176025390625
1036,786.1171875,788.1318969726562,790.1465454101562,770.4029541015625
1037,778.05859375,783.2966918945312,785.7142944335938,765.1648559570312
1038,775.6410522460938,784.1025390625,785.7142944335938,774.029296875
1039,781.2820434570312,788.937744140625,789.7435913085938,776.8497924804688
1040,781.2820434570312,787.3259887695312,788.1318969726562,772.8204956054688
1041,785.3113403320312,791.3552856445312,788.1318969726562,775.2380981445312
1042,792.1611938476562,791.7582397460938,790.952392578125,780.0732421875
1043,792.1611938476562,790.5494384765625,792.1611938476562,783.2966918945312
1044,790.1465454101562,792.1611938476562,795.3846435546875,783.2966918945312
1045,788.5347900390625,790.5494384765625,795.3846435546875,786.1171875
1046,785.3113403320312,789.7435913085938,792.967041015625,786.923095703125
1047,784.1025390625,784.908447265625,792.967041015625,788.937744140625
1048,784.908447265625,785.7142944335938,793.7728881835938,794.981689453125
1049,784.1025390625,791.3552856445312,793.3699340820312,798.2051391601562
1050,787.3259887695312,788.937744140625,792.1611938476562,804.2490844726562
1051,791.7582397460938,788.5347900390625,795.7875366210938,801.025634765625
1052,789.7435913085938,787.3259887695312,793.7728881835938,793.7728881835938
1053,786.923095703125,787.3259887695312,788.937744140625,784.908447265625
1054,788.1318969726562,788.5347900390625,792.1611938476562,786.923095703125
1055,788.1318969726562,779.6703491210938,787.7289428710938,791.3552856445312
1056,788.937744140625,783.2966918945312,787.3259887695312,793.3699340820312
1057,790.5494384765625,793.3699340820312,792.1611938476562,795.3846435546875
1058,793.3699340820312,794.5787353515625,791.7582397460938,794.1758422851562
1059,792.967041015625,790.952392578125,791.7582397460938,788.1318969726562
1060,787.3259887695312,782.087890625,792.1611938476562,789.3406372070312
1061,789.3406372070312,783.2966918945312,792.5640869140625,799.010986328125
1062,790.5494384765625,791.7582397460938,792.1611938476562,800.6226806640625
1063,787.7289428710938,792.1611938476562,792.967041015625,799.4139404296875
1064,785.7142944335938,788.5347900390625,792.5640869140625,797.3992919921875
1065,789.7435913085938,788.1318969726562,793.7728881835938,803.040283203125
1066,794.1758422851562,788.1318969726562,796.1904907226562,799.8168334960938
1067,791.7582397460938,788.5347900390625,793.3699340820312,793.3699340820312
1068,793.3699340820312,787.7289428710938,793.3699340820312,792.967041015625
1069,789.7435913085938,790.952392578125,794.1758422851562,790.952392578125
1070,788.937744140625,792.5640869140625,790.952392578125,789.3406372070312
1071,793.3699340820312,790.1465454101562,791.7582397460938,787.3259887695312
1072,796.5933837890625,790.1465454101562,788.5347900390625,789.7435913085938
1073,796.1904907226562,791.7582397460938,790.952392578125,793.7728881835938
1074,790.952392578125,792.5640869140625,792.967041015625,786.923095703125
1075,792.1611938476562,792.967041015625,792.1611938476562,787.7289428710938
1076,794.981689453125,791.3552856445312,794.981689453125,792.967041015625
1077,796.996337890625,788.937744140625,794.5787353515625,792.1611938476562
1078,798.6080322265625,791.7582397460938,794.5787353515625,788.1318969726562
1079,802.2344360351562,794.981689453125,791.7582397460938,782.893798828125
1080,800.2197875976562,791.7582397460938,788.937744140625,788.937744140625
1081,797.8021850585938,799.4139404296875,792.5640869140625,789.3406372070312
1082,801.4285888671875,809.89013671875,796.5933837890625,787.7289428710938
1083,799.8168334960938,809.084228515625,793.3699340820312,788.5347900390625
1084,797.8021850585938,802.2344360351562,791.3552856445312,788.937744140625
1085,791.7582397460938,802.2344360351562,796.1904907226562,786.923095703125
1086,793.3699340820312,797.3992919921875,793.7728881835938,785.3113403320312
1087,795.7875366210938,793.7728881835938,792.1611938476562,792.1611938476562
1088,793.7728881835938,800.6226806640625,796.5933837890625,794.5787353515625
1089,798.6080322265625,802.2344360351562,798.6080322265625,799.8168334960938
1090,795.3846435546875,798.2051391601562,798.2051391601562,794.981689453125
1091,787.7289428710938,796.996337890625,795.7875366210938,782.4908447265625
1092,788.1318969726562,791.3552856445312,794.1758422851562,782.4908447265625
1093,792.1611938476562,786.5201416015625,799.010986328125,781.2820434570312
1094,791.7582397460938,790.5494384765625,804.2490844726562,782.4908447265625
1095,790.1465454101562,795.3846435546875,800.6226806640625,795.3846435546875
1096,789.3406372070312,794.5787353515625,794.5787353515625,796.996337890625
1097,792.967041015625,795.7875366210938,797.3992919921875,790.952392578125
1098,798.2051391601562,797.3992919921875,798.6080322265625,802.2344360351562
1099,792.967041015625,791.7582397460938,793.3699340820312,802.2344360351562
1100,789.3406372070312,794.5787353515625,794.1758422851562,791.3552856445312
1101,793.3699340820312,797.8021850585938,796.996337890625,787.3259887695312
1102,790.5494384765625,786.923095703125,794.5787353515625,787.3259887695312
1103,783.2966918945312,777.2527465820312,795.7875366210938,790.5494384765625
1104,786.923095703125,783.2966918945312,799.8168334960938,791.3552856445312
1105,790.1465454101562,789.3406372070312,799.8168334960938,797.3992919921875
1106,785.3113403320312,788.1318969726562,801.8314819335938,801.4285888671875
1107,783.6996459960938,790.5494384765625,799.4139404296875,801.025634765625
1108,786.1171875,795.7875366210938,799.4139404296875,799.010986328125
1109,787.3259887695312,799.010986328125,803.4432373046875,796.1904907226562
1110,785.3113403320312,793.7728881835938,800.2197875976562,792.1611938476562
1111,784.908447265625,788.937744140625,795.7875366210938,795.3846435546875
1112,785.3113403320312,792.5640869140625,794.5787353515625,794.1758422851562
1113,790.952392578125,795.7875366210938,794.5787353515625,793.7728881835938
1114,796.996337890625,795.7875366210938,791.7582397460938,797.3992919921875
1115,799.4139404296875,796.5933837890625,796.996337890625,799.010986328125
1116,801.4285888671875,794.981689453125,801.4285888671875,801.4285888671875
1117,796.5933837890625,790.1465454101562,796.1904907226562,797.3992919921875
1118,790.1465454101562,786.1171875,795.7875366210938,796.5933837890625
1119,789.7435913085938,786.5201416015625,794.1758422851562,796.5933837890625
1120,786.923095703125,790.952392578125,790.952392578125,793.3699340820312
1121,788.1318969726562,797.8021850585938,790.1465454101562,795.7875366210938
1122,788.1318969726562,795.3846435546875,784.1025390625,804.6520385742188
1123,789.7435913085938,790.1465454101562,786.923095703125,806.2637329101562
1124,788.1318969726562,791.7582397460938,795.7875366210938,800.6226806640625
1125,791.7582397460938,792.5640869140625,800.6226806640625,801.4285888671875
1126,801.8314819335938,792.967041015625,796.1904907226562,801.4285888671875
1127,805.8607788085938,794.981689453125,793.3699340820312,805.8607788085938
1128,799.4139404296875,787.7289428710938,799.010986328125,805.8607788085938
1129,792.5640869140625,786.1171875,796.5933837890625,799.8168334960938
1130,792.5640869140625,791.3552856445312,796.996337890625,803.4432373046875
1131,792.5640869140625,798.2051391601562,798.6080322265625,809.89013671875
1132,790.952392578125,799.8168334960938,796.996337890625,801.8314819335938
1133,794.5787353515625,791.3552856445312,798.2051391601562,799.8168334960938
1134,802.6373901367188,793.7728881835938,795.3846435546875,805.8607788085938
1135,796.996337890625,801.4285888671875,797.8021850585938,796.5933837890625
1136,794.5787353515625,804.6520385742188,802.2344360351562,794.1758422851562
1137,798.6080322265625,798.6080322265625,798.6080322265625,799.4139404296875
1138,801.4285888671875,789.3406372070312,797.8021850585938,794.981689453125
1139,806.2637329101562,789.3406372070312,799.8168334960938,794.5787353515625
1140,804.6520385742188,789.7435913085938,798.2051391601562,791.7582397460938
1141,793.7728881835938,790.952392578125,791.7582397460938,790.5494384765625
1142,786.1171875,794.5787353515625,788.937744140625,791.7582397460938
1143,790.5494384765625,791.3552856445312,793.3699340820312,795.3846435546875
1144,798.6080322265625,793.7728881835938,796.5933837890625,799.010986328125
1145,795.7875366210938,796.996337890625,793.3699340820312,801.8314819335938
1146,792.5640869140625,794.1758422851562,794.981689453125,805.4578857421875
1147,798.6080322265625,792.1611938476562,800.6226806640625,808.6813354492188
1148,805.054931640625,790.1465454101562,796.996337890625,810.6959838867188
1149,801.8314819335938,788.937744140625,793.3699340820312,807.87548828125
1150,795.7875366210938,789.7435913085938,792.967041015625,805.054931640625
1151,792.967041015625,792.5640869140625,795.3846435546875,803.4432373046875
1152,792.967041015625,790.5494384765625,792.1611938476562,798.6080322265625
1153,791.3552856445312,789.7435913085938,788.5347900390625,788.5347900390625
1154,788.5347900390625,793.7728881835938,792.1611938476562,790.952392578125
1155,791.7582397460938,789.7435913085938,791.3552856445312,787.3259887695312
1156,789.7435913085938,788.937744140625,791.3552856445312,785.3113403320312
1157,789.3406372070312,793.7728881835938,793.7728881835938,799.8168334960938
1158,794.5787353515625,795.3846435546875,796.996337890625,794.5787353515625
1159,792.967041015625,796.996337890625,795.7875366210938,781.6849975585938
1160,791.3552856445312,794.5787353515625,794.1758422851562,777.2527465820312
1161,792.1611938476562,793.3699340820312,796.1904907226562,784.1025390625
1162,787.3259887695312,792.967041015625,794.5787353515625,789.3406372070312
1163,784.1025390625,794.5787353515625,793.3699340820312,786.923095703125
1164,784.908447265625,792.967041015625,793.3699340820312,787.7289428710938
1165,783.2966918945312,791.7582397460938,794.981689453125,795.3846435546875
1166,786.1171875,795.3846435546875,800.6226806640625,804.6520385742188
1167,788.5347900390625,794.1758422851562,798.2051391601562,805.054931640625
1168,795.3846435546875,793.7728881835938,798.6080322265625,805.4578857421875
1169,798.6080322265625,796.1904907226562,800.2197875976562,807.87548828125
1170,796.1904907226562,798.2051391601562,799.4139404296875,805.8607788085938
1171,797.3992919921875,798.6080322265625,792.967041015625,805.4578857421875
1172,793.3699340820312,799.4139404296875,794.5787353515625,807.4725341796875
1173,797.3992919921875,795.3846435546875,801.025634765625,809.4871826171875
1174,803.4432373046875,797.3992919921875,801.4285888671875,804.6520385742188
1175,806.2637329101562,796.996337890625,799.010986328125,797.3992919921875
1176,808.2783813476562,790.952392578125,798.2051391601562,793.7728881835938
1177,802.2344360351562,796.996337890625,799.4139404296875,789.3406372070312
1178,798.2051391601562,796.5933837890625,793.7728881835938,786.1171875
1179,796.996337890625,791.7582397460938,791.3552856445312,791.3552856445312
1180,794.981689453125,787.3259887695312,789.7435913085938,799.010986328125
1181,790.5494384765625,791.7582397460938,791.7582397460938,790.952392578125
1182,786.923095703125,797.8021850585938,793.3699340820312,778.4615478515625
1183,783.6996459960938,794.981689453125,794.5787353515625,779.2673950195312
1184,782.893798828125,791.7582397460938,794.5787353515625,782.4908447265625
1185,780.0732421875,787.7289428710938,790.5494384765625,782.4908447265625
1186,782.4908447265625,788.1318969726562,794.981689453125,790.5494384765625
1187,783.6996459960938,786.5201416015625,796.5933837890625,794.981689453125
1188,772.8204956054688,780.879150390625,792.1611938476562,787.3259887695312
1189,772.8204956054688,781.6849975585938,793.3699340820312,787.7289428710938
1190,782.087890625,786.5201416015625,796.1904907226562,791.3552856445312
1191,783.2966918945312,783.6996459960938,794.5787353515625,794.5787353515625
1192,782.087890625,786.5201416015625,791.3552856445312,799.4139404296875
1193,784.908447265625,790.5494384765625,790.952392578125,796.5933837890625
1194,789.3406372070312,786.1171875,790.952392578125,799.4139404296875
1195,800.2197875976562,786.1171875,790.952392578125,799.8168334960938
1196,803.8461303710938,795.7875366210938,794.1758422851562,789.3406372070312
1197,798.2051391601562,794.981689453125,793.7728881835938,787.3259887695312
1198,794.1758422851562,785.3113403320312,790.1465454101562,784.908447265625
1199,791.7582397460938,787.7289428710938,793.7728881835938,785.7142944335938
1200,797.3992919921875,788.937744140625,797.8021850585938,788.5347900390625
1201,796.5933837890625,785.7142944335938,793.7728881835938,783.2966918945312
1202,791.7582397460938,784.908447265625,791.7582397460938,783.2966918945312
1203,786.1171875,780.4761962890625,793.7728881835938,780.879150390625
1204,779.6703491210938,788.5347900390625,792.967041015625,782.4908447265625
1205,777.6557006835938,793.7728881835938,793.7728881835938,784.5054931640625
1206,775.2380981445312,788.5347900390625,793.7728881835938,785.3113403320312
1207,770.4029541015625,786.923095703125,788.5347900390625,792.5640869140625
1208,766.7765502929688,791.3552856445312,791.3552856445312,785.7142944335938
1209,774.8351440429688,795.7875366210938,794.981689453125,782.087890625
1210,775.2380981445312,786.923095703125,790.5494384765625,781.6849975585938
1211,778.05859375,784.1025390625,790.1465454101562,780.879150390625
1212,781.6849975585938,788.1318969726562,794.981689453125,790.5494384765625
1213,778.8644409179688,792.5640869140625,796.1904907226562,790.952392578125
1214,787.3259887695312,794.5787353515625,793.3699340820312,789.7435913085938
1215,793.3699340820312,790.952392578125,791.7582397460938,788.937744140625
1216,799.4139404296875,793.7728881835938,794.981689453125,791.3552856445312
1217,802.6373901367188,795.7875366210938,797.3992919921875,793.3699340820312
1218,803.040283203125,798.2051391601562,794.1758422851562,795.7875366210938
1219,800.6226806640625,796.5933837890625,794.981689453125,799.010986328125
1220,796.1904907226562,788.5347900390625,794.5787353515625,792.1611938476562
1221,802.2344360351562,790.1465454101562,794.1758422851562,797.8021850585938
1222,804.2490844726562,796.5933837890625,792.5640869140625,799.4139404296875
1223,800.6226806640625,794.1758422851562,795.3846435546875,792.1611938476562
1224,797.3992919921875,795.7875366210938,796.5933837890625,790.1465454101562
1225,798.2051391601562,796.1904907226562,795.3846435546875,790.952392578125
1226,798.6080322265625,795.7875366210938,797.3992919921875,798.6080322265625
1227,791.3552856445312,792.967041015625,796.5933837890625,803.4432373046875
1228,790.1465454101562,797.3992919921875,797.3992919921875,803.040283203125
1229,784.5054931640625,798.2051391601562,796.1904907226562,800.2197875976562
1230,781.6849975585938,791.7582397460938,794.5787353515625,801.8314819335938
1231,784.908447265625,792.967041015625,797.8021850585938,795.7875366210938
1232,790.1465454101562,798.2051391601562,799.4139404296875,794.5787353515625
1233,790.1465454101562,799.8168334960938,796.996337890625,799.4139404296875
1234,786.923095703125,798.2051391601562,798.2051391601562,796.1904907226562
1235,788.937744140625,794.981689453125,799.010986328125,788.1318969726562
1236,790.1465454101562,792.1611938476562,796.5933837890625,785.3113403320312
1237,794.981689453125,792.1611938476562,796.996337890625,787.7289428710938
1238,801.025634765625,790.1465454101562,795.7875366210938,786.5201416015625
1239,797.3992919921875,788.1318969726562,792.5640869140625,788.937744140625
1240,796.996337890625,790.1465454101562,792.967041015625,791.7582397460938
1241,798.2051391601562,792.1611938476562,794.5787353515625,794.5787353515625
1242,800.6226806640625,799.010986328125,795.3846435546875,803.040283203125
1243,801.025634765625,804.2490844726562,794.1758422851562,797.3992919921875
1244,803.8461303710938,800.2197875976562,790.1465454101562,799.010986328125
1245,803.4432373046875,794.981689453125,787.7289428710938,801.8314819335938
1246,794.1758422851562,795.7875366210938,790.5494384765625,794.5787353515625
1247,790.1465454101562,791.7582397460938,790.5494384765625,788.5347900390625
1248,789.7435913085938,790.952392578125,789.3406372070312,790.5494384765625
1249,785.7142944335938,795.7875366210938,789.7435913085938,797.3992919921875
1250,784.1025390625,797.3992919921875,794.1758422851562,792.5640869140625
1251,790.1465454101562,794.5787353515625,795.3846435546875,795.3846435546875
1252,792.5640869140625,797.8021850585938,788.1318969726562,802.6373901367188
1253,791.7582397460938,798.6080322265625,782.4908447265625,803.8461303710938
1254,787.3259887695312,792.967041015625,790.1465454101562,792.967041015625
1255,782.087890625,787.7289428710938,791.3552856445312,790.952392578125
1256,783.6996459960938,790.5494384765625,786.5201416015625,799.4139404296875
1257,783.2966918945312,793.3699340820312,789.7435913085938,796.1904907226562
1258,786.5201416015625,787.7289428710938,794.5787353515625,788.5347900390625
1259,789.7435913085938,783.2966918945312,792.1611938476562,783.6996459960938
1260,790.5494384765625,786.923095703125,790.952392578125,781.2820434570312
1261,801.025634765625,784.1025390625,796.996337890625,786.1171875
1262,814.7252807617188,784.908447265625,799.010986328125,801.025634765625
1263,811.098876953125,796.5933837890625,793.7728881835938,790.952392578125
1264,801.4285888671875,795.7875366210938,788.1318969726562,778.05859375
1265,796.996337890625,793.3699340820312,787.7289428710938,779.6703491210938
1266,788.1318969726562,799.010986328125,794.1758422851562,778.05859375
1267,788.937744140625,802.6373901367188,796.1904907226562,780.0732421875
1268,796.1904907226562,796.1904907226562,794.1758422851562,791.7582397460938
1269,790.5494384765625,792.1611938476562,793.7728881835938,792.5640869140625
1270,780.879150390625,796.5933837890625,792.967041015625,782.4908447265625
1271,780.879150390625,793.7728881835938,790.952392578125,788.1318969726562
1272,781.6849975585938,792.5640869140625,787.7289428710938,790.952392578125
1273,784.908447265625,796.5933837890625,789.3406372070312,792.5640869140625
1274,792.5640869140625,798.6080322265625,796.1904907226562,796.5933837890625
1275,797.3992919921875,799.4139404296875,796.5933837890625,799.8168334960938
1276,800.2197875976562,800.6226806640625,790.5494384765625,804.6520385742188
1277,797.3992919921875,798.2051391601562,792.5640869140625,796.5933837890625
1278,792.1611938476562,796.5933837890625,795.3846435546875,792.967041015625
1279,789.3406372070312,795.7875366210938,794.5787353515625,794.1758422851562
1280,791.3552856445312,795.3846435546875,794.1758422851562,785.3113403320312
1281,798.2051391601562,796.996337890625,793.3699340820312,780.4761962890625
1282,796.996337890625,794.1758422851562,792.5640869140625,775.6410522460938
1283,793.3699340820312,788.937744140625,787.7289428710938,775.6410522460938
1284,792.967041015625,788.5347900390625,791.3552856445312,786.923095703125
1285,794.5787353515625,792.967041015625,796.5933837890625,789.7435913085938
1286,798.6080322265625,797.3992919921875,797.3992919921875,794.1758422851562
1287,799.4139404296875,797.8021850585938,794.981689453125,799.010986328125
1288,794.1758422851562,797.8021850585938,792.967041015625,792.5640869140625
1289,788.5347900390625,792.967041015625,788.937744140625,794.5787353515625
1290,788.937744140625,789.7435913085938,788.5347900390625,795.7875366210938
1291,796.5933837890625,794.1758422851562,794.981689453125,800.2197875976562
1292,796.1904907226562,800.6226806640625,794.5787353515625,801.8314819335938
1293,790.952392578125,801.8314819335938,797.3992919921875,796.1904907226562
1294,795.7875366210938,796.996337890625,796.5933837890625,794.981689453125
1295,797.8021850585938,794.1758422851562,790.952392578125,795.3846435546875
1296,802.6373901367188,796.1904907226562,792.967041015625,793.7728881835938
1297,801.025634765625,796.1904907226562,791.7582397460938,792.5640869140625
1298,804.2490844726562,796.1904907226562,791.7582397460938,798.6080322265625
1299,803.4432373046875,792.967041015625,789.3406372070312,799.010986328125
1300,793.7728881835938,786.5201416015625,791.3552856445312,790.5494384765625
1301,791.3552856445312,782.893798828125,799.010986328125,791.3552856445312
1302,790.952392578125,788.937744140625,799.8168334960938,798.6080322265625
1303,792.967041015625,794.5787353515625,796.996337890625,799.4139404296875
1304,794.981689453125,791.3552856445312,798.2051391601562,806.2637329101562
1305,792.967041015625,789.7435913085938,799.4139404296875,812.3076782226562
1306,792.967041015625,791.3552856445312,789.7435913085938,805.054931640625
1307,795.3846435546875,791.7582397460938,788.5347900390625,803.4432373046875
1308,799.010986328125,797.8021850585938,798.6080322265625,804.6520385742188
1309,797.8021850585938,796.1904907226562,799.010986328125,786.1171875
1310,796.996337890625,788.1318969726562,789.7435913085938,779.6703491210938
1311,798.6080322265625,788.1318969726562,789.7435913085938,789.7435913085938
1312,797.3992919921875,794.981689453125,795.7875366210938,787.3259887695312
1313,799.010986328125,795.7875366210938,793.3699340820312,783.6996459960938
1314,800.6226806640625,792.5640869140625,787.3259887695312,787.3259887695312
1315,794.981689453125,793.7728881835938,783.6996459960938,788.937744140625
1316,793.3699340820312,792.1611938476562,787.7289428710938,792.967041015625
1317,796.1904907226562,790.1465454101562,792.1611938476562,796.1904907226562
1318,796.5933837890625,791.7582397460938,790.1465454101562,796.996337890625
1319,796.996337890625,795.3846435546875,789.7435913085938,797.3992919921875
1320,794.1758422851562,797.3992919921875,790.952392578125,796.5933837890625
1321,788.937744140625,794.981689453125,790.1465454101562,795.3846435546875
1322,788.937744140625,796.996337890625,791.7582397460938,794.1758422851562
1323,795.3846435546875,800.2197875976562,792.5640869140625,797.8021850585938
1324,801.4285888671875,798.6080322265625,791.3552856445312,797.8021850585938
1325,794.1758422851562,794.981689453125,790.5494384765625,796.5933837890625
1326,792.5640869140625,785.7142944335938,792.1611938476562,805.054931640625
1327,797.3992919921875,789.7435913085938,794.981689453125,807.87548828125
1328,799.4139404296875,794.5787353515625,795.7875366210938,804.6520385742188
1329,793.7728881835938,785.3113403320312,794.1758422851562,797.8021850585938
1330,792.1611938476562,788.937744140625,790.5494384765625,792.5640869140625
1331,791.3552856445312,796.1904907226562,790.5494384765625,794.5787353515625
1332,792.5640869140625,796.1904907226562,794.1758422851562,793.7728881835938
1333,799.4139404296875,793.7728881835938,795.3846435546875,794.1758422851562
1334,802.2344360351562,792.967041015625,789.3406372070312,789.7435913085938
1335,797.8021850585938,792.5640869140625,785.7142944335938,783.6996459960938
1336,790.5494384765625,790.952392578125,788.1318969726562,785.3113403320312
1337,784.1025390625,787.7289428710938,786.923095703125,789.7435913085938
1338,784.5054931640625,783.2966918945312,788.937744140625,796.996337890625
1339,787.3259887695312,783.6996459960938,794.5787353515625,797.3992919921875
1340,786.923095703125,789.7435913085938,796.5933837890625,796.1904907226562
1341,788.1318969726562,792.1611938476562,790.5494384765625,797.8021850585938
1342,791.3552856445312,790.1465454101562,786.923095703125,799.010986328125
1343,790.952392578125,781.2820434570312,789.3406372070312,791.7582397460938
1344,794.5787353515625,783.6996459960938,788.937744140625,783.6996459960938
1345,801.4285888671875,794.981689453125,793.3699340820312,791.7582397460938
1346,799.8168334960938,795.7875366210938,796.1904907226562,796.5933837890625
1347,796.996337890625,792.1611938476562,797.3992919921875,784.1025390625
1348,791.7582397460938,791.7582397460938,796.996337890625,779.6703491210938
1349,789.3406372070312,789.3406372070312,790.1465454101562,794.981689453125
1350,787.3259887695312,786.1171875,788.937744140625,794.1758422851562
1351,783.2966918945312,788.937744140625,790.5494384765625,788.937744140625
1352,786.1171875,790.952392578125,786.5201416015625,789.7435913085938
1353,794.1758422851562,793.7728881835938,788.937744140625,794.1758422851562
1354,794.5787353515625,795.7875366210938,784.5054931640625,803.4432373046875
1355,788.1318969726562,792.1611938476562,786.1171875,805.054931640625
1356,791.3552856445312,788.1318969726562,796.1904907226562,801.025634765625
1357,796.1904907226562,787.7289428710938,795.7875366210938,797.3992919921875
1358,795.3846435546875,794.1758422851562,800.2197875976562,799.010986328125
1359,803.4432373046875,796.1904907226562,797.3992919921875,797.8021850585938
1360,798.6080322265625,793.3699340820312,790.5494384765625,797.8021850585938
1361,790.952392578125,791.7582397460938,791.3552856445312,798.2051391601562
1362,790.952392578125,794.981689453125,796.996337890625,796.1904907226562
1363,792.1611938476562,794.1758422851562,803.040283203125,800.6226806640625
1364,793.3699340820312,791.3552856445312,801.8314819335938,805.8607788085938
1365,786.923095703125,792.967041015625,801.025634765625,797.8021850585938
1366,780.879150390625,795.3846435546875,797.3992919921875,788.1318969726562
1367,781.6849975585938,794.1758422851562,796.1904907226562,793.3699340820312
1368,783.2966918945312,788.937744140625,797.3992919921875,797.8021850585938
1369,784.908447265625,781.2820434570312,794.1758422851562,793.7728881835938
1370,784.5054931640625,788.1318969726562,793.7728881835938,793.7728881835938
1371,784.908447265625,794.1758422851562,794.5787353515625,796.5933837890625
1372,786.1171875,792.1611938476562,795.3846435546875,800.6226806640625
1373,781.2820434570312,788.5347900390625,794.981689453125,802.6373901367188
1374,785.3113403320312,790.5494384765625,791.7582397460938,801.8314819335938
1375,792.5640869140625,797.8021850585938,796.996337890625,804.2490844726562
1376,795.3846435546875,796.1904907226562,798.2051391601562,811.90478515625
1377,792.967041015625,794.1758422851562,792.1611938476562,802.6373901367188
1378,788.937744140625,797.8021850585938,786.923095703125,790.5494384765625
1379,788.937744140625,799.010986328125,788.5347900390625,785.3113403320312
1380,781.2820434570312,798.2051391601562,790.1465454101562,777.6557006835938
1381,779.2673950195312,797.3992919921875,794.1758422851562,775.6410522460938
1382,786.5201416015625,797.3992919921875,793.7728881835938,779.6703491210938
1383,788.5347900390625,796.5933837890625,787.3259887695312,789.3406372070312
1384,787.3259887695312,795.3846435546875,792.1611938476562,793.7728881835938
1385,791.3552856445312,793.7728881835938,793.7728881835938,791.7582397460938
1386,787.3259887695312,790.5494384765625,787.3259887695312,786.1171875
1387,783.6996459960938,788.1318969726562,789.3406372070312,789.7435913085938
1388,788.1318969726562,792.1611938476562,796.5933837890625,799.4139404296875
1389,786.923095703125,795.7875366210938,798.2051391601562,795.3846435546875
1390,787.3259887695312,794.5787353515625,794.981689453125,790.5494384765625
1391,790.1465454101562,789.7435913085938,792.967041015625,795.3846435546875
1392,788.1318969726562,790.5494384765625,788.5347900390625,793.7728881835938
1393,783.2966918945312,794.981689453125,792.967041015625,794.1758422851562
1394,780.879150390625,793.7728881835938,796.1904907226562,793.7728881835938
1395,781.2820434570312,792.5640869140625,788.1318969726562,788.937744140625
1396,782.4908447265625,790.1465454101562,787.3259887695312,783.2966918945312
1397,787.7289428710938,791.3552856445312,791.3552856445312,784.1025390625
1398,793.3699340820312,789.3406372070312,792.5640869140625,788.937744140625
1399,794.981689453125,786.923095703125,792.967041015625,790.952392578125
1400,790.1465454101562,795.7875366210938,792.1611938476562,784.908447265625
1401,790.1465454101562,800.6226806640625,794.5787353515625,788.5347900390625
1402,799.8168334960938,801.4285888671875,799.4139404296875,796.996337890625
1403,803.4432373046875,800.2197875976562,800.6226806640625,794.1758422851562
1404,798.6080322265625,798.2051391601562,793.7728881835938,794.1758422851562
1405,796.996337890625,803.040283203125,792.967041015625,798.2051391601562
1406,797.3992919921875,801.4285888671875,792.1611938476562,796.996337890625
1407,792.5640869140625,800.6226806640625,790.5494384765625,795.3846435546875
1408,786.923095703125,803.4432373046875,789.7435913085938,794.5787353515625
1409,785.7142944335938,801.025634765625,791.3552856445312,795.7875366210938
1410,790.1465454101562,789.7435913085938,791.3552856445312,803.040283203125
1411,790.952392578125,787.3259887695312,788.5347900390625,801.8314819335938
1412,791.7582397460938,794.981689453125,788.1318969726562,787.7289428710938
1413,790.952392578125,795.7875366210938,787.7289428710938,781.2820434570312
1414,791.7582397460938,796.5933837890625,788.1318969726562,787.7289428710938
1415,794.981689453125,798.2051391601562,788.5347900390625,790.5494384765625
1416,796.996337890625,796.1904907226562,788.937744140625,791.3552856445312
1417,794.981689453125,793.7728881835938,786.1171875,791.3552856445312
1418,792.5640869140625,794.981689453125,786.1171875,790.1465454101562
1419,801.8314819335938,795.3846435546875,789.7435913085938,794.1758422851562
1420,806.2637329101562,795.3846435546875,790.952392578125,792.967041015625
1421,800.6226806640625,797.3992919921875,792.1611938476562,791.7582397460938
1422,800.6226806640625,791.3552856445312,796.1904907226562,807.069580078125
1423,803.8461303710938,793.3699340820312,797.3992919921875,803.8461303710938
1424,798.6080322265625,800.6226806640625,795.3846435546875,794.981689453125
1425,793.7728881835938,796.996337890625,799.8168334960938,801.025634765625
1426,795.7875366210938,793.3699340820312,795.7875366210938,798.6080322265625
1427,794.981689453125,788.1318969726562,792.5640869140625,794.1758422851562
1428,789.3406372070312,788.1318969726562,799.8168334960938,799.8168334960938
1429,783.6996459960938,791.3552856445312,796.996337890625,800.6226806640625
1430,785.3113403320312,792.5640869140625,792.967041015625,794.5787353515625
1431,785.7142944335938,792.5640869140625,796.5933837890625,799.4139404296875
1432,783.2966918945312,795.7875366210938,797.3992919921875,796.1904907226562
1433,785.3113403320312,789.7435913085938,796.1904907226562,790.1465454101562
1434,785.3113403320312,788.5347900390625,792.967041015625,794.981689453125
1435,786.923095703125,802.6373901367188,793.7728881835938,794.1758422851562
1436,790.1465454101562,805.054931640625,799.010986328125,794.1758422851562
1437,792.1611938476562,798.6080322265625,800.2197875976562,790.952392578125
1438,790.1465454101562,797.8021850585938,793.7728881835938,781.6849975585938
1439,788.1318969726562,795.3846435546875,791.7582397460938,782.893798828125
1440,789.7435913085938,796.1904907226562,794.981689453125,792.5640869140625
1441,789.7435913085938,794.5787353515625,794.1758422851562,790.1465454101562
1442,790.5494384765625,792.5640869140625,791.7582397460938,789.3406372070312
1443,793.3699340820312,796.5933837890625,792.5640869140625,795.7875366210938
1444,791.3552856445312,792.5640869140625,790.952392578125,785.7142944335938
1445,780.879150390625,787.3259887695312,789.3406372070312,776.4468994140625
1446,779.6703491210938,785.7142944335938,791.7582397460938,781.2820434570312
1447,781.6849975585938,792.1611938476562,793.7728881835938,788.5347900390625
1448,778.4615478515625,795.7875366210938,799.4139404296875,794.1758422851562
1449,782.087890625,796.5933837890625,801.8314819335938,798.6080322265625
1450,786.1171875,794.981689453125,799.010986328125,798.6080322265625
1451,783.2966918945312,789.7435913085938,796.5933837890625,788.1318969726562
1452,786.1171875,789.7435913085938,796.996337890625,784.5054931640625
1453,790.1465454101562,786.1171875,800.2197875976562,790.1465454101562
1454,790.952392578125,788.5347900390625,798.6080322265625,788.5347900390625
1455,795.3846435546875,794.5787353515625,797.8021850585938,791.3552856445312
1456,791.7582397460938,792.967041015625,794.1758422851562,789.3406372070312
1457,789.7435913085938,797.3992919921875,793.3699340820312,785.7142944335938
1458,790.5494384765625,799.4139404296875,798.6080322265625,780.0732421875
1459,790.952392578125,788.5347900390625,796.1904907226562,775.2380981445312
1460,790.5494384765625,788.5347900390625,793.3699340820312,779.6703491210938
1461,789.7435913085938,796.1904907226562,790.1465454101562,778.8644409179688
1462,794.5787353515625,795.7875366210938,790.952392578125,778.8644409179688
1463,795.3846435546875,794.1758422851562,797.3992919921875,788.5347900390625
1464,796.5933837890625,793.7728881835938,799.010986328125,789.3406372070312
1465,797.3992919921875,794.5787353515625,797.3992919921875,785.3113403320312
1466,795.7875366210938,790.1465454101562,795.3846435546875,786.5201416015625
1467,797.3992919921875,784.908447265625,791.3552856445312,787.3259887695312
1468,797.3992919921875,788.1318969726562,790.952392578125,790.5494384765625
1469,788.1318969726562,788.937744140625,793.7728881835938,783.2966918945312
1470,786.1171875,786.1171875,790.952392578125,780.0732421875
1471,786.5201416015625,784.908447265625,797.3992919921875,790.1465454101562
1472,782.4908447265625,782.4908447265625,794.981689453125,789.7435913085938
1473,787.7289428710938,790.1465454101562,791.3552856445312,786.923095703125
1474,794.981689453125,796.996337890625,795.7875366210938,790.1465454101562
1475,795.3846435546875,795.7875366210938,792.5640869140625,787.3259887695312
1476,796.996337890625,795.3846435546875,790.5494384765625,790.952392578125
1477,796.996337890625,794.5787353515625,788.937744140625,795.3846435546875
1478,797.8021850585938,790.5494384765625,790.1465454101562,795.7875366210938
1479,800.6226806640625,782.893798828125,794.981689453125,796.996337890625
1480,795.3846435546875,781.2820434570312,796.5933837890625,793.3699340820312
1481,793.7728881835938,789.3406372070312,793.7728881835938,787.7289428710938
1482,800.2197875976562,793.7728881835938,795.7875366210938,785.3113403320312
1483,798.6080322265625,782.4908447265625,793.3699340820312,794.1758422851562
1484,791.3552856445312,786.923095703125,791.3552856445312,794.5787353515625
1485,794.1758422851562,799.4139404296875,794.981689453125,788.1318969726562
1486,800.2197875976562,797.3992919921875,797.3992919921875,792.967041015625
1487,801.4285888671875,795.7875366210938,793.7728881835938,792.1611938476562
1488,802.6373901367188,789.7435913085938,790.952392578125,794.5787353515625
1489,799.8168334960938,788.1318969726562,794.981689453125,796.996337890625
1490,801.025634765625,790.5494384765625,795.3846435546875,794.981689453125
1491,801.8314819335938,786.923095703125,791.7582397460938,801.4285888671875
1492,798.2051391601562,788.1318969726562,785.3113403320312,796.996337890625
1493,794.5787353515625,790.952392578125,786.923095703125,787.3259887695312
1494,793.7728881835938,787.3259887695312,789.7435913085938,795.7875366210938
1495,791.3552856445312,784.5054931640625,788.1318969726562,805.4578857421875
1496,787.3259887695312,792.967041015625,790.952392578125,799.010986328125
1497,791.7582397460938,797.8021850585938,795.3846435546875,793.7728881835938
1498,793.3699340820312,792.967041015625,794.5787353515625,798.6080322265625
1499,784.5054931640625,788.5347900390625,790.5494384765625,800.2197875976562
1500,779.6703491210938,792.1611938476562,794.981689453125,800.6226806640625
1501,786.1171875,796.996337890625,796.996337890625,807.4725341796875
1502,790.1465454101562,798.2051391601562,798.6080322265625,809.084228515625
1503,792.5640869140625,792.5640869140625,801.8314819335938,807.4725341796875
1504,793.7728881835938,781.2820434570312,799.010986328125,805.4578857421875
1505,788.937744140625,788.1318969726562,798.2051391601562,790.952392578125
1506,790.5494384765625,796.5933837890625,798.2051391601562,793.3699340820312
1507,791.7582397460938,792.5640869140625,794.5787353515625,803.040283203125
1508,792.967041015625,792.5640869140625,796.996337890625,795.7875366210938
1509,798.6080322265625,794.5787353515625,798.6080322265625,800.6226806640625
1510,803.8461303710938,796.1904907226562,799.010986328125,811.5018310546875
1511,801.8314819335938,794.1758422851562,798.2051391601562,805.054931640625
1512,801.025634765625,793.3699340820312,794.5787353515625,797.3992919921875
1513,806.6666870117188,797.8021850585938,795.3846435546875,797.3992919921875
1514,803.040283203125,796.1904907226562,796.1904907226562,797.8021850585938
1515,795.7875366210938,787.7289428710938,794.1758422851562,797.3992919921875
1516,796.1904907226562,788.1318969726562,792.967041015625,797.3992919921875
1517,798.2051391601562,790.952392578125,794.1758422851562,801.025634765625
1518,797.3992919921875,788.5347900390625,792.5640869140625,809.084228515625
1519,790.1465454101562,793.3699340820312,792.5640869140625,808.2783813476562
1520,791.3552856445312,793.7728881835938,793.3699340820312,797.8021850585938
1521,794.5787353515625,786.5201416015625,787.3259887695312,799.010986328125
1522,790.1465454101562,790.952392578125,783.6996459960938,801.4285888671875
1523,787.7289428710938,795.7875366210938,792.5640869140625,799.8168334960938
1524,790.1465454101562,795.7875366210938,796.1904907226562,799.4139404296875
1525,794.5787353515625,794.981689453125,795.3846435546875,797.8021850585938
1526,793.3699340820312,789.3406372070312,792.1611938476562,789.3406372070312
1527,785.7142944335938,788.937744140625,786.923095703125,779.6703491210938
1528,782.893798828125,788.5347900390625,786.5201416015625,773.6264038085938
1529,786.1171875,787.3259887695312,784.908447265625,775.2380981445312
1530,787.7289428710938,791.3552856445312,788.1318969726562,784.5054931640625
1531,788.5347900390625,793.7728881835938,792.1611938476562,786.5201416015625
1532,789.7435913085938,791.3552856445312,791.3552856445312,785.7142944335938
1533,788.5347900390625,783.2966918945312,783.6996459960938,790.952392578125
1534,785.3113403320312,786.5201416015625,784.908447265625,786.5201416015625
1535,782.893798828125,794.1758422851562,792.967041015625,780.879150390625
1536,787.3259887695312,787.3259887695312,793.3699340820312,785.7142944335938
1537,788.1318969726562,783.2966918945312,792.967041015625,795.7875366210938
1538,785.3113403320312,790.1465454101562,795.3846435546875,799.010986328125
1539,783.2966918945312,792.1611938476562,790.5494384765625,794.981689453125
1540,783.2966918945312,792.5640869140625,790.5494384765625,797.8021850585938
1541,790.5494384765625,791.3552856445312,793.7728881835938,801.025634765625
1542,787.3259887695312,789.7435913085938,792.1611938476562,789.7435913085938
1543,782.4908447265625,792.5640869140625,788.5347900390625,786.5201416015625
1544,783.6996459960938,795.7875366210938,783.6996459960938,786.923095703125
1545,783.6996459960938,795.3846435546875,786.5201416015625,784.908447265625
1546,784.908447265625,792.967041015625,794.5787353515625,788.5347900390625
1547,789.3406372070312,790.5494384765625,796.996337890625,787.3259887695312
1548,791.3552856445312,789.3406372070312,790.5494384765625,788.937744140625
1549,788.5347900390625,794.981689453125,792.5640869140625,790.5494384765625
1550,787.7289428710938,799.4139404296875,796.996337890625,792.1611938476562
1551,789.3406372070312,795.3846435546875,795.7875366210938,794.981689453125
1552,795.7875366210938,797.3992919921875,797.3992919921875,801.4285888671875
1553,792.967041015625,799.010986328125,797.3992919921875,800.6226806640625
1554,788.1318969726562,797.3992919921875,801.025634765625,794.5787353515625
1555,795.7875366210938,792.5640869140625,799.4139404296875,792.967041015625
1556,797.3992919921875,792.967041015625,796.1904907226562,794.981689453125
1557,790.952392578125,797.3992919921875,797.3992919921875,801.4285888671875
1558,783.2966918945312,796.1904907226562,794.5787353515625,801.4285888671875
1559,787.3259887695312,788.5347900390625,790.5494384765625,802.6373901367188
1560,792.1611938476562,782.087890625,789.3406372070312,803.040283203125
1561,791.3552856445312,790.1465454101562,788.1318969726562,796.5933837890625
1562,790.1465454101562,796.1904907226562,789.7435913085938,792.967041015625
1563,790.1465454101562,792.5640869140625,788.5347900390625,794.981689453125
1564,790.952392578125,789.7435913085938,786.5201416015625,798.6080322265625
1565,793.7728881835938,792.5640869140625,794.1758422851562,798.2051391601562
1566,793.3699340820312,791.7582397460938,795.7875366210938,798.6080322265625
1567,790.1465454101562,789.3406372070312,794.5787353515625,799.010986328125
1568,788.937744140625,790.5494384765625,793.7728881835938,797.3992919921875
1569,788.937744140625,786.5201416015625,795.3846435546875,792.5640869140625
1570,792.5640869140625,780.879150390625,792.1611938476562,789.7435913085938
1571,788.1318969726562,786.923095703125,786.923095703125,787.7289428710938
1572,784.1025390625,791.7582397460938,790.1465454101562,787.3259887695312
1573,787.7289428710938,790.5494384765625,791.3552856445312,791.3552856445312
1574,786.923095703125,790.1465454101562,792.5640869140625,786.5201416015625
1575,786.1171875,794.5787353515625,792.967041015625,784.908447265625
1576,784.1025390625,796.5933837890625,791.3552856445312,788.937744140625
1577,781.2820434570312,795.3846435546875,791.3552856445312,778.4615478515625
1578,783.6996459960938,792.5640869140625,792.5640869140625,779.2673950195312
1579,789.3406372070312,790.1465454101562,791.3552856445312,792.967041015625
