timestamp,RAW_TP9,RAW_AF7,RAW_AF8,RAW_TP10
1,774.029296875,798.2051391601562,794.981689453125,785.3113403320312
2,782.087890625,800.6226806640625,794.1758422851562,789.7435913085938
3,790.952392578125,802.6373901367188,795.7875366210938,790.952392578125
4,797.8021850585938,805.8607788085938,798.6080322265625,799.010986328125
5,803.4432373046875,807.069580078125,797.3992919921875,795.7875366210938
6,805.054931640625,803.040283203125,799.4139404296875,784.5054931640625
7,804.6520385742188,799.8168334960938,798.2051391601562,784.5054931640625
8,803.040283203125,801.8314819335938,796.996337890625,794.981689453125
9,805.054931640625,801.8314819335938,797.8021850585938,796.996337890625
10,798.6080322265625,796.5933837890625,797.8021850585938,790.1465454101562
11,786.5201416015625,793.3699340820312,798.6080322265625,794.5787353515625
12,783.6996459960938,792.1611938476562,798.6080322265625,797.3992919921875
13,790.1465454101562,792.5640869140625,800.2197875976562,795.3846435546875
14,796.1904907226562,800.6226806640625,798.2051391601562,792.967041015625
15,793.7728881835938,802.2344360351562,798.2051391601562,798.2051391601562
16,790.1465454101562,798.2051391601562,799.4139404296875,798.2051391601562
17,796.5933837890625,794.5787353515625,796.5933837890625,792.1611938476562
18,799.8168334960938,788.937744140625,794.1758422851562,793.3699340820312
19,799.4139404296875,786.5201416015625,795.3846435546875,795.7875366210938
20,801.4285888671875,792.967041015625,800.2197875976562,800.6226806640625
21,792.967041015625,796.996337890625,801.4285888671875,797.8021850585938
22,783.6996459960938,794.1758422851562,799.4139404296875,798.2051391601562
23,791.7582397460938,796.996337890625,796.1904907226562,800.2197875976562
24,790.5494384765625,797.3992919921875,792.967041015625,794.1758422851562
25,788.1318969726562,799.010986328125,793.7728881835938,790.952392578125
26,793.7728881835938,805.4578857421875,796.5933837890625,792.1611938476562
27,794.5787353515625,805.8607788085938,795.7875366210938,796.996337890625
28,806.2637329101562,803.040283203125,794.1758422851562,792.5640869140625
29,813.91943359375,805.054931640625,795.7875366210938,788.5347900390625
30,809.4871826171875,799.4139404296875,794.981689453125,787.7289428710938
31,801.025634765625,791.3552856445312,796.5933837890625,790.5494384765625
32,789.7435913085938,793.3699340820312,799.010986328125,792.1611938476562
33,778.4615478515625,795.7875366210938,800.6226806640625,789.7435913085938
34,780.879150390625,799.010986328125,802.2344360351562,794.1758422851562
35,782.4908447265625,794.1758422851562,796.996337890625,790.5494384765625
36,790.1465454101562,787.7289428710938,792.967041015625,786.923095703125
37,791.3552856445312,785.7142944335938,790.1465454101562,786.5201416015625
38,786.923095703125,786.5201416015625,793.7728881835938,786.1171875
39,796.5933837890625,788.1318969726562,796.1904907226562,786.5201416015625
40,797.3992919921875,784.908447265625,796.996337890625,786.5201416015625
41,790.5494384765625,782.087890625,796.996337890625,789.3406372070312
42,786.923095703125,786.5201416015625,795.3846435546875,796.5933837890625
43,795.3846435546875,785.7142944335938,796.996337890625,800.6226806640625
44,810.2930297851562,785.3113403320312,797.3992919921875,796.5933837890625
45,813.5164794921875,780.4761962890625,799.4139404296875,794.981689453125
46,803.040283203125,784.1025390625,801.025634765625,794.5787353515625
47,793.3699340820312,789.3406372070312,801.8314819335938,792.1611938476562
48,793.3699340820312,790.5494384765625,799.8168334960938,789.3406372070312
49,799.4139404296875,793.3699340820312,797.3992919921875,787.3259887695312
50,800.2197875976562,793.3699340820312,798.6080322265625,796.1904907226562
51,791.7582397460938,793.3699340820312,796.1904907226562,791.7582397460938
52,786.923095703125,790.952392578125,794.981689453125,778.8644409179688
53,795.7875366210938,790.1465454101562,794.981689453125,782.087890625
54,794.5787353515625,788.937744140625,795.3846435546875,783.6996459960938
55,796.1904907226562,791.3552856445312,798.6080322265625,787.7289428710938
56,785.3113403320312,795.3846435546875,798.2051391601562,788.5347900390625
57,771.6116943359375,795.3846435546875,794.981689453125,782.893798828125
58,778.4615478515625,793.7728881835938,795.7875366210938,789.3406372070312
59,786.923095703125,792.1611938476562,799.8168334960938,785.7142944335938
60,787.7289428710938,792.967041015625,796.1904907226562,775.6410522460938
61,783.6996459960938,795.3846435546875,793.7728881835938,777.2527465820312
62,786.5201416015625,794.5787353515625,798.2051391601562,775.6410522460938
63,786.1171875,793.7728881835938,799.010986328125,776.0439453125
64,780.0732421875,793.3699340820312,799.010986328125,782.087890625
65,786.923095703125,793.7728881835938,799.010986328125,788.937744140625
66,781.6849975585938,789.3406372070312,798.6080322265625,785.3113403320312
67,773.2234497070312,791.7582397460938,804.2490844726562,777.6557006835938
68,786.923095703125,795.3846435546875,803.4432373046875,779.2673950195312
69,799.010986328125,794.5787353515625,802.2344360351562,786.5201416015625
70,806.2637329101562,801.025634765625,808.6813354492188,789.7435913085938
71,804.6520385742188,808.6813354492188,811.5018310546875,790.952392578125
72,788.5347900390625,801.8314819335938,803.8461303710938,784.5054931640625
73,779.2673950195312,801.4285888671875,795.3846435546875,772.4176025390625
74,784.5054931640625,806.6666870117188,798.2051391601562,769.1941528320312
75,786.923095703125,799.4139404296875,792.5640869140625,770.0
76,770.0,804.2490844726562,786.923095703125,761.5384521484375
77,758.7179565429688,817.5457763671875,791.7582397460938,755.4945068359375
78,751.062255859375,826.00732421875,801.025634765625,753.4798583984375
79,741.3919677734375,835.6776733398438,796.1904907226562,739.3773193359375
80,732.12451171875,845.7509155273438,787.3259887695312,729.3040161132812
81,709.96337890625,846.959716796875,783.2966918945312,718.8278198242188
82,701.098876953125,858.2417602539062,784.1025390625,705.1282348632812
83,694.2490844726562,869.5238037109375,784.5054931640625,696.6666870117188
84,686.5933837890625,868.3150024414062,780.4761962890625,687.8021850585938
85,685.7875366210938,871.5384521484375,776.0439453125,681.7582397460938
86,676.923095703125,876.3735961914062,778.4615478515625,673.6996459960938
87,667.6557006835938,871.94140625,780.879150390625,663.6264038085938
88,670.0732421875,873.9560546875,781.2820434570312,665.2380981445312
89,671.6849975585938,879.5970458984375,784.908447265625,667.2527465820312
90,672.4908447265625,873.5531005859375,782.893798828125,666.8497924804688
91,663.6264038085938,866.7033081054688,777.6557006835938,661.6116943359375
92,660.4029541015625,863.4798583984375,781.6849975585938,662.8204956054688
93,670.0732421875,857.4359130859375,789.7435913085938,678.937744140625
94,681.7582397460938,855.4212646484375,791.3552856445312,683.3699340820312
95,696.6666870117188,863.076904296875,791.3552856445312,684.981689453125
96,707.1428833007812,860.6593627929688,790.5494384765625,696.2637329101562
97,716.00732421875,857.8388061523438,789.7435913085938,710.7692260742188
98,726.08056640625,855.4212646484375,788.937744140625,722.05126953125
99,741.3919677734375,848.1685180664062,784.1025390625,732.12451171875
100,740.5860595703125,843.7362670898438,787.3259887695312,732.5274658203125
101,736.5567626953125,836.08056640625,792.967041015625,736.959716796875
102,742.6007080078125,831.2454223632812,792.967041015625,747.8388061523438
103,754.2857055664062,828.02197265625,802.2344360351562,756.3003540039062
104,776.4468994140625,819.1575317382812,807.069580078125,779.2673950195312
105,780.4761962890625,811.90478515625,801.4285888671875,783.2966918945312
106,787.3259887695312,801.025634765625,802.2344360351562,784.908447265625
107,799.4139404296875,790.5494384765625,802.6373901367188,795.3846435546875
108,799.8168334960938,788.1318969726562,803.040283203125,798.6080322265625
109,800.2197875976562,789.3406372070312,805.054931640625,809.89013671875
110,803.4432373046875,786.923095703125,803.4432373046875,816.3369750976562
111,810.2930297851562,781.6849975585938,803.4432373046875,824.7985229492188
112,807.069580078125,774.029296875,804.6520385742188,824.3956298828125
113,809.084228515625,772.4176025390625,804.6520385742188,826.00732421875
114,812.3076782226562,770.4029541015625,801.025634765625,821.1721801757812
115,813.113525390625,767.1795043945312,798.6080322265625,819.5604248046875
116,821.5750732421875,766.3735961914062,799.010986328125,830.8424682617188
117,822.3809814453125,763.5531005859375,801.4285888671875,829.6337280273438
118,830.4395751953125,761.1355590820312,800.2197875976562,826.00732421875
119,836.4835205078125,764.3589477539062,799.8168334960938,831.2454223632812
120,834.8717651367188,764.3589477539062,800.6226806640625,835.2747192382812
121,834.06591796875,758.7179565429688,798.2051391601562,832.8571166992188
122,836.886474609375,757.912109375,800.2197875976562,834.4688720703125
123,836.4835205078125,761.1355590820312,796.1904907226562,831.6483764648438
124,824.3956298828125,761.5384521484375,794.5787353515625,826.4102783203125
125,834.06591796875,761.1355590820312,801.025634765625,832.8571166992188
126,843.3333129882812,762.3442993164062,801.8314819335938,840.915771484375
127,838.4981689453125,763.5531005859375,798.2051391601562,843.7362670898438
128,833.6630249023438,765.970703125,795.3846435546875,839.3040161132812
129,832.05126953125,765.970703125,795.3846435546875,829.2307739257812
130,833.6630249023438,765.1648559570312,796.5933837890625,831.6483764648438
131,833.2600708007812,762.3442993164062,795.3846435546875,835.2747192382812
132,834.4688720703125,759.5238037109375,792.1611938476562,827.2161254882812
133,839.3040161132812,758.3150024414062,793.7728881835938,826.8131713867188
134,833.2600708007812,756.7033081054688,796.5933837890625,826.00732421875
135,815.93408203125,755.091552734375,798.6080322265625,823.1868286132812
136,806.2637329101562,756.3003540039062,799.8168334960938,823.99267578125
137,806.2637329101562,762.7472534179688,801.4285888671875,820.7692260742188
138,808.2783813476562,763.5531005859375,800.2197875976562,821.5750732421875
139,812.3076782226562,766.3735961914062,800.6226806640625,822.3809814453125
140,819.1575317382812,769.1941528320312,804.2490844726562,820.7692260742188
141,822.7838745117188,768.7911987304688,800.6226806640625,817.5457763671875
142,818.7545776367188,767.1795043945312,797.3992919921875,817.1428833007812
143,810.2930297851562,769.1941528320312,799.8168334960938,820.3662719726562
144,807.069580078125,773.6264038085938,803.8461303710938,813.113525390625
145,809.084228515625,774.8351440429688,803.040283203125,814.3223266601562
146,817.1428833007812,773.2234497070312,803.040283203125,811.90478515625
147,819.5604248046875,774.029296875,803.040283203125,809.4871826171875
148,808.2783813476562,774.4322509765625,796.996337890625,807.4725341796875
149,801.4285888671875,774.029296875,793.7728881835938,800.2197875976562
150,805.4578857421875,774.4322509765625,795.7875366210938,805.8607788085938
151,808.6813354492188,777.2527465820312,796.996337890625,810.2930297851562
152,800.6226806640625,777.6557006835938,798.2051391601562,806.2637329101562
153,805.054931640625,777.2527465820312,796.996337890625,803.4432373046875
154,805.8607788085938,777.6557006835938,796.996337890625,808.2783813476562
155,799.4139404296875,777.2527465820312,796.5933837890625,809.4871826171875
156,806.6666870117188,782.893798828125,796.1904907226562,805.054931640625
157,816.3369750976562,779.2673950195312,799.4139404296875,809.4871826171875
158,808.6813354492188,775.2380981445312,800.2197875976562,810.6959838867188
159,799.8168334960938,778.8644409179688,800.2197875976562,803.4432373046875
160,807.4725341796875,783.6996459960938,796.996337890625,803.8461303710938
161,807.4725341796875,786.923095703125,797.8021850585938,803.4432373046875
162,805.054931640625,788.937744140625,801.8314819335938,802.6373901367188
163,811.90478515625,782.893798828125,802.2344360351562,805.054931640625
164,809.084228515625,780.4761962890625,801.4285888671875,803.040283203125
165,809.4871826171875,787.7289428710938,805.8607788085938,806.6666870117188
166,813.5164794921875,794.5787353515625,806.6666870117188,812.3076782226562
167,815.5311279296875,790.1465454101562,802.2344360351562,807.069580078125
168,817.1428833007812,780.0732421875,803.8461303710938,807.4725341796875
169,808.6813354492188,780.0732421875,803.4432373046875,807.87548828125
170,801.8314819335938,779.6703491210938,801.4285888671875,807.069580078125
171,796.1904907226562,777.6557006835938,799.4139404296875,802.2344360351562
172,792.5640869140625,780.0732421875,799.4139404296875,797.3992919921875
173,794.5787353515625,779.6703491210938,800.2197875976562,798.6080322265625
174,791.7582397460938,776.8497924804688,800.2197875976562,790.952392578125
175,791.7582397460938,778.4615478515625,800.6226806640625,785.3113403320312
176,796.996337890625,783.2966918945312,795.7875366210938,787.3259887695312
177,799.4139404296875,784.908447265625,793.7728881835938,794.981689453125
178,794.981689453125,782.4908447265625,799.010986328125,796.996337890625
179,791.7582397460938,781.6849975585938,798.6080322265625,790.1465454101562
180,789.7435913085938,782.893798828125,801.025634765625,789.3406372070312
181,786.1171875,780.0732421875,802.2344360351562,790.5494384765625
182,789.7435913085938,776.4468994140625,799.4139404296875,792.1611938476562
183,790.5494384765625,776.4468994140625,800.6226806640625,792.5640869140625
184,785.3113403320312,778.4615478515625,801.025634765625,792.1611938476562
185,786.923095703125,782.893798828125,796.996337890625,791.3552856445312
186,789.7435913085938,787.3259887695312,793.7728881835938,787.7289428710938
187,795.3846435546875,789.3406372070312,799.010986328125,790.1465454101562
188,795.3846435546875,791.7582397460938,801.4285888671875,795.3846435546875
189,791.7582397460938,791.3552856445312,799.010986328125,800.6226806640625
190,793.3699340820312,787.7289428710938,797.8021850585938,795.3846435546875
191,793.7728881835938,794.5787353515625,796.5933837890625,789.3406372070312
192,792.5640869140625,795.7875366210938,792.1611938476562,787.3259887695312
193,797.8021850585938,792.967041015625,789.7435913085938,787.7289428710938
194,802.2344360351562,792.967041015625,793.7728881835938,791.7582397460938
195,794.5787353515625,783.2966918945312,792.5640869140625,788.937744140625
196,787.7289428710938,777.2527465820312,791.7582397460938,789.3406372070312
197,787.3259887695312,781.2820434570312,794.1758422851562,793.3699340820312
198,787.7289428710938,784.1025390625,794.5787353515625,789.3406372070312
199,789.7435913085938,783.2966918945312,795.3846435546875,790.1465454101562
200,792.967041015625,780.0732421875,795.3846435546875,799.010986328125
201,791.3552856445312,777.6557006835938,794.5787353515625,803.4432373046875
202,787.3259887695312,777.6557006835938,794.981689453125,799.8168334960938
203,786.5201416015625,775.2380981445312,792.5640869140625,794.5787353515625
204,784.1025390625,777.6557006835938,791.7582397460938,793.7728881835938
205,789.3406372070312,779.6703491210938,795.7875366210938,792.5640869140625
206,790.952392578125,777.2527465820312,797.8021850585938,787.7289428710938
207,790.952392578125,782.087890625,795.7875366210938,791.3552856445312
208,789.7435913085938,788.5347900390625,794.1758422851562,790.1465454101562
209,783.2966918945312,789.3406372070312,791.7582397460938,786.923095703125
210,790.5494384765625,785.7142944335938,793.3699340820312,789.7435913085938
211,794.5787353515625,784.908447265625,797.8021850585938,788.937744140625
212,797.3992919921875,790.5494384765625,792.5640869140625,790.5494384765625
213,811.098876953125,796.1904907226562,796.1904907226562,792.967041015625
214,812.3076782226562,798.6080322265625,798.6080322265625,794.1758422851562
215,801.025634765625,793.7728881835938,795.7875366210938,795.3846435546875
216,800.2197875976562,790.952392578125,796.5933837890625,794.1758422851562
217,800.6226806640625,790.1465454101562,793.7728881835938,788.5347900390625
218,799.8168334960938,788.937744140625,790.952392578125,791.7582397460938
219,804.2490844726562,789.3406372070312,795.7875366210938,797.8021850585938
220,799.8168334960938,790.1465454101562,797.8021850585938,792.5640869140625
221,790.952392578125,789.7435913085938,793.3699340820312,788.5347900390625
222,790.1465454101562,786.5201416015625,790.952392578125,790.1465454101562
223,783.6996459960938,788.937744140625,792.5640869140625,794.981689453125
224,780.879150390625,789.3406372070312,793.3699340820312,796.996337890625
225,786.923095703125,787.3259887695312,791.7582397460938,794.1758422851562
226,783.6996459960938,790.1465454101562,791.3552856445312,795.3846435546875
227,779.6703491210938,782.893798828125,789.7435913085938,792.5640869140625
228,776.8497924804688,780.4761962890625,788.937744140625,786.923095703125
229,782.087890625,788.937744140625,788.937744140625,782.893798828125
230,797.3992919921875,790.1465454101562,787.7289428710938,781.2820434570312
231,799.010986328125,788.5347900390625,788.1318969726562,782.087890625
232,785.3113403320312,788.5347900390625,789.3406372070312,784.5054931640625
233,794.981689453125,790.5494384765625,793.3699340820312,783.6996459960938
234,803.040283203125,788.5347900390625,793.7728881835938,785.3113403320312
235,793.3699340820312,784.5054931640625,791.7582397460938,785.3113403320312
236,790.5494384765625,784.1025390625,790.952392578125,782.4908447265625
237,801.025634765625,784.1025390625,794.981689453125,782.893798828125
238,804.6520385742188,783.2966918945312,798.2051391601562,787.3259887695312
239,791.3552856445312,786.5201416015625,797.3992919921875,791.7582397460938
240,792.1611938476562,789.3406372070312,801.025634765625,787.7289428710938
241,795.3846435546875,788.5347900390625,804.6520385742188,791.3552856445312
242,784.908447265625,785.3113403320312,802.2344360351562,794.1758422851562
243,785.3113403320312,784.5054931640625,800.6226806640625,794.1758422851562
244,789.3406372070312,792.967041015625,807.069580078125,799.8168334960938
245,791.7582397460938,797.8021850585938,811.90478515625,806.2637329101562
246,780.879150390625,792.967041015625,810.2930297851562,805.054931640625
247,768.3883056640625,787.7289428710938,804.6520385742188,795.3846435546875
248,780.4761962890625,787.7289428710938,801.8314819335938,789.7435913085938
249,786.5201416015625,785.7142944335938,801.4285888671875,787.7289428710938
250,792.1611938476562,784.5054931640625,798.6080322265625,790.5494384765625
251,792.5640869140625,789.3406372070312,799.010986328125,786.1171875
252,787.7289428710938,789.7435913085938,797.3992919921875,778.8644409179688
253,799.4139404296875,788.5347900390625,797.3992919921875,783.6996459960938
254,796.1904907226562,792.5640869140625,796.5933837890625,782.4908447265625
255,782.4908447265625,792.1611938476562,794.981689453125,773.2234497070312
256,775.2380981445312,788.5347900390625,788.5347900390625,765.970703125
257,776.8497924804688,788.5347900390625,787.3259887695312,765.5677490234375
258,785.3113403320312,791.3552856445312,796.996337890625,769.1941528320312
259,790.1465454101562,794.1758422851562,797.3992919921875,769.5970458984375
260,788.5347900390625,791.7582397460938,794.981689453125,772.0146484375
261,783.6996459960938,786.923095703125,793.3699340820312,774.029296875
262,787.7289428710938,786.1171875,793.3699340820312,775.6410522460938
263,790.952392578125,786.5201416015625,798.2051391601562,782.4908447265625
264,791.7582397460938,787.3259887695312,796.5933837890625,788.1318969726562
265,794.981689453125,789.7435913085938,796.5933837890625,793.3699340820312
266,792.967041015625,788.5347900390625,797.3992919921875,793.3699340820312
267,790.952392578125,789.3406372070312,797.3992919921875,789.7435913085938
268,796.5933837890625,794.1758422851562,798.6080322265625,797.8021850585938
269,797.3992919921875,794.5787353515625,797.8021850585938,803.040283203125
270,790.5494384765625,790.952392578125,799.8168334960938,802.6373901367188
271,790.952392578125,793.3699340820312,801.4285888671875,801.025634765625
272,799.4139404296875,794.5787353515625,802.6373901367188,799.4139404296875
273,797.3992919921875,791.7582397460938,801.8314819335938,801.025634765625
274,794.981689453125,794.1758422851562,797.8021850585938,797.3992919921875
275,799.8168334960938,794.1758422851562,794.1758422851562,790.1465454101562
276,804.2490844726562,792.967041015625,795.3846435546875,788.1318969726562
277,803.040283203125,790.952392578125,795.3846435546875,781.2820434570312
278,801.4285888671875,790.952392578125,794.1758422851562,778.4615478515625
279,809.084228515625,794.1758422851562,795.7875366210938,787.3259887695312
280,802.2344360351562,797.3992919921875,795.7875366210938,794.981689453125
281,791.3552856445312,799.4139404296875,800.2197875976562,798.6080322265625
282,792.1611938476562,793.3699340820312,799.4139404296875,793.3699340820312
283,790.5494384765625,789.7435913085938,791.3552856445312,789.3406372070312
284,793.3699340820312,793.3699340820312,791.7582397460938,790.5494384765625
285,808.2783813476562,799.010986328125,799.4139404296875,797.3992919921875
286,801.4285888671875,804.2490844726562,796.1904907226562,799.010986328125
287,784.5054931640625,798.2051391601562,793.7728881835938,794.1758422851562
288,792.1611938476562,792.5640869140625,799.4139404296875,794.1758422851562
289,799.010986328125,796.5933837890625,799.8168334960938,794.1758422851562
290,799.8168334960938,795.3846435546875,799.4139404296875,792.5640869140625
291,796.1904907226562,789.3406372070312,797.8021850585938,794.1758422851562
292,788.5347900390625,785.3113403320312,792.967041015625,791.3552856445312
293,790.1465454101562,784.908447265625,789.3406372070312,787.3259887695312
294,797.3992919921875,790.952392578125,786.923095703125,793.3699340820312
295,800.2197875976562,789.7435913085938,786.1171875,788.937744140625
296,808.2783813476562,791.3552856445312,785.3113403320312,788.5347900390625
297,811.098876953125,799.4139404296875,782.893798828125,795.3846435546875
298,810.2930297851562,798.6080322265625,779.6703491210938,791.7582397460938
299,802.6373901367188,792.967041015625,785.7142944335938,786.923095703125
300,788.937744140625,791.3552856445312,795.7875366210938,778.05859375
301,779.6703491210938,792.967041015625,794.1758422851562,771.6116943359375
302,781.2820434570312,791.3552856445312,790.5494384765625,773.2234497070312
303,789.7435913085938,796.1904907226562,790.952392578125,777.2527465820312
304,789.3406372070312,796.5933837890625,793.3699340820312,776.8497924804688
305,789.3406372070312,794.5787353515625,793.7728881835938,780.879150390625
306,786.1171875,793.3699340820312,790.952392578125,781.6849975585938
307,782.4908447265625,792.1611938476562,787.7289428710938,780.879150390625
308,776.8497924804688,788.937744140625,792.1611938476562,783.2966918945312
309,774.029296875,790.5494384765625,795.7875366210938,777.6557006835938
310,785.3113403320312,792.967041015625,792.967041015625,781.6849975585938
311,787.7289428710938,794.1758422851562,791.7582397460938,790.5494384765625
312,788.1318969726562,798.2051391601562,795.7875366210938,789.3406372070312
313,788.5347900390625,792.967041015625,794.5787353515625,784.5054931640625
314,794.981689453125,792.1611938476562,790.952392578125,784.908447265625
315,806.2637329101562,796.996337890625,793.3699340820312,790.1465454101562
316,793.7728881835938,794.981689453125,799.010986328125,792.5640869140625
317,778.05859375,792.1611938476562,802.2344360351562,794.1758422851562
318,780.879150390625,792.5640869140625,799.8168334960938,799.010986328125
319,786.1171875,793.3699340820312,797.8021850585938,803.8461303710938
320,793.7728881835938,793.3699340820312,801.025634765625,799.8168334960938
321,792.5640869140625,795.7875366210938,802.6373901367188,796.5933837890625
322,792.967041015625,798.2051391601562,801.025634765625,800.2197875976562
323,793.3699340820312,796.1904907226562,799.8168334960938,798.2051391601562
324,792.1611938476562,794.5787353515625,799.010986328125,795.3846435546875
325,794.5787353515625,789.7435913085938,799.4139404296875,796.996337890625
326,794.981689453125,786.923095703125,797.3992919921875,796.5933837890625
327,795.3846435546875,791.7582397460938,795.7875366210938,795.3846435546875
328,789.3406372070312,795.7875366210938,795.3846435546875,794.5787353515625
329,787.7289428710938,795.3846435546875,795.7875366210938,796.996337890625
330,796.996337890625,791.7582397460938,796.1904907226562,798.6080322265625
331,800.6226806640625,790.952392578125,795.7875366210938,798.2051391601562
332,804.6520385742188,794.981689453125,800.6226806640625,796.5933837890625
333,809.89013671875,794.981689453125,805.054931640625,795.3846435546875
334,796.996337890625,793.7728881835938,799.8168334960938,795.7875366210938
335,788.5347900390625,798.6080322265625,799.8168334960938,796.5933837890625
336,792.967041015625,798.2051391601562,803.4432373046875,796.1904907226562
337,792.5640869140625,794.981689453125,802.6373901367188,797.8021850585938
338,789.3406372070312,794.5787353515625,798.2051391601562,793.7728881835938
339,785.7142944335938,791.7582397460938,794.981689453125,784.908447265625
340,792.5640869140625,791.3552856445312,795.7875366210938,786.923095703125
341,794.1758422851562,790.1465454101562,791.3552856445312,791.7582397460938
342,792.1611938476562,790.952392578125,793.7728881835938,793.7728881835938
343,795.3846435546875,793.3699340820312,796.996337890625,790.952392578125
344,794.1758422851562,796.996337890625,795.7875366210938,788.5347900390625
345,794.1758422851562,798.2051391601562,798.2051391601562,793.3699340820312
346,791.7582397460938,794.1758422851562,801.025634765625,794.981689453125
347,787.7289428710938,791.3552856445312,803.040283203125,795.7875366210938
348,791.3552856445312,786.5201416015625,798.2051391601562,793.7728881835938
349,796.1904907226562,783.2966918945312,795.3846435546875,790.1465454101562
350,797.8021850585938,786.923095703125,793.3699340820312,787.7289428710938
351,794.1758422851562,787.7289428710938,792.967041015625,789.7435913085938
352,794.5787353515625,787.3259887695312,794.1758422851562,792.5640869140625
353,799.8168334960938,792.5640869140625,793.3699340820312,793.3699340820312
354,792.1611938476562,790.5494384765625,792.5640869140625,791.7582397460938
355,788.1318969726562,782.893798828125,795.7875366210938,796.1904907226562
356,791.7582397460938,784.1025390625,798.6080322265625,800.6226806640625
357,790.1465454101562,790.1465454101562,798.2051391601562,801.4285888671875
358,791.3552856445312,787.7289428710938,804.6520385742188,809.084228515625
359,792.1611938476562,790.1465454101562,804.6520385742188,808.2783813476562
360,790.5494384765625,786.1171875,800.6226806640625,799.8168334960938
361,793.3699340820312,780.4761962890625,803.040283203125,794.981689453125
362,801.025634765625,786.1171875,801.4285888671875,794.981689453125
363,807.069580078125,789.3406372070312,798.2051391601562,796.5933837890625
364,803.040283203125,789.7435913085938,796.5933837890625,791.3552856445312
365,802.6373901367188,788.937744140625,799.4139404296875,790.5494384765625
366,808.6813354492188,789.7435913085938,797.8021850585938,797.8021850585938
367,801.025634765625,792.5640869140625,797.3992919921875,800.2197875976562
368,790.952392578125,794.981689453125,801.8314819335938,796.5933837890625
369,790.1465454101562,794.5787353515625,801.8314819335938,796.1904907226562
370,790.952392578125,789.3406372070312,797.8021850585938,793.3699340820312
371,791.3552856445312,790.1465454101562,791.3552856445312,787.3259887695312
372,784.5054931640625,786.5201416015625,790.952392578125,784.1025390625
373,781.6849975585938,785.3113403320312,793.7728881835938,783.2966918945312
374,787.3259887695312,787.7289428710938,796.5933837890625,784.908447265625
375,784.1025390625,784.908447265625,800.2197875976562,778.05859375
376,786.5201416015625,784.5054931640625,801.4285888671875,781.2820434570312
377,794.5787353515625,783.2966918945312,801.025634765625,786.923095703125
378,792.5640869140625,783.6996459960938,796.996337890625,786.923095703125
379,786.5201416015625,790.5494384765625,794.5787353515625,786.923095703125
380,783.2966918945312,794.981689453125,797.3992919921875,790.5494384765625
381,787.3259887695312,796.996337890625,802.6373901367188,794.5787353515625
382,790.952392578125,796.996337890625,805.054931640625,793.3699340820312
383,792.1611938476562,796.5933837890625,797.3992919921875,793.3699340820312
384,795.7875366210938,798.2051391601562,795.3846435546875,790.1465454101562
385,798.2051391601562,798.6080322265625,794.981689453125,792.1611938476562
386,798.6080322265625,796.996337890625,793.3699340820312,790.1465454101562
387,803.8461303710938,797.8021850585938,798.2051391601562,791.3552856445312
388,803.8461303710938,799.010986328125,799.4139404296875,794.1758422851562
389,797.8021850585938,800.2197875976562,801.8314819335938,795.3846435546875
390,791.7582397460938,805.054931640625,802.6373901367188,802.2344360351562
391,786.923095703125,805.054931640625,799.4139404296875,800.6226806640625
392,789.3406372070312,799.8168334960938,795.7875366210938,801.4285888671875
393,790.1465454101562,799.010986328125,794.981689453125,800.6226806640625
394,790.952392578125,798.2051391601562,794.5787353515625,794.1758422851562
395,786.923095703125,795.7875366210938,792.1611938476562,789.3406372070312
396,793.7728881835938,795.3846435546875,793.7728881835938,791.3552856445312
397,795.7875366210938,793.3699340820312,794.981689453125,795.3846435546875
398,788.5347900390625,791.3552856445312,799.010986328125,796.996337890625
399,788.1318969726562,794.5787353515625,800.6226806640625,798.6080322265625
400,788.5347900390625,792.5640869140625,795.7875366210938,792.967041015625
401,786.923095703125,791.7582397460938,790.5494384765625,790.952392578125
402,785.7142944335938,792.1611938476562,793.7728881835938,796.1904907226562
403,791.3552856445312,797.3992919921875,799.010986328125,798.2051391601562
404,796.996337890625,799.8168334960938,802.2344360351562,799.4139404296875
405,790.5494384765625,796.1904907226562,801.025634765625,794.1758422851562
406,783.2966918945312,790.5494384765625,797.3992919921875,789.3406372070312
407,783.6996459960938,791.3552856445312,798.6080322265625,792.967041015625
408,794.981689453125,798.2051391601562,800.6226806640625,793.7728881835938
409,801.4285888671875,796.1904907226562,801.8314819335938,794.1758422851562
410,797.3992919921875,796.5933837890625,798.6080322265625,794.1758422851562
411,795.7875366210938,798.6080322265625,796.1904907226562,795.7875366210938
412,798.6080322265625,800.2197875976562,799.4139404296875,794.5787353515625
413,802.6373901367188,799.4139404296875,800.2197875976562,790.952392578125
414,799.010986328125,798.2051391601562,801.8314819335938,792.1611938476562
415,793.3699340820312,794.981689453125,796.996337890625,791.3552856445312
416,788.1318969726562,794.1758422851562,791.3552856445312,784.5054931640625
417,784.5054931640625,794.5787353515625,794.1758422851562,779.2673950195312
418,782.4908447265625,791.7582397460938,792.967041015625,782.087890625
419,786.923095703125,789.7435913085938,787.7289428710938,780.0732421875
420,782.087890625,790.1465454101562,791.7582397460938,779.2673950195312
421,774.8351440429688,792.1611938476562,796.5933837890625,786.5201416015625
422,783.6996459960938,793.3699340820312,795.3846435546875,799.8168334960938
423,789.3406372070312,795.3846435546875,793.7728881835938,796.5933837890625
424,794.1758422851562,799.4139404296875,796.996337890625,786.5201416015625
425,791.7582397460938,796.996337890625,795.7875366210938,782.087890625
426,792.967041015625,792.967041015625,792.967041015625,784.908447265625
427,801.8314819335938,795.3846435546875,795.3846435546875,790.1465454101562
428,796.5933837890625,794.5787353515625,794.5787353515625,785.7142944335938
429,790.952392578125,789.7435913085938,796.1904907226562,786.1171875
430,787.7289428710938,789.7435913085938,796.1904907226562,788.5347900390625
431,788.1318969726562,787.7289428710938,794.981689453125,790.1465454101562
432,795.3846435546875,787.3259887695312,799.8168334960938,794.1758422851562
433,794.981689453125,787.7289428710938,799.010986328125,797.3992919921875
434,795.7875366210938,787.3259887695312,786.5201416015625,802.6373901367188
435,796.5933837890625,789.3406372070312,782.893798828125,805.8607788085938
436,793.3699340820312,791.3552856445312,788.937744140625,797.3992919921875
437,803.8461303710938,792.5640869140625,790.952392578125,791.7582397460938
438,808.6813354492188,791.3552856445312,790.952392578125,794.981689453125
439,799.8168334960938,788.5347900390625,789.3406372070312,796.5933837890625
440,796.5933837890625,793.3699340820312,787.7289428710938,793.3699340820312
441,795.3846435546875,799.010986328125,788.937744140625,789.7435913085938
442,783.6996459960938,792.967041015625,790.952392578125,794.1758422851562
443,767.1795043945312,793.3699340820312,788.5347900390625,792.1611938476562
444,775.2380981445312,796.5933837890625,790.952392578125,789.3406372070312
445,788.1318969726562,795.3846435546875,791.7582397460938,791.7582397460938
446,791.3552856445312,794.981689453125,791.7582397460938,792.5640869140625
447,790.5494384765625,796.1904907226562,793.7728881835938,796.5933837890625
448,786.5201416015625,795.3846435546875,794.5787353515625,790.952392578125
449,785.3113403320312,790.952392578125,797.8021850585938,786.923095703125
450,783.2966918945312,792.1611938476562,802.6373901367188,786.5201416015625
451,784.1025390625,789.3406372070312,800.2197875976562,782.893798828125
452,787.7289428710938,786.923095703125,795.7875366210938,784.5054931640625
453,787.7289428710938,781.6849975585938,793.7728881835938,789.3406372070312
454,789.3406372070312,781.6849975585938,792.5640869140625,799.8168334960938
455,783.6996459960938,788.5347900390625,793.3699340820312,798.2051391601562
456,779.6703491210938,790.952392578125,788.5347900390625,788.1318969726562
457,782.087890625,788.1318969726562,788.5347900390625,788.1318969726562
458,787.7289428710938,788.1318969726562,791.7582397460938,791.7582397460938
459,792.1611938476562,786.1171875,792.1611938476562,791.7582397460938
460,793.3699340820312,786.923095703125,793.7728881835938,792.1611938476562
461,788.937744140625,791.7582397460938,793.7728881835938,791.7582397460938
462,791.3552856445312,794.981689453125,794.981689453125,792.5640869140625
463,792.5640869140625,796.996337890625,792.967041015625,796.996337890625
464,784.908447265625,796.1904907226562,790.1465454101562,794.1758422851562
465,787.3259887695312,790.5494384765625,790.5494384765625,792.5640869140625
466,790.5494384765625,788.1318969726562,792.1611938476562,789.3406372070312
467,790.1465454101562,790.5494384765625,794.5787353515625,781.2820434570312
468,791.7582397460938,788.1318969726562,790.5494384765625,783.6996459960938
469,791.7582397460938,787.3259887695312,787.3259887695312,784.908447265625
470,792.1611938476562,786.1171875,788.937744140625,780.879150390625
471,797.8021850585938,786.5201416015625,787.7289428710938,782.4908447265625
472,797.3992919921875,784.1025390625,783.2966918945312,780.4761962890625
473,789.3406372070312,784.5054931640625,780.879150390625,779.2673950195312
474,788.937744140625,788.5347900390625,779.6703491210938,779.6703491210938
475,790.5494384765625,785.3113403320312,778.8644409179688,780.0732421875
476,788.1318969726562,786.5201416015625,784.5054931640625,786.5201416015625
477,786.1171875,791.7582397460938,788.1318969726562,790.1465454101562
478,792.967041015625,795.7875366210938,786.1171875,787.3259887695312
479,796.5933837890625,801.4285888671875,784.5054931640625,790.5494384765625
480,799.8168334960938,799.8168334960938,790.5494384765625,792.5640869140625
481,804.6520385742188,797.3992919921875,791.7582397460938,785.7142944335938
482,798.2051391601562,792.967041015625,789.3406372070312,785.3113403320312
483,793.3699340820312,784.1025390625,788.1318969726562,788.1318969726562
484,789.7435913085938,788.1318969726562,788.5347900390625,793.3699340820312
485,784.908447265625,792.967041015625,790.952392578125,793.3699340820312
486,786.923095703125,794.5787353515625,794.981689453125,789.3406372070312
487,778.4615478515625,793.7728881835938,795.7875366210938,784.5054931640625
488,776.0439453125,790.5494384765625,795.3846435546875,786.5201416015625
489,784.1025390625,794.1758422851562,797.3992919921875,787.7289428710938
490,787.3259887695312,794.981689453125,796.5933837890625,781.2820434570312
491,793.3699340820312,792.5640869140625,798.2051391601562,783.2966918945312
492,793.7728881835938,788.5347900390625,796.996337890625,782.4908447265625
493,794.5787353515625,788.1318969726562,796.1904907226562,782.087890625
494,801.4285888671875,793.7728881835938,801.025634765625,783.6996459960938
495,799.010986328125,797.8021850585938,803.040283203125,794.981689453125
496,792.5640869140625,796.996337890625,804.2490844726562,805.8607788085938
497,790.5494384765625,797.3992919921875,804.6520385742188,798.2051391601562
498,793.3699340820312,796.1904907226562,803.040283203125,791.7582397460938
499,795.3846435546875,791.7582397460938,807.069580078125,800.2197875976562
500,789.7435913085938,789.3406372070312,807.069580078125,805.4578857421875
501,786.1171875,789.7435913085938,803.040283203125,791.3552856445312
502,788.937744140625,785.7142944335938,799.8168334960938,787.3259887695312
503,788.937744140625,782.4908447265625,801.025634765625,791.7582397460938
504,788.5347900390625,790.1465454101562,804.6520385742188,793.7728881835938
505,786.5201416015625,794.1758422851562,800.2197875976562,793.3699340820312
506,780.879150390625,794.981689453125,797.3992919921875,789.7435913085938
507,784.5054931640625,794.981689453125,796.5933837890625,790.5494384765625
508,796.5933837890625,791.7582397460938,796.996337890625,786.923095703125
509,803.040283203125,790.952392578125,797.8021850585938,787.3259887695312
510,802.6373901367188,796.1904907226562,795.3846435546875,793.7728881835938
511,805.054931640625,799.8168334960938,794.1758422851562,803.8461303710938
512,800.2197875976562,794.5787353515625,792.967041015625,801.025634765625
513,790.952392578125,794.981689453125,795.7875366210938,784.5054931640625
514,797.8021850585938,795.3846435546875,797.8021850585938,785.7142944335938
515,799.010986328125,789.7435913085938,792.5640869140625,786.5201416015625
516,797.3992919921875,790.952392578125,789.3406372070312,779.6703491210938
517,796.5933837890625,792.1611938476562,793.3699340820312,778.8644409179688
518,787.3259887695312,796.996337890625,797.8021850585938,786.1171875
519,787.3259887695312,797.3992919921875,795.3846435546875,785.7142944335938
520,796.1904907226562,793.3699340820312,791.7582397460938,784.908447265625
521,804.6520385742188,795.3846435546875,793.3699340820312,790.5494384765625
522,803.4432373046875,793.7728881835938,790.1465454101562,794.1758422851562
523,796.1904907226562,788.937744140625,786.5201416015625,792.967041015625
524,793.3699340820312,789.3406372070312,787.7289428710938,786.923095703125
525,799.010986328125,791.3552856445312,790.1465454101562,787.3259887695312
526,804.6520385742188,792.967041015625,796.5933837890625,798.2051391601562
527,799.010986328125,789.3406372070312,796.5933837890625,802.2344360351562
528,794.1758422851562,784.5054931640625,792.967041015625,792.1611938476562
529,794.5787353515625,783.6996459960938,795.7875366210938,789.7435913085938
530,793.3699340820312,784.908447265625,795.3846435546875,792.1611938476562
531,792.1611938476562,790.5494384765625,792.1611938476562,793.3699340820312
532,796.996337890625,790.952392578125,792.1611938476562,790.952392578125
533,796.1904907226562,790.1465454101562,792.5640869140625,789.3406372070312
534,794.5787353515625,792.1611938476562,794.981689453125,793.3699340820312
535,796.5933837890625,790.1465454101562,798.2051391601562,792.5640869140625
536,801.8314819335938,785.7142944335938,797.3992919921875,794.1758422851562
537,807.4725341796875,788.5347900390625,798.6080322265625,794.1758422851562
538,811.90478515625,792.5640869140625,801.4285888671875,799.010986328125
539,804.2490844726562,794.5787353515625,800.6226806640625,801.025634765625
540,800.2197875976562,788.5347900390625,799.4139404296875,787.7289428710938
541,803.4432373046875,786.923095703125,799.010986328125,788.5347900390625
542,792.5640869140625,786.1171875,799.010986328125,790.1465454101562
543,784.5054931640625,779.6703491210938,799.8168334960938,784.5054931640625
544,785.3113403320312,781.2820434570312,798.2051391601562,786.5201416015625
545,782.893798828125,785.3113403320312,796.1904907226562,784.908447265625
546,786.5201416015625,787.7289428710938,796.1904907226562,782.893798828125
547,792.967041015625,789.3406372070312,794.5787353515625,782.4908447265625
548,787.7289428710938,790.952392578125,795.3846435546875,778.05859375
549,785.7142944335938,789.7435913085938,799.010986328125,787.3259887695312
550,792.5640869140625,789.3406372070312,799.010986328125,797.8021850585938
551,795.7875366210938,791.3552856445312,797.8021850585938,793.3699340820312
552,800.6226806640625,793.3699340820312,800.6226806640625,793.7728881835938
553,794.981689453125,790.5494384765625,799.010986328125,795.7875366210938
554,783.2966918945312,792.5640869140625,796.5933837890625,796.996337890625
555,780.4761962890625,798.2051391601562,798.6080322265625,793.7728881835938
556,783.6996459960938,796.996337890625,798.2051391601562,790.5494384765625
557,787.7289428710938,795.3846435546875,794.5787353515625,793.3699340820312
558,788.5347900390625,796.1904907226562,792.967041015625,790.952392578125
559,792.1611938476562,798.6080322265625,792.967041015625,786.923095703125
560,792.1611938476562,799.8168334960938,792.967041015625,786.1171875
561,787.7289428710938,801.025634765625,793.3699340820312,791.3552856445312
562,792.967041015625,802.2344360351562,795.7875366210938,796.5933837890625
563,794.5787353515625,800.6226806640625,796.1904907226562,788.937744140625
564,788.937744140625,800.2197875976562,796.5933837890625,787.3259887695312
565,786.1171875,796.5933837890625,797.8021850585938,787.7289428710938
566,784.1025390625,792.967041015625,797.3992919921875,783.2966918945312
567,780.4761962890625,791.3552856445312,790.952392578125,778.8644409179688
568,776.4468994140625,790.1465454101562,788.1318969726562,781.6849975585938
569,776.0439453125,793.7728881835938,790.1465454101562,783.6996459960938
570,782.087890625,792.967041015625,790.5494384765625,777.6557006835938
571,784.5054931640625,793.7728881835938,789.7435913085938,778.4615478515625
572,780.4761962890625,796.996337890625,788.937744140625,785.3113403320312
573,779.6703491210938,794.981689453125,791.3552856445312,790.5494384765625
574,782.4908447265625,793.3699340820312,793.7728881835938,792.1611938476562
575,786.923095703125,795.7875366210938,792.967041015625,796.996337890625
576,782.4908447265625,794.5787353515625,791.7582397460938,788.5347900390625
577,780.4761962890625,790.1465454101562,787.3259887695312,784.5054931640625
578,790.1465454101562,795.3846435546875,786.5201416015625,789.7435913085938
579,794.1758422851562,805.054931640625,789.7435913085938,787.7289428710938
580,795.7875366210938,809.084228515625,786.5201416015625,786.5201416015625
581,789.3406372070312,805.4578857421875,789.7435913085938,782.893798828125
582,787.3259887695312,802.2344360351562,793.7728881835938,780.879150390625
583,784.908447265625,796.996337890625,790.1465454101562,780.4761962890625
584,780.879150390625,796.1904907226562,790.5494384765625,787.3259887695312
585,784.1025390625,796.1904907226562,793.7728881835938,791.3552856445312
586,786.5201416015625,795.3846435546875,790.952392578125,788.1318969726562
587,787.7289428710938,793.3699340820312,791.7582397460938,788.5347900390625
588,797.3992919921875,788.1318969726562,791.7582397460938,790.5494384765625
589,800.6226806640625,788.1318969726562,790.5494384765625,790.1465454101562
590,794.1758422851562,788.1318969726562,789.3406372070312,787.3259887695312
591,790.1465454101562,789.7435913085938,789.7435913085938,793.3699340820312
592,792.1611938476562,794.981689453125,799.4139404296875,800.6226806640625
593,795.7875366210938,796.1904907226562,800.6226806640625,794.981689453125
594,793.3699340820312,793.3699340820312,792.967041015625,786.1171875
595,789.7435913085938,791.3552856445312,794.5787353515625,788.5347900390625
596,781.6849975585938,785.3113403320312,796.5933837890625,788.5347900390625
597,780.879150390625,785.3113403320312,791.3552856445312,786.5201416015625
598,788.5347900390625,788.937744140625,793.3699340820312,788.937744140625
599,792.1611938476562,794.1758422851562,796.996337890625,789.7435913085938
600,792.967041015625,798.6080322265625,792.1611938476562,786.5201416015625
601,792.967041015625,794.1758422851562,790.1465454101562,781.6849975585938
602,789.3406372070312,789.3406372070312,790.952392578125,780.879150390625
603,788.937744140625,790.5494384765625,796.1904907226562,782.087890625
604,784.908447265625,788.1318969726562,803.4432373046875,788.1318969726562
605,780.4761962890625,785.7142944335938,800.6226806640625,790.952392578125
606,785.3113403320312,785.7142944335938,794.1758422851562,787.3259887695312
607,788.937744140625,783.6996459960938,791.3552856445312,790.952392578125
608,794.981689453125,785.3113403320312,791.7582397460938,789.3406372070312
609,800.2197875976562,790.5494384765625,795.3846435546875,789.3406372070312
610,799.4139404296875,790.1465454101562,789.3406372070312,790.952392578125
611,801.025634765625,784.908447265625,782.4908447265625,788.937744140625
612,803.8461303710938,784.1025390625,782.893798828125,784.908447265625
613,805.4578857421875,781.6849975585938,786.1171875,786.5201416015625
614,807.87548828125,785.3113403320312,790.1465454101562,790.1465454101562
615,802.6373901367188,790.1465454101562,788.5347900390625,793.3699340820312
616,795.7875366210938,789.7435913085938,789.3406372070312,790.5494384765625
617,799.8168334960938,790.5494384765625,792.5640869140625,787.7289428710938
618,804.6520385742188,789.7435913085938,791.3552856445312,789.3406372070312
619,795.7875366210938,784.908447265625,789.3406372070312,791.3552856445312
620,787.7289428710938,784.1025390625,786.5201416015625,788.5347900390625
621,787.7289428710938,789.3406372070312,786.923095703125,785.3113403320312
622,788.937744140625,787.7289428710938,787.7289428710938,794.981689453125
623,793.7728881835938,783.6996459960938,786.5201416015625,798.6080322265625
624,794.5787353515625,788.5347900390625,788.1318969726562,788.937744140625
625,790.952392578125,788.937744140625,788.1318969726562,784.908447265625
626,794.5787353515625,788.1318969726562,787.3259887695312,785.3113403320312
627,793.3699340820312,788.5347900390625,791.7582397460938,787.7289428710938
628,788.937744140625,786.1171875,793.3699340820312,787.7289428710938
629,793.3699340820312,784.5054931640625,792.967041015625,789.3406372070312
630,792.5640869140625,787.7289428710938,794.981689453125,796.5933837890625
631,786.923095703125,788.5347900390625,797.8021850585938,796.5933837890625
632,791.3552856445312,791.7582397460938,803.4432373046875,796.5933837890625
633,797.8021850585938,799.4139404296875,801.025634765625,796.1904907226562
634,794.5787353515625,793.3699340820312,793.7728881835938,796.996337890625
635,790.952392578125,786.923095703125,792.5640869140625,792.1611938476562
636,789.7435913085938,792.1611938476562,790.952392578125,786.5201416015625
637,790.5494384765625,792.1611938476562,792.967041015625,788.1318969726562
638,791.3552856445312,786.923095703125,797.8021850585938,787.7289428710938
639,795.7875366210938,787.3259887695312,797.3992919921875,787.7289428710938
640,801.4285888671875,786.5201416015625,793.3699340820312,787.3259887695312
641,792.967041015625,783.6996459960938,790.5494384765625,788.1318969726562
642,786.1171875,792.967041015625,788.937744140625,791.7582397460938
643,789.7435913085938,799.010986328125,790.952392578125,794.981689453125
644,783.2966918945312,791.3552856445312,788.5347900390625,788.937744140625
645,782.893798828125,791.3552856445312,786.1171875,789.7435913085938
646,782.087890625,790.952392578125,785.3113403320312,790.1465454101562
647,780.0732421875,786.1171875,780.879150390625,773.6264038085938
648,784.5054931640625,793.3699340820312,784.1025390625,772.8204956054688
649,789.7435913085938,800.6226806640625,786.5201416015625,778.05859375
650,789.3406372070312,799.010986328125,785.3113403320312,778.05859375
651,786.5201416015625,796.5933837890625,784.1025390625,779.2673950195312
652,784.1025390625,792.5640869140625,782.4908447265625,780.4761962890625
653,791.7582397460938,790.1465454101562,785.3113403320312,788.1318969726562
654,801.8314819335938,797.8021850585938,790.952392578125,792.5640869140625
655,808.6813354492188,802.2344360351562,797.3992919921875,794.5787353515625
656,813.91943359375,799.010986328125,799.010986328125,796.996337890625
657,806.2637329101562,799.4139404296875,797.8021850585938,798.6080322265625
658,800.2197875976562,797.8021850585938,797.3992919921875,794.981689453125
659,800.6226806640625,796.5933837890625,800.6226806640625,794.1758422851562
660,794.1758422851562,791.3552856445312,800.2197875976562,790.952392578125
661,786.923095703125,787.3259887695312,792.967041015625,787.7289428710938
662,781.2820434570312,790.1465454101562,792.1611938476562,790.1465454101562
663,780.0732421875,788.937744140625,796.1904907226562,789.7435913085938
664,782.893798828125,784.908447265625,795.3846435546875,789.7435913085938
665,783.6996459960938,787.7289428710938,792.1611938476562,788.5347900390625
666,783.2966918945312,791.3552856445312,793.3699340820312,790.952392578125
667,787.7289428710938,790.1465454101562,796.5933837890625,788.937744140625
668,790.1465454101562,788.937744140625,796.1904907226562,791.7582397460938
669,780.879150390625,788.937744140625,794.1758422851562,796.996337890625
670,776.8497924804688,791.7582397460938,795.3846435546875,796.5933837890625
671,780.879150390625,792.967041015625,797.3992919921875,793.3699340820312
672,777.6557006835938,792.5640869140625,796.1904907226562,788.937744140625
673,780.4761962890625,790.1465454101562,794.5787353515625,788.937744140625
674,788.1318969726562,791.3552856445312,792.5640869140625,794.981689453125
675,792.5640869140625,796.5933837890625,792.1611938476562,800.2197875976562
676,795.3846435546875,795.3846435546875,787.7289428710938,796.5933837890625
677,788.937744140625,787.7289428710938,783.2966918945312,786.1171875
678,795.3846435546875,785.3113403320312,783.6996459960938,784.908447265625
679,805.8607788085938,790.5494384765625,786.5201416015625,789.7435913085938
680,802.6373901367188,788.5347900390625,784.5054931640625,793.3699340820312
681,797.8021850585938,788.937744140625,786.5201416015625,793.7728881835938
682,798.6080322265625,793.3699340820312,790.952392578125,791.3552856445312
683,799.4139404296875,787.7289428710938,786.5201416015625,788.937744140625
684,796.5933837890625,786.1171875,788.5347900390625,789.7435913085938
685,800.2197875976562,790.952392578125,790.952392578125,793.3699340820312
686,801.025634765625,786.923095703125,791.7582397460938,790.952392578125
687,795.3846435546875,785.3113403320312,796.1904907226562,795.7875366210938
688,789.3406372070312,786.923095703125,796.996337890625,794.5787353515625
689,790.952392578125,787.3259887695312,796.5933837890625,792.967041015625
690,793.3699340820312,786.923095703125,794.981689453125,794.5787353515625
691,792.967041015625,783.2966918945312,795.3846435546875,792.1611938476562
692,795.3846435546875,789.7435913085938,796.5933837890625,794.5787353515625
693,788.1318969726562,794.5787353515625,797.8021850585938,789.7435913085938
694,786.1171875,791.3552856445312,796.996337890625,787.7289428710938
695,790.952392578125,794.5787353515625,796.1904907226562,790.1465454101562
696,790.5494384765625,793.3699340820312,794.5787353515625,787.7289428710938
697,792.967041015625,791.3552856445312,792.5640869140625,785.3113403320312
698,794.981689453125,790.1465454101562,795.7875366210938,786.5201416015625
699,790.952392578125,786.5201416015625,797.8021850585938,790.5494384765625
700,790.1465454101562,791.7582397460938,799.4139404296875,795.3846435546875
701,794.1758422851562,789.7435913085938,799.4139404296875,793.7728881835938
702,794.1758422851562,786.1171875,799.010986328125,785.3113403320312
703,799.4139404296875,788.937744140625,794.5787353515625,790.1465454101562
704,799.4139404296875,790.1465454101562,794.981689453125,796.996337890625
705,792.967041015625,787.7289428710938,793.7728881835938,792.5640869140625
706,797.3992919921875,790.952392578125,790.5494384765625,796.996337890625
707,796.996337890625,797.3992919921875,790.5494384765625,795.7875366210938
708,792.1611938476562,798.2051391601562,792.967041015625,792.967041015625
709,796.996337890625,792.5640869140625,794.5787353515625,792.1611938476562
710,806.6666870117188,786.1171875,790.952392578125,792.967041015625
711,810.6959838867188,792.5640869140625,794.1758422851562,795.3846435546875
712,806.2637329101562,801.4285888671875,793.3699340820312,789.3406372070312
713,803.4432373046875,800.2197875976562,792.967041015625,788.937744140625
714,809.89013671875,795.7875366210938,793.7728881835938,794.5787353515625
715,813.91943359375,791.7582397460938,793.3699340820312,800.2197875976562
716,812.3076782226562,794.981689453125,794.981689453125,795.3846435546875
717,807.4725341796875,795.7875366210938,793.3699340820312,790.5494384765625
718,799.8168334960938,792.967041015625,793.3699340820312,798.2051391601562
719,791.7582397460938,794.5787353515625,793.3699340820312,796.5933837890625
720,790.1465454101562,791.7582397460938,796.1904907226562,793.7728881835938
721,791.3552856445312,794.1758422851562,799.4139404296875,796.1904907226562
722,786.5201416015625,795.3846435546875,800.2197875976562,792.5640869140625
723,780.879150390625,793.7728881835938,798.6080322265625,794.1758422851562
724,778.4615478515625,794.5787353515625,798.6080322265625,790.5494384765625
725,778.8644409179688,797.3992919921875,796.996337890625,788.937744140625
726,784.908447265625,800.2197875976562,794.1758422851562,797.3992919921875
727,784.908447265625,793.7728881835938,790.1465454101562,791.3552856445312
728,777.6557006835938,788.5347900390625,788.937744140625,782.087890625
729,777.2527465820312,794.1758422851562,792.967041015625,785.7142944335938
730,778.8644409179688,791.7582397460938,788.937744140625,790.5494384765625
731,781.6849975585938,788.1318969726562,782.893798828125,789.3406372070312
732,788.937744140625,789.3406372070312,786.1171875,786.5201416015625
733,795.7875366210938,787.7289428710938,788.1318969726562,785.3113403320312
734,790.952392578125,791.7582397460938,788.937744140625,787.3259887695312
735,790.952392578125,799.010986328125,788.937744140625,791.7582397460938
736,799.4139404296875,796.996337890625,789.7435913085938,793.3699340820312
737,798.6080322265625,790.952392578125,786.1171875,790.952392578125
738,796.5933837890625,793.3699340820312,787.7289428710938,790.952392578125
739,801.025634765625,799.4139404296875,793.7728881835938,790.1465454101562
740,804.6520385742188,798.6080322265625,791.3552856445312,789.3406372070312
741,801.025634765625,796.1904907226562,787.7289428710938,794.981689453125
742,799.4139404296875,796.1904907226562,787.7289428710938,799.010986328125
743,801.4285888671875,802.6373901367188,788.5347900390625,796.5933837890625
744,805.054931640625,804.2490844726562,794.5787353515625,796.996337890625
745,806.2637329101562,799.4139404296875,797.8021850585938,798.6080322265625
746,803.4432373046875,796.5933837890625,794.981689453125,793.7728881835938
747,803.4432373046875,803.040283203125,795.7875366210938,795.7875366210938
748,796.1904907226562,803.4432373046875,794.1758422851562,797.8021850585938
749,787.7289428710938,796.5933837890625,790.1465454101562,794.981689453125
750,790.5494384765625,792.5640869140625,788.1318969726562,792.5640869140625
751,795.3846435546875,788.937744140625,785.3113403320312,786.923095703125
752,794.5787353515625,786.1171875,787.3259887695312,782.4908447265625
753,791.7582397460938,786.923095703125,789.3406372070312,789.3406372070312
754,788.937744140625,792.5640869140625,788.1318969726562,792.5640869140625
755,787.7289428710938,793.3699340820312,788.5347900390625,784.5054931640625
756,792.5640869140625,795.3846435546875,788.1318969726562,785.7142944335938
757,799.4139404296875,800.6226806640625,787.3259887695312,782.087890625
758,789.3406372070312,797.3992919921875,786.923095703125,775.6410522460938
759,785.7142944335938,794.981689453125,784.908447265625,775.2380981445312
760,786.5201416015625,790.952392578125,784.5054931640625,771.2088012695312
761,783.6996459960938,788.1318969726562,787.7289428710938,772.8204956054688
762,785.7142944335938,789.7435913085938,787.3259887695312,778.05859375
763,781.6849975585938,787.7289428710938,784.5054931640625,783.2966918945312
764,785.7142944335938,786.923095703125,787.7289428710938,787.3259887695312
765,786.1171875,786.1171875,791.7582397460938,791.3552856445312
766,784.1025390625,785.7142944335938,790.5494384765625,793.7728881835938
767,794.1758422851562,784.5054931640625,790.952392578125,789.3406372070312
768,794.5787353515625,782.893798828125,790.1465454101562,788.1318969726562
769,794.1758422851562,786.5201416015625,788.5347900390625,785.7142944335938
770,792.967041015625,789.3406372070312,787.3259887695312,785.7142944335938
771,787.3259887695312,790.5494384765625,786.923095703125,788.937744140625
772,785.7142944335938,791.7582397460938,789.3406372070312,787.3259887695312
773,786.1171875,791.7582397460938,790.1465454101562,786.923095703125
774,783.2966918945312,788.937744140625,786.923095703125,788.937744140625
775,781.6849975585938,785.3113403320312,787.3259887695312,792.1611938476562
776,785.3113403320312,785.3113403320312,792.1611938476562,803.040283203125
777,785.3113403320312,786.5201416015625,788.937744140625,802.2344360351562
778,788.937744140625,787.3259887695312,783.2966918945312,791.3552856445312
779,787.3259887695312,789.7435913085938,789.3406372070312,792.1611938476562
780,785.7142944335938,790.5494384765625,797.3992919921875,794.981689453125
781,788.937744140625,789.7435913085938,796.996337890625,796.996337890625
782,787.3259887695312,790.1465454101562,794.981689453125,793.3699340820312
783,788.5347900390625,792.1611938476562,792.1611938476562,785.3113403320312
784,793.7728881835938,791.7582397460938,792.5640869140625,784.908447265625
785,790.952392578125,790.5494384765625,792.5640869140625,784.5054931640625
786,789.3406372070312,788.5347900390625,789.3406372070312,782.4908447265625
787,793.3699340820312,787.3259887695312,792.1611938476562,788.1318969726562
788,796.1904907226562,787.7289428710938,796.5933837890625,792.1611938476562
789,795.3846435546875,789.3406372070312,797.3992919921875,786.5201416015625
790,791.3552856445312,786.923095703125,791.7582397460938,780.0732421875
791,790.1465454101562,782.4908447265625,792.967041015625,781.2820434570312
792,795.3846435546875,784.5054931640625,795.7875366210938,786.5201416015625
793,791.3552856445312,787.3259887695312,792.967041015625,784.5054931640625
794,783.6996459960938,791.7582397460938,792.5640869140625,778.8644409179688
795,782.087890625,793.7728881835938,790.1465454101562,779.6703491210938
796,782.4908447265625,791.3552856445312,788.1318969726562,780.4761962890625
797,790.952392578125,791.7582397460938,788.937744140625,781.2820434570312
798,792.1611938476562,786.923095703125,786.923095703125,782.4908447265625
799,786.5201416015625,786.923095703125,784.1025390625,788.1318969726562
800,785.3113403320312,793.3699340820312,785.7142944335938,788.937744140625
801,786.1171875,784.1025390625,786.1171875,787.7289428710938
802,788.1318969726562,780.0732421875,786.923095703125,788.5347900390625
803,791.7582397460938,784.908447265625,789.3406372070312,781.6849975585938
804,786.5201416015625,786.5201416015625,789.7435913085938,784.1025390625
805,779.6703491210938,792.5640869140625,791.7582397460938,791.7582397460938
806,777.6557006835938,791.7582397460938,796.5933837890625,791.7582397460938
807,784.5054931640625,787.7289428710938,798.6080322265625,792.5640869140625
808,795.3846435546875,790.1465454101562,803.4432373046875,795.3846435546875
809,787.3259887695312,787.7289428710938,807.069580078125,792.1611938476562
810,774.4322509765625,786.5201416015625,805.4578857421875,790.952392578125
811,779.6703491210938,787.3259887695312,805.054931640625,792.967041015625
812,793.3699340820312,784.908447265625,803.8461303710938,792.1611938476562
813,797.8021850585938,789.7435913085938,805.054931640625,794.1758422851562
814,793.7728881835938,794.5787353515625,803.040283203125,797.3992919921875
815,796.996337890625,795.7875366210938,802.2344360351562,795.7875366210938
816,792.5640869140625,793.3699340820312,798.2051391601562,785.7142944335938
817,794.981689453125,795.7875366210938,795.3846435546875,783.2966918945312
818,801.8314819335938,797.3992919921875,799.4139404296875,790.5494384765625
819,792.5640869140625,793.7728881835938,800.2197875976562,791.7582397460938
820,788.937744140625,796.1904907226562,799.010986328125,786.923095703125
821,789.3406372070312,798.2051391601562,796.996337890625,784.1025390625
822,790.952392578125,793.7728881835938,796.5933837890625,784.5054931640625
823,798.6080322265625,792.967041015625,793.7728881835938,786.1171875
824,790.5494384765625,787.3259887695312,790.952392578125,780.0732421875
825,784.5054931640625,786.1171875,793.3699340820312,781.2820434570312
826,781.2820434570312,786.1171875,790.5494384765625,784.908447265625
827,772.0146484375,786.5201416015625,791.3552856445312,786.5201416015625
828,769.1941528320312,787.3259887695312,793.3699340820312,788.5347900390625
829,776.0439453125,786.1171875,790.1465454101562,790.5494384765625
830,784.1025390625,787.7289428710938,794.1758422851562,788.937744140625
831,784.5054931640625,787.7289428710938,796.1904907226562,784.5054931640625
832,787.3259887695312,782.087890625,792.1611938476562,784.1025390625
833,787.3259887695312,784.1025390625,793.7728881835938,786.923095703125
834,789.7435913085938,786.1171875,798.6080322265625,787.7289428710938
835,798.2051391601562,784.5054931640625,799.4139404296875,789.3406372070312
836,805.054931640625,787.3259887695312,799.8168334960938,794.1758422851562
837,805.4578857421875,784.5054931640625,801.025634765625,792.967041015625
838,797.8021850585938,780.0732421875,796.996337890625,797.8021850585938
839,791.3552856445312,787.3259887695312,798.6080322265625,797.3992919921875
840,784.908447265625,789.3406372070312,797.8021850585938,787.7289428710938
841,781.2820434570312,785.3113403320312,793.3699340820312,782.893798828125
842,786.1171875,784.5054931640625,789.7435913085938,781.6849975585938
843,782.087890625,779.2673950195312,788.1318969726562,776.0439453125
844,777.2527465820312,776.0439453125,787.3259887695312,774.4322509765625
845,779.6703491210938,779.6703491210938,788.937744140625,776.4468994140625
846,784.908447265625,782.4908447265625,788.937744140625,774.8351440429688
847,793.3699340820312,790.1465454101562,786.923095703125,774.4322509765625
848,796.996337890625,799.010986328125,787.3259887695312,779.6703491210938
849,796.1904907226562,791.3552856445312,787.7289428710938,790.5494384765625
850,788.1318969726562,783.6996459960938,788.1318969726562,786.5201416015625
851,780.879150390625,789.7435913085938,788.1318969726562,776.8497924804688
852,793.3699340820312,797.3992919921875,791.7582397460938,780.0732421875
853,805.4578857421875,796.1904907226562,796.1904907226562,789.3406372070312
854,801.8314819335938,788.937744140625,796.1904907226562,790.952392578125
855,796.996337890625,790.1465454101562,794.981689453125,787.3259887695312
856,794.981689453125,794.5787353515625,796.5933837890625,788.1318969726562
857,795.3846435546875,794.981689453125,795.7875366210938,793.3699340820312
858,799.010986328125,797.3992919921875,792.967041015625,801.8314819335938
859,803.040283203125,794.1758422851562,790.952392578125,803.040283203125
860,806.2637329101562,792.5640869140625,792.967041015625,802.2344360351562
861,802.6373901367188,791.7582397460938,798.6080322265625,807.87548828125
862,799.010986328125,791.7582397460938,799.010986328125,804.6520385742188
863,795.7875366210938,790.5494384765625,794.981689453125,794.981689453125
864,789.7435913085938,790.1465454101562,795.7875366210938,800.6226806640625
865,789.7435913085938,790.5494384765625,792.5640869140625,798.6080322265625
866,785.7142944335938,789.7435913085938,788.5347900390625,789.7435913085938
867,782.893798828125,794.981689453125,789.7435913085938,791.3552856445312
868,792.967041015625,799.8168334960938,798.6080322265625,792.967041015625
869,796.996337890625,795.3846435546875,798.6080322265625,791.7582397460938
870,793.3699340820312,788.937744140625,788.5347900390625,782.4908447265625
871,792.967041015625,790.952392578125,785.7142944335938,772.0146484375
872,792.967041015625,788.1318969726562,786.5201416015625,776.8497924804688
873,791.3552856445312,784.5054931640625,787.3259887695312,784.1025390625
874,797.8021850585938,787.7289428710938,785.3113403320312,782.893798828125
875,799.4139404296875,792.1611938476562,784.908447265625,784.5054931640625
876,793.7728881835938,789.7435913085938,786.5201416015625,785.3113403320312
877,794.981689453125,791.3552856445312,791.7582397460938,786.1171875
878,800.6226806640625,792.1611938476562,796.1904907226562,789.7435913085938
879,806.2637329101562,792.967041015625,798.2051391601562,792.5640869140625
880,807.4725341796875,795.7875366210938,797.8021850585938,794.5787353515625
881,803.8461303710938,791.3552856445312,796.996337890625,794.1758422851562
882,790.952392578125,787.3259887695312,795.7875366210938,787.7289428710938
883,783.6996459960938,783.2966918945312,792.1611938476562,786.1171875
884,791.7582397460938,784.908447265625,793.7728881835938,798.2051391601562
885,795.7875366210938,789.3406372070312,795.7875366210938,799.010986328125
886,790.1465454101562,787.3259887695312,793.3699340820312,795.7875366210938
887,783.6996459960938,783.6996459960938,793.3699340820312,798.6080322265625
888,792.5640869140625,784.5054931640625,798.6080322265625,795.7875366210938
889,798.2051391601562,784.5054931640625,801.025634765625,794.5787353515625
890,793.7728881835938,780.4761962890625,798.6080322265625,795.3846435546875
891,793.3699340820312,778.4615478515625,797.3992919921875,792.967041015625
892,789.3406372070312,779.6703491210938,793.7728881835938,784.908447265625
893,792.967041015625,784.908447265625,794.1758422851562,788.5347900390625
894,792.5640869140625,789.7435913085938,794.1758422851562,786.1171875
895,793.7728881835938,786.1171875,796.996337890625,787.3259887695312
896,786.5201416015625,787.7289428710938,800.2197875976562,791.3552856445312
897,772.0146484375,793.3699340820312,794.981689453125,778.8644409179688
898,777.2527465820312,793.3699340820312,793.3699340820312,780.0732421875
899,786.1171875,796.5933837890625,799.4139404296875,790.952392578125
900,789.3406372070312,798.2051391601562,803.040283203125,788.1318969726562
901,793.7728881835938,797.3992919921875,800.6226806640625,784.5054931640625
902,789.3406372070312,792.967041015625,798.6080322265625,781.2820434570312
903,783.6996459960938,788.5347900390625,798.6080322265625,778.05859375
904,790.5494384765625,791.3552856445312,797.3992919921875,782.087890625
905,789.3406372070312,792.5640869140625,796.996337890625,780.0732421875
906,785.7142944335938,791.3552856445312,790.1465454101562,783.6996459960938
907,786.923095703125,788.5347900390625,788.1318969726562,784.908447265625
908,787.3259887695312,785.7142944335938,791.7582397460938,777.6557006835938
909,782.4908447265625,785.3113403320312,787.3259887695312,776.8497924804688
910,786.1171875,788.1318969726562,787.3259887695312,783.6996459960938
911,788.937744140625,788.1318969726562,791.3552856445312,788.5347900390625
912,776.4468994140625,785.7142944335938,788.937744140625,780.879150390625
913,774.4322509765625,782.893798828125,789.7435913085938,779.2673950195312
914,786.923095703125,780.4761962890625,793.3699340820312,785.7142944335938
915,794.981689453125,786.923095703125,795.3846435546875,789.7435913085938
916,795.7875366210938,791.7582397460938,790.1465454101562,788.5347900390625
917,801.4285888671875,790.952392578125,785.7142944335938,789.3406372070312
918,799.8168334960938,788.937744140625,789.3406372070312,790.1465454101562
919,793.3699340820312,790.5494384765625,788.937744140625,788.1318969726562
920,803.040283203125,793.7728881835938,788.5347900390625,789.3406372070312
921,803.040283203125,791.7582397460938,786.1171875,785.3113403320312
922,788.5347900390625,790.5494384765625,784.908447265625,782.087890625
923,784.908447265625,790.1465454101562,787.3259887695312,783.2966918945312
924,789.7435913085938,786.5201416015625,786.1171875,777.6557006835938
925,796.996337890625,788.937744140625,786.5201416015625,783.2966918945312
926,795.7875366210938,789.3406372070312,788.937744140625,782.893798828125
927,777.2527465820312,788.5347900390625,786.5201416015625,772.4176025390625
928,774.8351440429688,785.3113403320312,784.1025390625,771.6116943359375
929,792.5640869140625,784.1025390625,786.923095703125,778.8644409179688
930,796.996337890625,788.1318969726562,790.5494384765625,784.5054931640625
931,788.5347900390625,785.7142944335938,790.1465454101562,780.4761962890625
932,790.952392578125,787.7289428710938,790.5494384765625,781.2820434570312
933,794.981689453125,788.937744140625,796.5933837890625,786.1171875
934,786.923095703125,786.923095703125,794.981689453125,787.3259887695312
935,794.1758422851562,786.923095703125,794.981689453125,786.1171875
936,802.6373901367188,784.908447265625,796.996337890625,783.6996459960938
937,801.025634765625,788.1318969726562,796.1904907226562,787.7289428710938
938,792.5640869140625,789.7435913085938,793.3699340820312,790.952392578125
939,789.3406372070312,788.1318969726562,792.5640869140625,792.1611938476562
940,796.1904907226562,790.1465454101562,789.7435913085938,785.7142944335938
941,801.8314819335938,793.7728881835938,790.952392578125,781.6849975585938
942,804.2490844726562,796.996337890625,796.996337890625,790.5494384765625
943,799.8168334960938,793.7728881835938,794.981689453125,788.1318969726562
944,798.2051391601562,789.3406372070312,790.5494384765625,784.908447265625
945,802.2344360351562,793.7728881835938,792.5640869140625,796.1904907226562
946,802.6373901367188,794.1758422851562,794.981689453125,798.2051391601562
947,799.4139404296875,787.7289428710938,794.1758422851562,794.1758422851562
948,799.010986328125,787.7289428710938,790.5494384765625,794.1758422851562
949,795.3846435546875,791.3552856445312,785.7142944335938,789.7435913085938
950,789.7435913085938,789.7435913085938,784.908447265625,787.3259887695312
951,785.3113403320312,787.3259887695312,783.6996459960938,786.5201416015625
952,781.6849975585938,786.5201416015625,786.923095703125,789.7435913085938
953,775.2380981445312,786.923095703125,791.3552856445312,788.1318969726562
954,774.4322509765625,785.7142944335938,790.5494384765625,786.1171875
955,779.6703491210938,787.3259887695312,792.5640869140625,788.5347900390625
956,782.893798828125,788.937744140625,795.3846435546875,786.923095703125
957,785.7142944335938,785.7142944335938,793.3699340820312,790.5494384765625
958,790.1465454101562,786.923095703125,791.3552856445312,789.7435913085938
959,786.5201416015625,793.7728881835938,792.1611938476562,783.2966918945312
960,782.893798828125,794.981689453125,789.7435913085938,788.1318969726562
961,790.5494384765625,795.3846435546875,788.5347900390625,793.3699340820312
962,792.1611938476562,796.996337890625,793.7728881835938,787.3259887695312
963,789.3406372070312,794.981689453125,794.1758422851562,785.3113403320312
964,789.7435913085938,794.5787353515625,795.3846435546875,791.7582397460938
965,786.5201416015625,796.996337890625,793.3699340820312,791.3552856445312
966,789.7435913085938,801.025634765625,790.1465454101562,791.7582397460938
967,797.3992919921875,803.4432373046875,795.7875366210938,797.3992919921875
968,794.1758422851562,801.8314819335938,791.3552856445312,801.4285888671875
969,791.7582397460938,799.8168334960938,784.908447265625,799.8168334960938
970,788.5347900390625,801.4285888671875,785.3113403320312,796.1904907226562
971,790.952392578125,800.2197875976562,786.5201416015625,800.6226806640625
972,794.1758422851562,801.025634765625,790.1465454101562,805.8607788085938
973,793.7728881835938,805.4578857421875,790.1465454101562,803.4432373046875
974,798.6080322265625,799.8168334960938,789.3406372070312,796.996337890625
975,796.996337890625,794.981689453125,790.952392578125,799.8168334960938
976,798.6080322265625,796.996337890625,791.7582397460938,799.8168334960938
977,800.2197875976562,796.996337890625,790.5494384765625,796.1904907226562
978,794.981689453125,796.5933837890625,791.7582397460938,796.996337890625
979,791.3552856445312,790.5494384765625,794.1758422851562,790.5494384765625
980,785.7142944335938,785.7142944335938,791.7582397460938,784.5054931640625
981,789.3406372070312,790.1465454101562,790.952392578125,787.3259887695312
982,799.8168334960938,790.5494384765625,791.3552856445312,790.1465454101562
983,797.3992919921875,794.1758422851562,790.952392578125,792.1611938476562
984,786.1171875,797.8021850585938,792.5640869140625,791.3552856445312
985,784.5054931640625,801.025634765625,793.7728881835938,786.1171875
986,792.1611938476562,796.5933837890625,794.981689453125,782.4908447265625
987,788.5347900390625,789.7435913085938,795.7875366210938,785.3113403320312
988,785.3113403320312,790.1465454101562,795.7875366210938,792.1611938476562
989,783.6996459960938,787.3259887695312,794.5787353515625,784.908447265625
990,781.2820434570312,789.3406372070312,790.1465454101562,783.6996459960938
991,783.2966918945312,793.7728881835938,791.3552856445312,788.937744140625
992,784.908447265625,790.1465454101562,790.5494384765625,785.3113403320312
993,785.7142944335938,791.7582397460938,784.1025390625,778.4615478515625
994,782.087890625,796.1904907226562,786.5201416015625,780.0732421875
995,781.2820434570312,794.981689453125,788.5347900390625,778.4615478515625
996,788.1318969726562,799.010986328125,785.7142944335938,779.2673950195312
997,790.952392578125,802.2344360351562,783.6996459960938,786.923095703125
998,791.7582397460938,801.025634765625,786.923095703125,792.5640869140625
999,797.8021850585938,801.025634765625,789.7435913085938,793.7728881835938
1000,798.6080322265625,799.8168334960938,792.967041015625,794.1758422851562
1001,788.1318969726562,797.3992919921875,793.3699340820312,788.1318969726562
1002,788.1318969726562,799.4139404296875,791.3552856445312,788.5347900390625
1003,790.952392578125,796.996337890625,786.923095703125,786.923095703125
1004,785.7142944335938,789.7435913085938,784.1025390625,778.05859375
1005,781.2820434570312,791.3552856445312,789.7435913085938,776.0439453125
1006,782.087890625,790.1465454101562,788.5347900390625,780.879150390625
1007,783.2966918945312,793.7728881835938,785.3113403320312,789.7435913085938
1008,784.5054931640625,801.8314819335938,790.952392578125,787.3259887695312
1009,789.3406372070312,799.010986328125,790.5494384765625,782.4908447265625
1010,782.4908447265625,799.010986328125,787.7289428710938,780.879150390625
1011,783.6996459960938,797.8021850585938,788.5347900390625,784.908447265625
1012,794.5787353515625,796.996337890625,791.3552856445312,790.5494384765625
1013,790.952392578125,792.5640869140625,792.5640869140625,787.7289428710938
1014,792.1611938476562,789.3406372070312,795.3846435546875,789.3406372070312
1015,794.1758422851562,793.7728881835938,798.6080322265625,790.1465454101562
1016,792.5640869140625,797.3992919921875,796.1904907226562,790.5494384765625
1017,795.3846435546875,795.3846435546875,792.1611938476562,790.5494384765625
1018,797.3992919921875,792.1611938476562,791.3552856445312,792.967041015625
1019,794.981689453125,794.981689453125,792.1611938476562,790.1465454101562
1020,792.1611938476562,799.8168334960938,791.3552856445312,790.5494384765625
1021,796.996337890625,796.1904907226562,793.7728881835938,796.996337890625
1022,802.2344360351562,797.8021850585938,799.010986328125,801.4285888671875
1023,803.8461303710938,801.025634765625,799.010986328125,801.4285888671875
1024,803.040283203125,788.937744140625,798.2051391601562,797.3992919921875
1025,798.2051391601562,787.3259887695312,802.2344360351562,799.010986328125
1026,799.4139404296875,795.7875366210938,805.4578857421875,798.6080322265625
1027,804.6520385742188,799.4139404296875,804.2490844726562,796.996337890625
1028,809.89013671875,803.8461303710938,805.054931640625,798.6080322265625
1029,806.2637329101562,805.054931640625,805.4578857421875,802.2344360351562
1030,786.923095703125,799.010986328125,805.8607788085938,799.4139404296875
1031,781.2820434570312,795.3846435546875,806.6666870117188,791.3552856445312
1032,784.5054931640625,789.7435913085938,803.8461303710938,788.937744140625
1033,786.923095703125,788.5347900390625,799.8168334960938,793.7728881835938
1034,786.923095703125,789.3406372070312,796.996337890625,791.3552856445312
1035,786.923095703125,788.937744140625,794.5787353515625,779.6703491210938
1036,784.908447265625,788.937744140625,796.996337890625,778.4615478515625
1037,779.6703491210938,790.5494384765625,796.1904907226562,785.3113403320312
1038,782.4908447265625,790.5494384765625,795.7875366210938,783.6996459960938
1039,782.893798828125,786.923095703125,791.7582397460938,776.8497924804688
1040,780.0732421875,787.7289428710938,792.5640869140625,774.8351440429688
1041,786.1171875,790.952392578125,791.7582397460938,785.3113403320312
1042,791.3552856445312,790.1465454101562,789.7435913085938,788.1318969726562
1043,790.952392578125,790.1465454101562,794.981689453125,782.4908447265625
1044,794.1758422851562,794.1758422851562,794.5787353515625,782.087890625
1045,799.8168334960938,795.3846435546875,794.1758422851562,779.6703491210938
1046,803.040283203125,796.5933837890625,795.7875366210938,778.05859375
1047,798.2051391601562,797.8021850585938,797.3992919921875,780.4761962890625
1048,793.3699340820312,796.996337890625,795.3846435546875,789.7435913085938
1049,797.3992919921875,794.981689453125,795.3846435546875,797.3992919921875
1050,796.996337890625,796.1904907226562,796.996337890625,791.7582397460938
1051,792.1611938476562,799.4139404296875,796.996337890625,783.2966918945312
1052,791.7582397460938,799.4139404296875,794.981689453125,783.6996459960938
1053,801.4285888671875,802.6373901367188,796.5933837890625,792.967041015625
1054,807.069580078125,800.6226806640625,801.025634765625,796.1904907226562
1055,791.3552856445312,794.5787353515625,798.6080322265625,789.3406372070312
1056,786.5201416015625,791.3552856445312,800.2197875976562,796.996337890625
1057,797.3992919921875,794.5787353515625,802.6373901367188,805.054931640625
1058,794.5787353515625,801.4285888671875,799.010986328125,798.2051391601562
1059,796.5933837890625,796.996337890625,796.996337890625,798.2051391601562
1060,801.8314819335938,794.1758422851562,795.7875366210938,796.996337890625
1061,797.8021850585938,795.3846435546875,797.3992919921875,796.5933837890625
1062,799.010986328125,798.2051391601562,801.025634765625,803.040283203125
1063,807.4725341796875,795.7875366210938,800.2197875976562,801.8314819335938
1064,806.2637329101562,795.3846435546875,794.5787353515625,800.6226806640625
1065,801.025634765625,796.5933837890625,788.5347900390625,796.1904907226562
1066,800.2197875976562,792.5640869140625,790.5494384765625,784.5054931640625
1067,798.2051391601562,792.1611938476562,794.5787353515625,780.4761962890625
1068,796.996337890625,793.3699340820312,794.5787353515625,778.8644409179688
1069,801.4285888671875,796.5933837890625,796.5933837890625,780.0732421875
1070,795.7875366210938,794.5787353515625,793.3699340820312,780.879150390625
1071,792.967041015625,789.3406372070312,788.1318969726562,782.4908447265625
1072,799.4139404296875,796.996337890625,790.5494384765625,783.2966918945312
1073,800.6226806640625,801.4285888671875,795.7875366210938,782.893798828125
1074,799.4139404296875,798.6080322265625,794.1758422851562,786.1171875
1075,802.2344360351562,799.010986328125,795.7875366210938,789.7435913085938
1076,796.996337890625,798.6080322265625,796.5933837890625,783.6996459960938
1077,787.3259887695312,795.3846435546875,794.5787353515625,780.879150390625
1078,791.7582397460938,794.1758422851562,792.967041015625,788.1318969726562
1079,786.1171875,791.7582397460938,792.1611938476562,786.1171875
1080,784.908447265625,792.1611938476562,795.7875366210938,787.7289428710938
1081,786.5201416015625,793.3699340820312,798.2051391601562,791.7582397460938
1082,788.1318969726562,791.7582397460938,800.6226806640625,795.3846435546875
1083,792.967041015625,787.3259887695312,800.2197875976562,799.4139404296875
1084,792.5640869140625,786.5201416015625,795.7875366210938,798.6080322265625
1085,793.7728881835938,788.5347900390625,794.981689453125,795.7875366210938
1086,791.7582397460938,792.1611938476562,794.1758422851562,790.5494384765625
1087,792.5640869140625,795.7875366210938,795.3846435546875,792.967041015625
1088,795.3846435546875,798.6080322265625,797.8021850585938,797.3992919921875
1089,794.1758422851562,797.8021850585938,794.5787353515625,789.3406372070312
1090,795.7875366210938,788.937744140625,792.1611938476562,786.1171875
1091,801.4285888671875,788.937744140625,794.5787353515625,788.1318969726562
1092,799.010986328125,790.5494384765625,794.981689453125,783.6996459960938
1093,794.5787353515625,792.5640869140625,796.996337890625,788.1318969726562
1094,796.996337890625,793.7728881835938,796.996337890625,795.7875366210938
1095,797.3992919921875,791.7582397460938,794.5787353515625,792.1611938476562
1096,794.5787353515625,793.7728881835938,797.3992919921875,784.908447265625
1097,794.1758422851562,790.1465454101562,799.4139404296875,784.908447265625
1098,793.3699340820312,789.3406372070312,799.8168334960938,793.7728881835938
1099,789.7435913085938,791.3552856445312,799.8168334960938,796.5933837890625
1100,796.1904907226562,792.5640869140625,804.2490844726562,795.7875366210938
1101,798.2051391601562,795.7875366210938,808.2783813476562,798.6080322265625
1102,793.3699340820312,795.3846435546875,806.2637329101562,799.8168334960938
1103,788.1318969726562,794.1758422851562,808.2783813476562,799.010986328125
1104,783.2966918945312,791.7582397460938,805.4578857421875,794.981689453125
1105,787.7289428710938,791.7582397460938,803.8461303710938,801.025634765625
1106,789.3406372070312,794.5787353515625,804.6520385742188,808.2783813476562
1107,787.7289428710938,790.1465454101562,801.4285888671875,799.8168334960938
1108,790.1465454101562,781.2820434570312,803.040283203125,794.5787353515625
1109,788.5347900390625,785.3113403320312,798.6080322265625,796.5933837890625
1110,788.5347900390625,792.1611938476562,795.7875366210938,795.3846435546875
1111,792.5640869140625,792.5640869140625,799.8168334960938,794.1758422851562
1112,792.1611938476562,797.8021850585938,799.8168334960938,792.5640869140625
1113,790.1465454101562,796.1904907226562,799.8168334960938,792.1611938476562
1114,793.7728881835938,793.3699340820312,799.4139404296875,795.7875366210938
1115,794.5787353515625,789.3406372070312,796.996337890625,790.1465454101562
1116,790.1465454101562,780.879150390625,792.5640869140625,782.4908447265625
1117,789.7435913085938,788.1318969726562,791.7582397460938,783.6996459960938
1118,797.8021850585938,793.3699340820312,795.7875366210938,786.1171875
1119,793.7728881835938,791.7582397460938,795.3846435546875,786.5201416015625
1120,790.1465454101562,789.7435913085938,796.5933837890625,787.7289428710938
1121,794.981689453125,790.5494384765625,797.8021850585938,789.3406372070312
1122,793.3699340820312,792.967041015625,794.1758422851562,788.1318969726562
1123,792.967041015625,795.7875366210938,794.981689453125,785.7142944335938
1124,790.952392578125,799.010986328125,796.996337890625,782.087890625
1125,798.2051391601562,793.3699340820312,792.5640869140625,783.2966918945312
1126,800.2197875976562,785.7142944335938,789.3406372070312,784.5054931640625
1127,786.923095703125,786.5201416015625,789.3406372070312,777.6557006835938
1128,782.4908447265625,791.7582397460938,791.3552856445312,778.05859375
1129,786.5201416015625,793.3699340820312,795.3846435546875,780.0732421875
1130,781.6849975585938,797.3992919921875,794.1758422851562,783.6996459960938
1131,776.8497924804688,797.8021850585938,786.923095703125,780.0732421875
1132,782.087890625,792.5640869140625,784.5054931640625,772.8204956054688
1133,780.879150390625,790.952392578125,786.5201416015625,776.0439453125
1134,782.4908447265625,790.5494384765625,787.7289428710938,776.0439453125
1135,787.7289428710938,790.952392578125,785.7142944335938,776.0439453125
1136,785.7142944335938,793.3699340820312,787.7289428710938,782.087890625
1137,784.5054931640625,794.981689453125,789.7435913085938,788.937744140625
1138,783.6996459960938,787.7289428710938,788.1318969726562,786.1171875
1139,782.087890625,790.1465454101562,784.1025390625,779.6703491210938
1140,787.7289428710938,795.3846435546875,786.5201416015625,781.6849975585938
1141,794.981689453125,790.5494384765625,793.3699340820312,786.1171875
1142,791.3552856445312,788.937744140625,793.7728881835938,787.3259887695312
1143,788.1318969726562,791.7582397460938,794.1758422851562,786.923095703125
1144,794.5787353515625,792.967041015625,797.8021850585938,792.1611938476562
1145,802.2344360351562,796.1904907226562,797.3992919921875,797.8021850585938
1146,800.2197875976562,799.010986328125,799.010986328125,801.8314819335938
1147,792.1611938476562,793.7728881835938,799.010986328125,792.967041015625
1148,790.952392578125,789.3406372070312,794.1758422851562,789.3406372070312
1149,793.3699340820312,793.7728881835938,797.3992919921875,799.4139404296875
1150,796.996337890625,796.5933837890625,800.6226806640625,795.3846435546875
1151,803.8461303710938,797.3992919921875,799.4139404296875,788.5347900390625
1152,797.8021850585938,798.2051391601562,794.981689453125,790.1465454101562
1153,789.7435913085938,794.1758422851562,790.5494384765625,787.3259887695312
1154,797.8021850585938,796.1904907226562,797.3992919921875,792.5640869140625
1155,801.025634765625,795.7875366210938,798.6080322265625,797.3992919921875
1156,792.5640869140625,795.3846435546875,796.5933837890625,792.967041015625
1157,788.1318969726562,800.6226806640625,800.2197875976562,792.967041015625
1158,786.923095703125,796.996337890625,797.3992919921875,793.7728881835938
1159,783.2966918945312,793.3699340820312,796.5933837890625,793.7728881835938
1160,783.6996459960938,790.1465454101562,800.2197875976562,795.7875366210938
1161,786.923095703125,786.5201416015625,798.2051391601562,794.981689453125
1162,793.3699340820312,793.3699340820312,796.5933837890625,789.3406372070312
1163,790.1465454101562,796.1904907226562,803.040283203125,786.923095703125
1164,783.2966918945312,795.3846435546875,803.8461303710938,788.937744140625
1165,784.5054931640625,801.025634765625,800.6226806640625,789.3406372070312
1166,784.1025390625,799.8168334960938,802.2344360351562,786.923095703125
1167,793.3699340820312,801.4285888671875,799.4139404296875,789.7435913085938
1168,792.967041015625,799.010986328125,796.5933837890625,786.923095703125
1169,789.3406372070312,794.5787353515625,793.7728881835938,783.6996459960938
1170,797.8021850585938,796.1904907226562,794.1758422851562,785.3113403320312
1171,795.7875366210938,793.3699340820312,790.952392578125,777.6557006835938
1172,792.967041015625,789.7435913085938,787.3259887695312,780.0732421875
1173,792.967041015625,788.937744140625,794.5787353515625,783.6996459960938
1174,784.5054931640625,788.1318969726562,795.3846435546875,777.2527465820312
1175,782.893798828125,788.5347900390625,795.7875366210938,784.5054931640625
1176,790.952392578125,791.3552856445312,802.6373901367188,790.5494384765625
1177,796.996337890625,790.1465454101562,802.6373901367188,795.7875366210938
1178,798.2051391601562,790.952392578125,801.4285888671875,800.2197875976562
1179,796.5933837890625,797.8021850585938,803.4432373046875,801.8314819335938
1180,795.3846435546875,796.996337890625,805.054931640625,799.010986328125
1181,788.937744140625,794.5787353515625,799.4139404296875,790.1465454101562
1182,782.4908447265625,791.7582397460938,799.010986328125,791.3552856445312
1183,776.0439453125,786.1171875,798.2051391601562,797.8021850585938
1184,772.0146484375,787.3259887695312,796.5933837890625,794.1758422851562
1185,775.2380981445312,790.5494384765625,796.996337890625,786.923095703125
1186,783.6996459960938,791.7582397460938,794.981689453125,788.1318969726562
1187,783.6996459960938,790.5494384765625,796.996337890625,787.7289428710938
1188,789.3406372070312,787.7289428710938,797.8021850585938,790.952392578125
1189,793.7728881835938,791.3552856445312,798.2051391601562,796.1904907226562
1190,788.937744140625,790.5494384765625,797.3992919921875,789.3406372070312
1191,792.967041015625,789.7435913085938,792.5640869140625,784.1025390625
1192,796.1904907226562,788.5347900390625,794.981689453125,787.3259887695312
1193,793.3699340820312,788.1318969726562,799.010986328125,788.937744140625
1194,793.3699340820312,790.1465454101562,796.1904907226562,786.923095703125
1195,793.7728881835938,788.5347900390625,795.7875366210938,786.923095703125
1196,799.010986328125,788.5347900390625,796.996337890625,790.5494384765625
1197,805.4578857421875,789.7435913085938,794.1758422851562,794.5787353515625
1198,802.6373901367188,790.952392578125,795.7875366210938,796.5933837890625
1199,798.6080322265625,790.5494384765625,801.8314819335938,797.8021850585938
1200,796.5933837890625,790.5494384765625,803.8461303710938,796.5933837890625
1201,794.981689453125,792.5640869140625,802.6373901367188,798.6080322265625
1202,797.8021850585938,790.952392578125,800.2197875976562,797.8021850585938
1203,800.2197875976562,793.3699340820312,799.4139404296875,796.1904907226562
1204,796.5933837890625,794.5787353515625,800.2197875976562,795.7875366210938
1205,792.5640869140625,792.967041015625,801.8314819335938,791.3552856445312
1206,794.981689453125,795.3846435546875,799.010986328125,789.7435913085938
1207,800.2197875976562,795.3846435546875,797.3992919921875,791.3552856445312
1208,797.8021850585938,792.967041015625,800.6226806640625,789.3406372070312
1209,786.923095703125,791.7582397460938,798.2051391601562,786.923095703125
1210,790.5494384765625,788.937744140625,796.1904907226562,789.7435913085938
1211,792.5640869140625,787.7289428710938,792.5640869140625,788.937744140625
1212,784.908447265625,788.937744140625,791.7582397460938,783.2966918945312
1213,789.3406372070312,788.1318969726562,794.981689453125,784.1025390625
1214,793.7728881835938,790.1465454101562,795.3846435546875,786.5201416015625
1215,795.7875366210938,795.7875366210938,797.8021850585938,782.893798828125
1216,805.054931640625,797.8021850585938,794.981689453125,784.908447265625
1217,805.054931640625,795.7875366210938,790.1465454101562,789.7435913085938
1218,792.1611938476562,795.7875366210938,793.7728881835938,792.5640869140625
1219,789.7435913085938,801.025634765625,799.4139404296875,792.967041015625
1220,788.937744140625,800.6226806640625,800.6226806640625,787.7289428710938
1221,797.8021850585938,796.996337890625,797.3992919921875,787.3259887695312
1222,802.6373901367188,800.6226806640625,796.1904907226562,792.5640869140625
1223,795.7875366210938,801.4285888671875,796.996337890625,788.1318969726562
1224,795.3846435546875,799.8168334960938,798.2051391601562,785.3113403320312
1225,792.1611938476562,797.8021850585938,795.7875366210938,786.1171875
1226,791.3552856445312,796.996337890625,790.1465454101562,783.6996459960938
1227,793.3699340820312,799.010986328125,792.1611938476562,781.2820434570312
1228,797.8021850585938,798.6080322265625,796.996337890625,785.7142944335938
1229,799.4139404296875,795.7875366210938,796.996337890625,788.937744140625
1230,797.8021850585938,794.1758422851562,799.010986328125,789.7435913085938
1231,795.7875366210938,793.7728881835938,801.8314819335938,790.952392578125
1232,805.054931640625,795.3846435546875,799.8168334960938,785.7142944335938
1233,810.6959838867188,797.8021850585938,801.025634765625,790.5494384765625
1234,804.6520385742188,799.8168334960938,801.025634765625,795.7875366210938
1235,800.6226806640625,800.2197875976562,796.1904907226562,786.923095703125
1236,803.8461303710938,799.8168334960938,792.967041015625,778.8644409179688
1237,806.2637329101562,797.8021850585938,794.5787353515625,778.8644409179688
1238,812.7106323242188,797.8021850585938,794.5787353515625,780.0732421875
1239,815.5311279296875,796.5933837890625,796.5933837890625,782.893798828125
1240,807.069580078125,792.5640869140625,796.996337890625,791.7582397460938
1241,806.6666870117188,791.3552856445312,796.1904907226562,794.1758422851562
1242,805.8607788085938,791.7582397460938,797.3992919921875,796.1904907226562
1243,801.8314819335938,793.7728881835938,795.7875366210938,800.2197875976562
1244,803.8461303710938,797.3992919921875,798.2051391601562,798.2051391601562
1245,800.2197875976562,801.8314819335938,801.025634765625,799.4139404296875
1246,791.3552856445312,799.010986328125,800.6226806640625,796.1904907226562
1247,794.1758422851562,795.7875366210938,796.996337890625,793.3699340820312
1248,795.7875366210938,792.1611938476562,796.996337890625,793.7728881835938
1249,790.1465454101562,790.5494384765625,799.8168334960938,792.967041015625
1250,789.7435913085938,792.967041015625,800.2197875976562,792.5640869140625
1251,790.1465454101562,794.5787353515625,801.025634765625,789.7435913085938
1252,786.1171875,797.8021850585938,801.025634765625,792.5640869140625
1253,786.923095703125,798.6080322265625,800.2197875976562,792.1611938476562
1254,792.967041015625,798.6080322265625,803.4432373046875,795.7875366210938
1255,792.1611938476562,793.7728881835938,805.8607788085938,799.8168334960938
1256,790.952392578125,788.5347900390625,798.6080322265625,794.1758422851562
1257,790.5494384765625,784.908447265625,794.981689453125,789.7435913085938
1258,789.3406372070312,786.923095703125,794.5787353515625,785.7142944335938
1259,790.952392578125,789.7435913085938,791.7582397460938,785.3113403320312
1260,785.7142944335938,788.5347900390625,792.967041015625,786.923095703125
1261,786.5201416015625,790.952392578125,795.3846435546875,791.7582397460938
1262,792.5640869140625,790.952392578125,794.5787353515625,792.1611938476562
1263,794.1758422851562,791.3552856445312,793.7728881835938,790.952392578125
1264,793.7728881835938,794.1758422851562,792.1611938476562,793.7728881835938
1265,796.996337890625,794.1758422851562,789.7435913085938,790.5494384765625
1266,796.996337890625,791.3552856445312,792.1611938476562,788.1318969726562
1267,796.5933837890625,786.1171875,792.5640869140625,787.7289428710938
1268,793.3699340820312,786.1171875,787.7289428710938,787.3259887695312
1269,787.3259887695312,786.923095703125,787.7289428710938,779.2673950195312
1270,779.2673950195312,779.6703491210938,787.3259887695312,767.5823974609375
1271,776.0439453125,777.6557006835938,786.1171875,763.9560546875
1272,782.893798828125,783.2966918945312,787.7289428710938,769.1941528320312
1273,778.4615478515625,779.6703491210938,783.2966918945312,771.2088012695312
1274,777.2527465820312,777.6557006835938,784.908447265625,778.4615478515625
1275,781.2820434570312,785.3113403320312,792.967041015625,784.5054931640625
1276,782.087890625,791.3552856445312,793.3699340820312,782.087890625
1277,787.7289428710938,789.3406372070312,791.7582397460938,781.6849975585938
1278,793.3699340820312,786.5201416015625,791.3552856445312,784.1025390625
1279,791.3552856445312,786.5201416015625,791.7582397460938,792.5640869140625
1280,791.7582397460938,785.7142944335938,791.7582397460938,798.6080322265625
1281,790.5494384765625,784.908447265625,792.1611938476562,794.1758422851562
1282,786.1171875,786.5201416015625,791.3552856445312,786.1171875
1283,792.1611938476562,788.1318969726562,793.3699340820312,788.937744140625
1284,792.1611938476562,785.3113403320312,794.1758422851562,792.967041015625
1285,794.981689453125,788.1318969726562,797.3992919921875,796.996337890625
1286,794.1758422851562,792.5640869140625,798.2051391601562,799.8168334960938
1287,782.087890625,789.3406372070312,794.981689453125,794.1758422851562
1288,786.5201416015625,789.3406372070312,796.996337890625,792.967041015625
1289,787.3259887695312,791.7582397460938,796.996337890625,787.3259887695312
1290,788.5347900390625,792.5640869140625,796.5933837890625,788.1318969726562
1291,794.981689453125,794.981689453125,797.8021850585938,801.025634765625
1292,790.952392578125,794.1758422851562,796.996337890625,791.7582397460938
1293,790.5494384765625,794.1758422851562,799.010986328125,784.908447265625
1294,797.8021850585938,793.7728881835938,801.8314819335938,792.5640869140625
1295,794.5787353515625,784.908447265625,799.8168334960938,789.7435913085938
1296,788.1318969726562,784.908447265625,799.4139404296875,784.908447265625
1297,794.5787353515625,788.1318969726562,802.6373901367188,782.893798828125
1298,792.1611938476562,786.1171875,804.6520385742188,785.7142944335938
1299,793.3699340820312,787.7289428710938,801.025634765625,787.3259887695312
1300,792.5640869140625,788.1318969726562,798.2051391601562,786.1171875
1301,786.923095703125,784.908447265625,797.8021850585938,784.908447265625
1302,789.7435913085938,789.7435913085938,793.7728881835938,790.5494384765625
1303,798.6080322265625,792.1611938476562,798.6080322265625,796.1904907226562
1304,801.4285888671875,787.7289428710938,802.2344360351562,796.1904907226562
1305,800.2197875976562,792.5640869140625,800.2197875976562,795.7875366210938
1306,803.8461303710938,793.7728881835938,800.2197875976562,805.4578857421875
1307,791.3552856445312,796.5933837890625,798.6080322265625,805.8607788085938
1308,782.4908447265625,792.5640869140625,799.8168334960938,796.996337890625
1309,790.952392578125,789.3406372070312,796.5933837890625,797.3992919921875
1310,790.1465454101562,791.7582397460938,793.7728881835938,795.7875366210938
1311,787.3259887695312,792.5640869140625,794.981689453125,791.7582397460938
1312,788.937744140625,794.1758422851562,794.981689453125,793.3699340820312
1313,788.5347900390625,788.937744140625,793.3699340820312,794.1758422851562
1314,796.996337890625,789.3406372070312,791.7582397460938,795.3846435546875
1315,801.4285888671875,792.5640869140625,794.981689453125,796.996337890625
1316,794.1758422851562,793.7728881835938,799.010986328125,794.5787353515625
1317,787.7289428710938,791.7582397460938,797.3992919921875,792.967041015625
1318,785.7142944335938,790.1465454101562,794.5787353515625,794.5787353515625
1319,786.5201416015625,792.1611938476562,793.3699340820312,791.3552856445312
1320,796.1904907226562,793.3699340820312,797.3992919921875,791.3552856445312
1321,805.054931640625,794.1758422851562,799.4139404296875,792.967041015625
1322,805.054931640625,798.2051391601562,796.5933837890625,792.967041015625
1323,805.4578857421875,795.3846435546875,801.8314819335938,790.1465454101562
1324,800.2197875976562,790.1465454101562,804.6520385742188,788.1318969726562
1325,801.4285888671875,796.1904907226562,805.054931640625,801.8314819335938
1326,803.040283203125,800.6226806640625,806.2637329101562,805.4578857421875
1327,794.1758422851562,803.4432373046875,801.025634765625,799.8168334960938
1328,795.3846435546875,802.2344360351562,802.2344360351562,798.2051391601562
1329,803.8461303710938,799.4139404296875,801.4285888671875,803.4432373046875
1330,808.6813354492188,797.8021850585938,796.996337890625,810.6959838867188
1331,803.8461303710938,792.5640869140625,797.3992919921875,805.054931640625
1332,794.5787353515625,790.1465454101562,793.7728881835938,801.4285888671875
1333,794.1758422851562,793.3699340820312,792.1611938476562,806.2637329101562
1334,799.4139404296875,788.937744140625,796.1904907226562,807.069580078125
1335,807.4725341796875,788.5347900390625,793.7728881835938,806.2637329101562
1336,812.3076782226562,794.5787353515625,792.967041015625,811.098876953125
1337,805.8607788085938,796.1904907226562,792.5640869140625,807.87548828125
1338,806.2637329101562,791.7582397460938,794.5787353515625,803.8461303710938
1339,807.4725341796875,789.7435913085938,794.5787353515625,801.4285888671875
1340,796.5933837890625,795.7875366210938,789.7435913085938,799.010986328125
1341,793.7728881835938,794.981689453125,788.937744140625,797.8021850585938
1342,796.5933837890625,792.1611938476562,787.7289428710938,787.7289428710938
1343,792.1611938476562,792.1611938476562,788.5347900390625,785.3113403320312
1344,786.923095703125,790.952392578125,787.7289428710938,785.7142944335938
1345,790.1465454101562,787.3259887695312,789.7435913085938,782.4908447265625
1346,795.7875366210938,790.1465454101562,795.3846435546875,787.3259887695312
1347,795.3846435546875,796.1904907226562,796.1904907226562,787.3259887695312
1348,792.1611938476562,795.7875366210938,796.1904907226562,784.5054931640625
1349,786.923095703125,794.1758422851562,794.981689453125,780.879150390625
1350,784.908447265625,791.3552856445312,790.1465454101562,775.6410522460938
1351,788.5347900390625,788.937744140625,790.952392578125,777.2527465820312
1352,788.5347900390625,791.3552856445312,793.7728881835938,784.5054931640625
1353,790.952392578125,795.3846435546875,794.1758422851562,788.5347900390625
1354,794.981689453125,795.7875366210938,796.1904907226562,789.3406372070312
1355,793.7728881835938,793.7728881835938,794.981689453125,791.7582397460938
1356,791.3552856445312,791.3552856445312,786.1171875,787.7289428710938
1357,786.923095703125,789.3406372070312,784.1025390625,788.5347900390625
1358,788.5347900390625,783.6996459960938,790.1465454101562,793.7728881835938
1359,787.3259887695312,786.1171875,788.937744140625,791.7582397460938
1360,780.4761962890625,792.1611938476562,791.3552856445312,790.952392578125
1361,783.6996459960938,792.967041015625,794.5787353515625,791.3552856445312
1362,787.7289428710938,793.3699340820312,790.5494384765625,792.967041015625
1363,782.087890625,790.1465454101562,783.2966918945312,794.1758422851562
1364,783.2966918945312,790.5494384765625,782.893798828125,786.923095703125
1365,792.5640869140625,790.1465454101562,790.952392578125,784.908447265625
1366,792.5640869140625,784.5054931640625,785.7142944335938,782.893798828125
1367,794.5787353515625,792.1611938476562,786.1171875,785.7142944335938
1368,789.7435913085938,796.5933837890625,793.3699340820312,786.1171875
1369,781.2820434570312,790.1465454101562,790.5494384765625,781.2820434570312
1370,782.893798828125,789.3406372070312,792.967041015625,784.1025390625
1371,785.7142944335938,791.3552856445312,794.5787353515625,791.3552856445312
1372,796.1904907226562,792.5640869140625,797.8021850585938,802.2344360351562
1373,805.054931640625,794.981689453125,802.2344360351562,802.6373901367188
1374,800.6226806640625,789.7435913085938,794.5787353515625,791.7582397460938
1375,794.5787353515625,786.923095703125,791.7582397460938,792.5640869140625
1376,799.4139404296875,790.952392578125,798.2051391601562,799.010986328125
1377,805.4578857421875,790.5494384765625,798.2051391601562,791.3552856445312
1378,805.8607788085938,788.937744140625,797.3992919921875,786.923095703125
1379,799.010986328125,790.952392578125,797.3992919921875,790.952392578125
1380,790.952392578125,791.3552856445312,799.8168334960938,794.981689453125
1381,790.5494384765625,788.937744140625,797.8021850585938,792.1611938476562
1382,794.981689453125,785.3113403320312,792.967041015625,793.3699340820312
1383,794.981689453125,783.6996459960938,796.996337890625,798.2051391601562
1384,783.6996459960938,787.3259887695312,796.5933837890625,796.1904907226562
1385,782.893798828125,784.908447265625,794.5787353515625,794.981689453125
1386,791.7582397460938,786.5201416015625,797.3992919921875,801.025634765625
1387,794.1758422851562,791.7582397460938,798.6080322265625,803.4432373046875
1388,795.3846435546875,792.967041015625,799.8168334960938,796.1904907226562
1389,796.5933837890625,795.3846435546875,799.010986328125,790.1465454101562
1390,792.1611938476562,791.3552856445312,798.6080322265625,790.952392578125
1391,786.1171875,785.3113403320312,796.1904907226562,793.7728881835938
1392,792.1611938476562,787.3259887695312,795.7875366210938,794.981689453125
1393,797.3992919921875,784.5054931640625,799.010986328125,793.3699340820312
1394,794.981689453125,778.05859375,799.4139404296875,788.1318969726562
1395,794.5787353515625,780.879150390625,798.2051391601562,788.5347900390625
1396,792.1611938476562,785.7142944335938,796.1904907226562,794.1758422851562
1397,788.937744140625,786.923095703125,796.996337890625,792.967041015625
1398,791.3552856445312,787.3259887695312,797.3992919921875,787.7289428710938
1399,792.1611938476562,789.7435913085938,791.7582397460938,788.937744140625
1400,791.7582397460938,792.5640869140625,791.7582397460938,786.5201416015625
1401,794.5787353515625,786.5201416015625,798.2051391601562,785.7142944335938
1402,797.3992919921875,785.3113403320312,795.7875366210938,792.5640869140625
1403,794.5787353515625,789.3406372070312,795.3846435546875,790.1465454101562
1404,785.7142944335938,789.7435913085938,797.3992919921875,782.893798828125
1405,784.1025390625,789.3406372070312,797.8021850585938,784.5054931640625
1406,786.923095703125,792.1611938476562,796.996337890625,789.7435913085938
1407,784.1025390625,792.5640869140625,791.7582397460938,789.3406372070312
1408,789.3406372070312,788.1318969726562,793.3699340820312,785.7142944335938
1409,793.7728881835938,791.3552856445312,793.3699340820312,780.0732421875
1410,788.1318969726562,793.7728881835938,789.3406372070312,779.2673950195312
1411,783.2966918945312,792.1611938476562,786.923095703125,782.4908447265625
1412,788.5347900390625,790.952392578125,791.3552856445312,782.893798828125
1413,800.2197875976562,792.967041015625,792.5640869140625,788.937744140625
1414,800.2197875976562,793.3699340820312,789.7435913085938,792.967041015625
1415,791.3552856445312,790.952392578125,788.937744140625,786.923095703125
1416,791.3552856445312,787.7289428710938,787.7289428710938,786.5201416015625
1417,791.7582397460938,790.952392578125,787.3259887695312,791.3552856445312
1418,792.5640869140625,790.5494384765625,788.5347900390625,796.1904907226562
1419,791.7582397460938,781.6849975585938,786.1171875,792.967041015625
1420,786.923095703125,786.923095703125,787.3259887695312,784.5054931640625
1421,790.1465454101562,792.967041015625,792.1611938476562,782.893798828125
1422,795.7875366210938,791.7582397460938,788.5347900390625,784.908447265625
1423,796.1904907226562,794.5787353515625,790.5494384765625,787.3259887695312
1424,790.952392578125,791.7582397460938,789.7435913085938,786.1171875
1425,780.0732421875,788.1318969726562,784.5054931640625,786.923095703125
1426,780.4761962890625,786.5201416015625,785.7142944335938,789.7435913085938
1427,788.1318969726562,786.923095703125,783.6996459960938,785.3113403320312
1428,796.996337890625,787.7289428710938,785.3113403320312,782.4908447265625
1429,792.1611938476562,788.1318969726562,781.6849975585938,777.2527465820312
1430,790.5494384765625,788.5347900390625,785.3113403320312,781.6849975585938
1431,789.3406372070312,788.1318969726562,792.5640869140625,784.1025390625
1432,785.7142944335938,787.3259887695312,790.5494384765625,783.2966918945312
1433,791.3552856445312,781.6849975585938,791.7582397460938,787.3259887695312
1434,784.908447265625,783.6996459960938,790.1465454101562,784.908447265625
1435,784.908447265625,788.937744140625,789.7435913085938,787.3259887695312
1436,787.7289428710938,784.5054931640625,792.5640869140625,790.5494384765625
1437,781.2820434570312,782.087890625,793.3699340820312,789.7435913085938
1438,783.2966918945312,778.05859375,792.5640869140625,786.1171875
1439,786.923095703125,780.879150390625,791.7582397460938,780.4761962890625
1440,786.1171875,787.7289428710938,796.1904907226562,782.893798828125
1441,788.1318969726562,789.7435913085938,796.996337890625,788.1318969726562
1442,786.923095703125,788.1318969726562,794.1758422851562,790.1465454101562
1443,782.893798828125,783.6996459960938,790.5494384765625,790.5494384765625
1444,787.3259887695312,788.1318969726562,790.1465454101562,784.908447265625
1445,788.1318969726562,788.5347900390625,791.3552856445312,788.1318969726562
1446,782.4908447265625,788.5347900390625,789.7435913085938,790.952392578125
1447,787.3259887695312,792.5640869140625,794.1758422851562,791.7582397460938
1448,796.996337890625,790.5494384765625,798.2051391601562,802.6373901367188
1449,804.2490844726562,791.3552856445312,799.010986328125,810.2930297851562
1450,796.1904907226562,799.4139404296875,793.7728881835938,801.4285888671875
1451,786.5201416015625,797.3992919921875,787.3259887695312,791.7582397460938
1452,794.1758422851562,790.5494384765625,789.3406372070312,796.996337890625
1453,797.8021850585938,788.1318969726562,794.5787353515625,797.3992919921875
1454,791.3552856445312,786.923095703125,797.3992919921875,789.7435913085938
1455,786.5201416015625,790.952392578125,795.7875366210938,786.923095703125
1456,787.3259887695312,791.7582397460938,796.5933837890625,781.2820434570312
1457,780.879150390625,789.3406372070312,797.8021850585938,777.2527465820312
1458,784.5054931640625,790.5494384765625,796.5933837890625,783.6996459960938
1459,797.3992919921875,792.1611938476562,796.5933837890625,787.7289428710938
1460,794.5787353515625,792.5640869140625,796.996337890625,790.5494384765625
1461,789.3406372070312,792.5640869140625,796.5933837890625,789.7435913085938
1462,787.7289428710938,785.7142944335938,794.5787353515625,782.4908447265625
1463,783.2966918945312,784.5054931640625,790.952392578125,779.6703491210938
1464,787.7289428710938,788.5347900390625,791.3552856445312,778.8644409179688
1465,791.3552856445312,786.1171875,799.010986328125,783.2966918945312
1466,785.7142944335938,782.893798828125,797.8021850585938,784.908447265625
1467,781.2820434570312,784.1025390625,794.1758422851562,787.3259887695312
1468,790.1465454101562,786.1171875,794.981689453125,788.1318969726562
1469,794.5787353515625,788.1318969726562,790.952392578125,788.1318969726562
1470,790.952392578125,790.1465454101562,790.5494384765625,785.7142944335938
1471,792.1611938476562,790.5494384765625,789.7435913085938,786.5201416015625
1472,792.5640869140625,798.6080322265625,788.937744140625,790.952392578125
1473,795.7875366210938,801.4285888671875,790.5494384765625,788.5347900390625
1474,800.2197875976562,795.3846435546875,788.937744140625,784.908447265625
1475,800.6226806640625,794.1758422851562,792.1611938476562,784.908447265625
1476,806.6666870117188,798.6080322265625,793.7728881835938,784.5054931640625
1477,802.6373901367188,800.6226806640625,794.981689453125,785.3113403320312
1478,794.5787353515625,799.8168334960938,798.6080322265625,788.1318969726562
1479,796.5933837890625,805.054931640625,799.4139404296875,789.3406372070312
1480,800.6226806640625,803.8461303710938,796.1904907226562,791.7582397460938
1481,802.2344360351562,797.3992919921875,796.1904907226562,790.5494384765625
1482,797.8021850585938,792.1611938476562,794.5787353515625,790.952392578125
1483,797.8021850585938,791.7582397460938,792.967041015625,792.967041015625
1484,797.8021850585938,793.3699340820312,794.981689453125,792.1611938476562
1485,800.6226806640625,795.3846435546875,794.981689453125,796.996337890625
1486,799.8168334960938,799.010986328125,792.5640869140625,802.6373901367188
1487,794.981689453125,800.2197875976562,789.3406372070312,800.6226806640625
1488,799.010986328125,802.6373901367188,791.3552856445312,799.010986328125
1489,802.2344360351562,801.025634765625,789.3406372070312,796.5933837890625
1490,805.4578857421875,796.5933837890625,790.5494384765625,799.4139404296875
1491,798.2051391601562,792.967041015625,792.967041015625,799.010986328125
1492,792.967041015625,790.5494384765625,792.1611938476562,791.3552856445312
1493,799.010986328125,789.3406372070312,794.1758422851562,791.3552856445312
1494,794.5787353515625,788.5347900390625,793.7728881835938,792.1611938476562
1495,790.1465454101562,787.3259887695312,792.5640869140625,793.7728881835938
1496,788.5347900390625,785.7142944335938,794.5787353515625,793.7728881835938
1497,790.952392578125,784.1025390625,796.996337890625,790.1465454101562
1498,792.5640869140625,786.5201416015625,796.996337890625,792.967041015625
1499,795.3846435546875,792.1611938476562,791.7582397460938,792.967041015625
1500,793.7728881835938,790.952392578125,788.1318969726562,782.087890625
1501,788.5347900390625,792.1611938476562,792.5640869140625,780.4761962890625
1502,782.893798828125,789.3406372070312,789.3406372070312,785.7142944335938
1503,778.8644409179688,785.3113403320312,787.7289428710938,780.4761962890625
1504,790.952392578125,794.5787353515625,791.3552856445312,778.8644409179688
1505,797.3992919921875,796.5933837890625,789.3406372070312,780.879150390625
1506,794.981689453125,790.952392578125,786.5201416015625,777.2527465820312
1507,790.1465454101562,792.1611938476562,784.908447265625,777.6557006835938
1508,781.2820434570312,795.3846435546875,786.5201416015625,784.1025390625
1509,785.7142944335938,792.1611938476562,786.5201416015625,786.923095703125
1510,795.7875366210938,792.5640869140625,792.5640869140625,794.1758422851562
1511,796.5933837890625,798.6080322265625,793.3699340820312,791.7582397460938
1512,799.4139404296875,799.8168334960938,790.952392578125,789.7435913085938
1513,800.6226806640625,798.2051391601562,796.996337890625,796.1904907226562
1514,796.1904907226562,796.5933837890625,797.8021850585938,798.6080322265625
1515,799.010986328125,796.996337890625,791.3552856445312,802.2344360351562
1516,806.6666870117188,798.2051391601562,790.5494384765625,802.2344360351562
1517,803.8461303710938,796.996337890625,796.1904907226562,800.6226806640625
1518,799.4139404296875,793.7728881835938,797.3992919921875,796.5933837890625
1519,793.7728881835938,794.981689453125,792.1611938476562,792.1611938476562
1520,794.5787353515625,796.5933837890625,788.5347900390625,793.7728881835938
1521,798.6080322265625,795.7875366210938,788.937744140625,795.3846435546875
1522,796.996337890625,795.7875366210938,794.1758422851562,792.967041015625
1523,790.5494384765625,797.8021850585938,796.1904907226562,788.1318969726562
1524,790.5494384765625,796.996337890625,794.1758422851562,790.952392578125
1525,795.3846435546875,798.6080322265625,799.4139404296875,790.952392578125
1526,799.8168334960938,804.6520385742188,799.010986328125,788.937744140625
1527,805.8607788085938,803.4432373046875,798.2051391601562,792.5640869140625
1528,798.6080322265625,798.6080322265625,801.4285888671875,792.967041015625
1529,788.5347900390625,800.2197875976562,797.8021850585938,792.967041015625
1530,781.2820434570312,798.2051391601562,794.5787353515625,790.1465454101562
1531,778.05859375,791.3552856445312,794.5787353515625,784.1025390625
1532,776.4468994140625,787.3259887695312,797.8021850585938,785.7142944335938
1533,772.8204956054688,784.908447265625,797.8021850585938,790.1465454101562
1534,776.4468994140625,786.5201416015625,796.996337890625,789.7435913085938
1535,782.893798828125,790.1465454101562,797.8021850585938,787.7289428710938
1536,790.952392578125,792.5640869140625,797.3992919921875,788.937744140625
1537,786.5201416015625,791.3552856445312,799.4139404296875,788.937744140625
1538,777.6557006835938,794.1758422851562,800.6226806640625,789.3406372070312
1539,781.2820434570312,799.010986328125,803.8461303710938,797.3992919921875
1540,782.4908447265625,792.1611938476562,802.6373901367188,796.5933837890625
1541,785.7142944335938,787.7289428710938,797.8021850585938,792.1611938476562
1542,784.5054931640625,785.7142944335938,795.3846435546875,786.1171875
1543,776.8497924804688,784.5054931640625,798.2051391601562,783.2966918945312
1544,779.2673950195312,789.7435913085938,797.8021850585938,784.1025390625
1545,790.1465454101562,789.7435913085938,794.5787353515625,781.6849975585938
1546,791.3552856445312,788.937744140625,792.1611938476562,782.4908447265625
1547,793.3699340820312,794.5787353515625,790.1465454101562,784.908447265625
1548,791.3552856445312,796.1904907226562,794.981689453125,786.5201416015625
1549,782.893798828125,792.1611938476562,798.6080322265625,785.7142944335938
1550,793.3699340820312,794.1758422851562,800.2197875976562,792.5640869140625
1551,798.2051391601562,801.025634765625,797.3992919921875,795.3846435546875
1552,791.7582397460938,794.981689453125,796.1904907226562,792.1611938476562
1553,790.1465454101562,786.1171875,796.996337890625,789.3406372070312
1554,789.7435913085938,792.5640869140625,801.4285888671875,788.937744140625
1555,788.5347900390625,795.7875366210938,802.6373901367188,788.937744140625
1556,786.5201416015625,791.3552856445312,799.4139404296875,790.952392578125
1557,787.7289428710938,788.937744140625,802.2344360351562,788.937744140625
1558,784.908447265625,788.1318969726562,801.8314819335938,783.6996459960938
1559,787.7289428710938,790.5494384765625,802.6373901367188,788.1318969726562
1560,784.1025390625,793.3699340820312,801.4285888671875,787.3259887695312
1561,784.1025390625,793.3699340820312,800.2197875976562,784.5054931640625
1562,789.3406372070312,792.1611938476562,804.2490844726562,794.5787353515625
1563,778.4615478515625,790.952392578125,801.025634765625,793.3699340820312
1564,779.2673950195312,788.1318969726562,799.4139404296875,787.7289428710938
1565,787.7289428710938,787.7289428710938,802.2344360351562,791.3552856445312
1566,786.5201416015625,789.3406372070312,803.040283203125,786.1171875
1567,788.5347900390625,789.3406372070312,802.2344360351562,787.3259887695312
1568,790.5494384765625,784.908447265625,796.1904907226562,788.937744140625
1569,786.5201416015625,784.908447265625,795.7875366210938,778.8644409179688
1570,796.5933837890625,796.1904907226562,801.8314819335938,788.937744140625
1571,798.2051391601562,797.8021850585938,799.4139404296875,793.3699340820312
1572,795.7875366210938,793.7728881835938,802.6373901367188,794.5787353515625
1573,797.3992919921875,796.5933837890625,806.6666870117188,794.5787353515625
1574,796.1904907226562,801.8314819335938,807.069580078125,794.5787353515625
1575,793.3699340820312,801.025634765625,802.2344360351562,796.996337890625
1576,793.7728881835938,799.4139404296875,794.981689453125,790.5494384765625
1577,799.8168334960938,796.1904907226562,792.967041015625,792.5640869140625
1578,796.996337890625,788.5347900390625,789.3406372070312,793.3699340820312
1579,788.5347900390625,790.952392578125,785.7142944335938,790.952392578125
1580,787.7289428710938,798.6080322265625,786.5201416015625,786.5201416015625
1581,790.5494384765625,798.6080322265625,790.5494384765625,784.5054931640625
1582,794.5787353515625,794.1758422851562,787.7289428710938,790.5494384765625
1583,790.952392578125,792.5640869140625,790.5494384765625,792.5640869140625
