timestamp,RAW_TP9,RAW_AF7,RAW_AF8,RAW_TP10
1,792.967041015625,796.5933837890625,793.3699340820312,801.4285888671875
2,791.3552856445312,791.7582397460938,792.5640869140625,798.6080322265625
3,788.937744140625,793.3699340820312,789.3406372070312,791.3552856445312
4,789.3406372070312,798.6080322265625,787.3259887695312,793.3699340820312
5,792.967041015625,792.5640869140625,790.1465454101562,797.8021850585938
6,793.7728881835938,787.7289428710938,795.7875366210938,794.1758422851562
7,796.1904907226562,788.937744140625,792.1611938476562,798.2051391601562
8,794.981689453125,788.1318969726562,788.937744140625,805.4578857421875
9,794.5787353515625,787.7289428710938,794.981689453125,803.8461303710938
10,793.3699340820312,789.3406372070312,796.996337890625,799.8168334960938
11,788.937744140625,790.1465454101562,791.7582397460938,792.967041015625
12,789.3406372070312,790.1465454101562,789.7435913085938,787.7289428710938
13,793.3699340820312,790.5494384765625,793.3699340820312,783.2966918945312
14,794.981689453125,791.3552856445312,792.967041015625,787.7289428710938
15,794.981689453125,793.7728881835938,790.1465454101562,794.981689453125
16,799.8168334960938,787.3259887695312,793.3699340820312,799.010986328125
17,801.025634765625,788.1318969726562,795.7875366210938,799.8168334960938
18,790.952392578125,791.3552856445312,796.5933837890625,791.3552856445312
19,787.3259887695312,789.3406372070312,795.3846435546875,785.7142944335938
20,794.1758422851562,790.5494384765625,795.7875366210938,796.1904907226562
21,794.981689453125,794.1758422851562,797.3992919921875,798.2051391601562
22,793.3699340820312,795.7875366210938,796.5933837890625,795.3846435546875
23,792.5640869140625,795.3846435546875,799.8168334960938,796.1904907226562
24,793.3699340820312,791.3552856445312,801.8314819335938,795.3846435546875
25,789.3406372070312,787.3259887695312,801.8314819335938,792.967041015625
26,788.937744140625,787.3259887695312,802.2344360351562,789.7435913085938
27,785.7142944335938,789.7435913085938,800.2197875976562,793.3699340820312
28,784.1025390625,791.7582397460938,796.996337890625,799.010986328125
29,786.923095703125,788.5347900390625,799.8168334960938,796.5933837890625
30,794.1758422851562,782.893798828125,799.8168334960938,791.7582397460938
31,799.4139404296875,791.3552856445312,801.8314819335938,794.1758422851562
32,789.3406372070312,794.5787353515625,796.5933837890625,804.2490844726562
33,787.3259887695312,793.3699340820312,794.981689453125,799.4139404296875
34,792.1611938476562,796.996337890625,800.6226806640625,791.7582397460938
35,787.7289428710938,801.025634765625,796.1904907226562,793.7728881835938
36,787.3259887695312,801.025634765625,794.1758422851562,796.996337890625
37,790.5494384765625,799.4139404296875,795.3846435546875,797.3992919921875
38,781.6849975585938,799.8168334960938,793.3699340820312,791.7582397460938
39,775.2380981445312,796.996337890625,792.5640869140625,788.5347900390625
40,782.4908447265625,795.7875366210938,794.5787353515625,793.3699340820312
41,786.1171875,792.1611938476562,793.7728881835938,795.7875366210938
42,786.5201416015625,792.967041015625,790.5494384765625,792.967041015625
43,786.5201416015625,796.996337890625,789.3406372070312,796.5933837890625
44,791.3552856445312,797.8021850585938,796.996337890625,804.2490844726562
45,789.7435913085938,802.2344360351562,801.025634765625,798.6080322265625
46,784.5054931640625,795.3846435546875,793.7728881835938,797.3992919921875
47,782.893798828125,786.923095703125,794.1758422851562,791.3552856445312
48,782.087890625,791.7582397460938,791.7582397460938,779.2673950195312
49,782.893798828125,793.7728881835938,783.2966918945312,782.087890625
50,785.3113403320312,796.1904907226562,791.3552856445312,788.937744140625
51,790.5494384765625,796.1904907226562,793.7728881835938,790.1465454101562
52,793.7728881835938,795.7875366210938,786.5201416015625,789.7435913085938
53,790.5494384765625,792.1611938476562,791.3552856445312,784.1025390625
54,793.3699340820312,790.5494384765625,788.5347900390625,780.0732421875
55,801.025634765625,797.3992919921875,785.3113403320312,790.952392578125
56,794.5787353515625,796.5933837890625,794.1758422851562,795.3846435546875
57,791.7582397460938,794.5787353515625,795.3846435546875,790.5494384765625
58,796.996337890625,797.8021850585938,793.3699340820312,796.5933837890625
59,794.981689453125,800.2197875976562,792.967041015625,800.2197875976562
60,787.3259887695312,803.4432373046875,793.3699340820312,797.3992919921875
61,784.1025390625,803.4432373046875,794.1758422851562,800.2197875976562
62,787.7289428710938,800.6226806640625,792.967041015625,799.4139404296875
63,786.5201416015625,796.1904907226562,792.967041015625,794.981689453125
64,790.952392578125,790.1465454101562,792.5640869140625,803.4432373046875
65,790.5494384765625,786.1171875,793.3699340820312,804.2490844726562
66,781.2820434570312,783.2966918945312,794.981689453125,794.981689453125
67,777.2527465820312,789.7435913085938,794.981689453125,794.1758422851562
68,776.8497924804688,796.5933837890625,794.5787353515625,788.1318969726562
69,777.6557006835938,795.7875366210938,792.967041015625,782.4908447265625
70,776.4468994140625,794.5787353515625,793.3699340820312,786.5201416015625
71,782.4908447265625,795.7875366210938,787.3259887695312,788.937744140625
72,786.5201416015625,795.3846435546875,785.7142944335938,786.1171875
73,782.087890625,794.1758422851562,790.5494384765625,784.1025390625
74,789.3406372070312,790.952392578125,790.1465454101562,785.3113403320312
75,793.7728881835938,792.967041015625,793.7728881835938,789.3406372070312
76,789.3406372070312,792.967041015625,790.952392578125,791.7582397460938
77,788.1318969726562,792.5640869140625,788.5347900390625,794.981689453125
78,786.1171875,784.5054931640625,789.7435913085938,802.2344360351562
79,779.6703491210938,780.0732421875,789.3406372070312,802.2344360351562
80,774.8351440429688,788.1318969726562,790.5494384765625,792.5640869140625
81,781.2820434570312,794.5787353515625,790.5494384765625,785.7142944335938
82,790.1465454101562,798.2051391601562,788.937744140625,788.1318969726562
83,788.1318969726562,795.7875366210938,790.1465454101562,792.1611938476562
84,786.1171875,791.7582397460938,788.1318969726562,789.3406372070312
85,785.7142944335938,790.1465454101562,786.1171875,791.3552856445312
86,784.908447265625,786.1171875,787.3259887695312,789.7435913085938
87,786.1171875,791.3552856445312,792.5640869140625,790.1465454101562
88,786.5201416015625,798.6080322265625,794.1758422851562,792.967041015625
89,786.1171875,794.5787353515625,792.967041015625,799.4139404296875
90,788.5347900390625,790.952392578125,794.1758422851562,797.8021850585938
91,786.1171875,791.7582397460938,796.996337890625,784.5054931640625
92,786.923095703125,791.3552856445312,798.2051391601562,787.7289428710938
93,794.981689453125,795.7875366210938,796.996337890625,797.3992919921875
94,791.7582397460938,801.8314819335938,797.3992919921875,792.1611938476562
95,784.908447265625,799.010986328125,798.2051391601562,783.6996459960938
96,787.3259887695312,798.6080322265625,794.1758422851562,785.7142944335938
97,798.2051391601562,801.8314819335938,790.952392578125,792.5640869140625
98,802.6373901367188,800.2197875976562,794.5787353515625,793.3699340820312
99,797.8021850585938,796.5933837890625,796.5933837890625,788.1318969726562
100,797.3992919921875,794.5787353515625,799.010986328125,787.7289428710938
101,802.2344360351562,796.996337890625,798.2051391601562,797.3992919921875
102,796.5933837890625,799.8168334960938,796.996337890625,802.6373901367188
103,792.967041015625,798.6080322265625,796.996337890625,795.3846435546875
104,789.7435913085938,792.1611938476562,795.7875366210938,786.923095703125
105,792.1611938476562,789.7435913085938,795.7875366210938,788.937744140625
106,794.5787353515625,790.5494384765625,792.5640869140625,785.7142944335938
107,796.5933837890625,791.3552856445312,796.1904907226562,794.5787353515625
108,799.8168334960938,792.967041015625,796.996337890625,803.4432373046875
109,796.5933837890625,796.1904907226562,790.5494384765625,799.8168334960938
110,798.6080322265625,797.3992919921875,791.3552856445312,796.5933837890625
111,796.1904907226562,789.3406372070312,796.996337890625,798.2051391601562
112,793.7728881835938,790.5494384765625,796.996337890625,805.054931640625
113,793.7728881835938,797.3992919921875,791.7582397460938,802.2344360351562
114,788.5347900390625,793.7728881835938,791.3552856445312,792.967041015625
115,787.7289428710938,792.5640869140625,793.7728881835938,788.5347900390625
116,794.5787353515625,790.952392578125,789.3406372070312,795.7875366210938
117,796.996337890625,786.5201416015625,783.2966918945312,796.1904907226562
118,795.3846435546875,784.1025390625,785.3113403320312,788.937744140625
119,800.6226806640625,785.7142944335938,790.5494384765625,798.2051391601562
120,799.8168334960938,795.3846435546875,793.3699340820312,802.2344360351562
121,796.5933837890625,794.981689453125,790.952392578125,799.8168334960938
122,801.4285888671875,789.3406372070312,790.952392578125,796.1904907226562
123,797.8021850585938,788.1318969726562,791.7582397460938,792.967041015625
124,792.5640869140625,792.1611938476562,791.3552856445312,790.1465454101562
125,787.7289428710938,793.7728881835938,790.5494384765625,781.2820434570312
126,786.5201416015625,794.1758422851562,788.937744140625,780.879150390625
127,788.5347900390625,796.5933837890625,792.967041015625,790.5494384765625
128,791.3552856445312,790.1465454101562,791.3552856445312,801.4285888671875
129,791.3552856445312,790.5494384765625,792.5640869140625,801.8314819335938
130,787.3259887695312,797.3992919921875,796.5933837890625,798.2051391601562
131,792.967041015625,794.5787353515625,792.967041015625,799.010986328125
132,795.7875366210938,790.1465454101562,791.7582397460938,797.3992919921875
133,794.5787353515625,792.5640869140625,793.3699340820312,799.4139404296875
134,795.3846435546875,789.7435913085938,792.1611938476562,799.010986328125
135,792.1611938476562,790.1465454101562,792.967041015625,796.5933837890625
136,783.2966918945312,793.7728881835938,792.967041015625,797.3992919921875
137,780.4761962890625,790.5494384765625,792.967041015625,794.1758422851562
138,783.2966918945312,788.937744140625,794.981689453125,792.967041015625
139,785.7142944335938,787.7289428710938,792.1611938476562,792.967041015625
140,790.1465454101562,793.3699340820312,797.3992919921875,795.3846435546875
141,786.923095703125,795.7875366210938,799.8168334960938,792.967041015625
142,782.4908447265625,789.3406372070312,800.2197875976562,790.1465454101562
143,790.1465454101562,788.937744140625,799.010986328125,800.6226806640625
144,800.2197875976562,790.1465454101562,796.996337890625,804.2490844726562
145,796.996337890625,790.1465454101562,798.2051391601562,792.5640869140625
146,786.5201416015625,790.5494384765625,796.996337890625,784.1025390625
147,782.087890625,790.1465454101562,794.5787353515625,787.3259887695312
148,781.2820434570312,791.3552856445312,791.7582397460938,794.1758422851562
149,783.2966918945312,791.3552856445312,793.7728881835938,792.967041015625
150,777.2527465820312,792.5640869140625,791.7582397460938,785.3113403320312
151,780.0732421875,796.1904907226562,789.3406372070312,788.1318969726562
152,783.2966918945312,796.5933837890625,793.3699340820312,786.5201416015625
153,779.6703491210938,792.967041015625,794.981689453125,783.2966918945312
154,783.6996459960938,791.7582397460938,793.3699340820312,791.7582397460938
155,788.1318969726562,794.1758422851562,796.996337890625,795.7875366210938
156,794.981689453125,788.1318969726562,796.5933837890625,799.010986328125
157,794.981689453125,788.1318969726562,792.5640869140625,796.996337890625
158,795.3846435546875,796.996337890625,791.7582397460938,796.5933837890625
159,797.3992919921875,793.3699340820312,793.7728881835938,794.5787353515625
160,788.1318969726562,787.7289428710938,792.967041015625,786.5201416015625
161,781.2820434570312,790.952392578125,788.937744140625,784.908447265625
162,781.6849975585938,792.1611938476562,789.3406372070312,786.1171875
163,779.6703491210938,792.1611938476562,792.967041015625,791.7582397460938
164,779.6703491210938,796.996337890625,793.3699340820312,791.3552856445312
165,782.087890625,794.981689453125,790.952392578125,786.1171875
166,783.6996459960938,788.5347900390625,788.5347900390625,786.5201416015625
167,787.7289428710938,789.7435913085938,790.1465454101562,787.3259887695312
168,790.952392578125,792.1611938476562,794.5787353515625,786.5201416015625
169,790.5494384765625,792.1611938476562,793.3699340820312,790.952392578125
170,791.7582397460938,792.1611938476562,790.952392578125,792.1611938476562
171,788.5347900390625,791.3552856445312,792.967041015625,786.5201416015625
172,790.952392578125,786.1171875,794.5787353515625,788.5347900390625
173,795.3846435546875,789.7435913085938,793.7728881835938,793.7728881835938
174,795.7875366210938,792.1611938476562,792.967041015625,798.2051391601562
175,795.7875366210938,790.1465454101562,791.7582397460938,794.5787353515625
176,796.5933837890625,789.3406372070312,788.5347900390625,785.3113403320312
177,799.4139404296875,793.7728881835938,788.937744140625,782.4908447265625
178,794.981689453125,793.7728881835938,791.3552856445312,784.5054931640625
179,792.967041015625,791.3552856445312,790.1465454101562,786.1171875
180,795.3846435546875,792.5640869140625,792.1611938476562,789.7435913085938
181,792.967041015625,795.3846435546875,792.967041015625,789.3406372070312
182,790.952392578125,799.4139404296875,791.3552856445312,787.3259887695312
183,792.5640869140625,803.4432373046875,795.3846435546875,787.7289428710938
184,793.3699340820312,802.6373901367188,794.1758422851562,784.908447265625
185,792.967041015625,794.1758422851562,790.1465454101562,784.5054931640625
186,791.7582397460938,790.1465454101562,792.1611938476562,793.3699340820312
187,785.7142944335938,793.7728881835938,793.7728881835938,786.1171875
188,778.8644409179688,792.1611938476562,792.1611938476562,778.05859375
189,782.893798828125,788.1318969726562,788.1318969726562,782.087890625
190,790.5494384765625,792.967041015625,786.5201416015625,785.3113403320312
191,785.7142944335938,796.996337890625,786.923095703125,785.3113403320312
192,780.879150390625,792.1611938476562,785.7142944335938,786.923095703125
193,783.2966918945312,792.1611938476562,786.1171875,789.7435913085938
194,787.3259887695312,791.7582397460938,790.952392578125,792.5640869140625
195,794.5787353515625,789.3406372070312,791.7582397460938,792.967041015625
196,796.5933837890625,799.4139404296875,792.1611938476562,793.7728881835938
197,792.967041015625,799.8168334960938,790.1465454101562,797.3992919921875
198,791.3552856445312,794.981689453125,791.7582397460938,793.3699340820312
199,794.5787353515625,792.967041015625,797.8021850585938,793.7728881835938
200,793.3699340820312,789.3406372070312,791.7582397460938,796.1904907226562
201,788.937744140625,792.5640869140625,788.5347900390625,798.2051391601562
202,788.5347900390625,791.3552856445312,793.7728881835938,795.3846435546875
203,790.5494384765625,788.937744140625,797.8021850585938,799.010986328125
204,788.1318969726562,790.1465454101562,796.996337890625,805.8607788085938
205,793.3699340820312,789.3406372070312,788.937744140625,806.6666870117188
206,794.981689453125,786.5201416015625,790.1465454101562,801.8314819335938
207,789.3406372070312,789.3406372070312,790.952392578125,796.5933837890625
208,790.5494384765625,796.996337890625,792.967041015625,797.3992919921875
209,786.1171875,795.7875366210938,795.3846435546875,798.2051391601562
210,786.5201416015625,797.3992919921875,794.1758422851562,798.2051391601562
211,790.1465454101562,797.3992919921875,799.010986328125,798.6080322265625
212,793.3699340820312,789.7435913085938,801.4285888671875,799.8168334960938
213,792.5640869140625,789.7435913085938,799.4139404296875,803.040283203125
214,788.937744140625,794.5787353515625,799.4139404296875,799.4139404296875
215,792.5640869140625,792.967041015625,796.5933837890625,796.1904907226562
216,791.7582397460938,789.3406372070312,793.3699340820312,798.2051391601562
217,788.1318969726562,786.1171875,795.7875366210938,796.1904907226562
218,786.1171875,784.5054931640625,794.981689453125,791.3552856445312
219,789.3406372070312,788.937744140625,793.7728881835938,797.8021850585938
220,798.2051391601562,800.6226806640625,799.010986328125,803.4432373046875
221,796.996337890625,802.2344360351562,798.6080322265625,794.5787353515625
222,794.5787353515625,794.1758422851562,800.6226806640625,791.3552856445312
223,796.1904907226562,790.1465454101562,796.996337890625,796.5933837890625
224,795.3846435546875,795.7875366210938,793.3699340820312,798.2051391601562
225,796.1904907226562,795.7875366210938,797.3992919921875,796.1904907226562
226,800.2197875976562,792.967041015625,796.996337890625,790.952392578125
227,800.2197875976562,790.952392578125,798.6080322265625,786.923095703125
228,792.5640869140625,788.937744140625,795.7875366210938,786.923095703125
229,788.1318969726562,788.1318969726562,794.1758422851562,782.4908447265625
230,797.3992919921875,789.7435913085938,801.8314819335938,796.996337890625
231,807.87548828125,796.996337890625,801.8314819335938,817.1428833007812
232,802.2344360351562,799.010986328125,796.996337890625,798.6080322265625
233,794.1758422851562,799.8168334960938,792.967041015625,780.4761962890625
234,788.1318969726562,798.6080322265625,794.1758422851562,787.7289428710938
235,786.5201416015625,796.5933837890625,796.5933837890625,792.967041015625
236,788.1318969726562,796.1904907226562,794.1758422851562,790.952392578125
237,787.7289428710938,790.1465454101562,790.1465454101562,787.3259887695312
238,787.7289428710938,786.923095703125,792.1611938476562,791.3552856445312
239,792.967041015625,793.7728881835938,798.6080322265625,796.996337890625
240,796.5933837890625,801.4285888671875,801.025634765625,799.4139404296875
241,792.1611938476562,799.4139404296875,799.8168334960938,799.4139404296875
242,787.7289428710938,791.3552856445312,796.1904907226562,792.967041015625
243,786.1171875,788.1318969726562,792.967041015625,791.7582397460938
244,781.2820434570312,788.1318969726562,792.967041015625,792.5640869140625
245,782.4908447265625,790.1465454101562,793.7728881835938,789.7435913085938
246,785.7142944335938,790.5494384765625,788.5347900390625,785.7142944335938
247,785.3113403320312,786.923095703125,789.7435913085938,790.952392578125
248,788.1318969726562,788.1318969726562,796.996337890625,788.5347900390625
249,785.7142944335938,794.981689453125,798.2051391601562,783.2966918945312
250,783.2966918945312,796.1904907226562,795.7875366210938,790.1465454101562
251,791.3552856445312,788.1318969726562,798.2051391601562,797.3992919921875
252,792.1611938476562,787.7289428710938,799.4139404296875,798.6080322265625
253,786.5201416015625,794.981689453125,795.3846435546875,793.7728881835938
254,784.5054931640625,789.7435913085938,793.3699340820312,793.3699340820312
255,782.893798828125,789.7435913085938,792.5640869140625,798.6080322265625
256,785.3113403320312,793.7728881835938,796.1904907226562,799.4139404296875
257,787.7289428710938,790.952392578125,800.6226806640625,799.010986328125
258,782.893798828125,783.2966918945312,796.5933837890625,803.4432373046875
259,782.4908447265625,787.3259887695312,790.1465454101562,802.2344360351562
260,786.923095703125,794.1758422851562,789.3406372070312,785.3113403320312
261,790.1465454101562,791.3552856445312,793.3699340820312,784.908447265625
262,784.1025390625,789.7435913085938,792.967041015625,787.7289428710938
263,784.5054931640625,792.967041015625,788.937744140625,781.2820434570312
264,792.967041015625,799.4139404296875,790.5494384765625,779.2673950195312
265,789.7435913085938,799.010986328125,791.7582397460938,783.2966918945312
266,788.937744140625,790.5494384765625,790.952392578125,790.5494384765625
267,788.5347900390625,788.5347900390625,788.937744140625,792.5640869140625
268,782.893798828125,787.3259887695312,789.3406372070312,792.967041015625
269,783.6996459960938,788.1318969726562,792.1611938476562,796.1904907226562
270,787.3259887695312,791.3552856445312,792.5640869140625,804.2490844726562
271,785.7142944335938,792.967041015625,794.1758422851562,799.010986328125
272,781.6849975585938,795.7875366210938,796.996337890625,788.937744140625
273,782.087890625,790.5494384765625,796.1904907226562,788.1318969726562
274,783.6996459960938,792.5640869140625,793.7728881835938,785.7142944335938
275,784.908447265625,798.6080322265625,792.1611938476562,788.5347900390625
276,788.1318969726562,794.5787353515625,794.981689453125,792.967041015625
277,789.3406372070312,791.3552856445312,799.4139404296875,794.981689453125
278,787.7289428710938,798.6080322265625,799.8168334960938,796.5933837890625
279,783.2966918945312,798.2051391601562,797.3992919921875,795.3846435546875
280,786.5201416015625,788.1318969726562,795.7875366210938,798.2051391601562
281,790.1465454101562,788.5347900390625,794.1758422851562,801.8314819335938
282,788.1318969726562,792.967041015625,794.981689453125,796.5933837890625
283,786.923095703125,794.1758422851562,796.996337890625,788.5347900390625
284,780.879150390625,796.5933837890625,797.3992919921875,786.923095703125
285,783.2966918945312,797.8021850585938,794.1758422851562,789.3406372070312
286,785.3113403320312,796.996337890625,792.967041015625,783.2966918945312
287,781.2820434570312,799.010986328125,792.1611938476562,779.6703491210938
288,784.5054931640625,800.6226806640625,793.7728881835938,784.908447265625
289,787.3259887695312,796.1904907226562,796.996337890625,786.923095703125
290,789.3406372070312,795.7875366210938,793.7728881835938,790.1465454101562
291,792.1611938476562,795.3846435546875,791.7582397460938,787.3259887695312
292,793.7728881835938,794.5787353515625,797.3992919921875,788.937744140625
293,794.981689453125,790.5494384765625,799.4139404296875,797.3992919921875
294,786.1171875,786.5201416015625,801.025634765625,793.3699340820312
295,778.4615478515625,790.1465454101562,798.6080322265625,788.937744140625
296,784.5054931640625,794.981689453125,792.1611938476562,787.7289428710938
297,786.1171875,793.7728881835938,793.7728881835938,784.908447265625
298,786.5201416015625,796.5933837890625,796.996337890625,789.3406372070312
299,790.5494384765625,799.8168334960938,796.5933837890625,790.952392578125
300,788.937744140625,797.8021850585938,791.7582397460938,783.6996459960938
301,789.7435913085938,795.3846435546875,785.7142944335938,784.5054931640625
302,795.3846435546875,792.5640869140625,788.1318969726562,784.1025390625
303,799.010986328125,788.937744140625,792.1611938476562,785.7142944335938
304,797.3992919921875,786.1171875,789.3406372070312,788.5347900390625
305,794.1758422851562,791.3552856445312,790.5494384765625,788.1318969726562
306,796.5933837890625,797.8021850585938,795.7875366210938,790.5494384765625
307,793.3699340820312,799.010986328125,797.3992919921875,793.3699340820312
308,789.3406372070312,800.6226806640625,795.3846435546875,796.996337890625
309,791.7582397460938,797.3992919921875,793.7728881835938,798.2051391601562
310,788.1318969726562,796.5933837890625,792.1611938476562,792.5640869140625
311,784.1025390625,794.5787353515625,791.3552856445312,789.7435913085938
312,785.3113403320312,793.3699340820312,791.3552856445312,790.1465454101562
313,787.7289428710938,797.8021850585938,791.3552856445312,781.2820434570312
314,792.5640869140625,795.7875366210938,792.5640869140625,776.8497924804688
315,791.7582397460938,792.1611938476562,789.7435913085938,780.879150390625
316,785.7142944335938,793.3699340820312,786.923095703125,781.2820434570312
317,787.3259887695312,797.3992919921875,791.3552856445312,784.908447265625
318,788.1318969726562,790.952392578125,791.7582397460938,782.087890625
319,790.1465454101562,792.5640869140625,786.5201416015625,781.6849975585938
320,792.1611938476562,798.2051391601562,786.1171875,794.5787353515625
321,785.3113403320312,790.1465454101562,789.3406372070312,793.3699340820312
322,784.908447265625,788.937744140625,789.7435913085938,788.937744140625
323,784.1025390625,792.1611938476562,788.1318969726562,792.1611938476562
324,785.7142944335938,795.3846435546875,789.7435913085938,794.1758422851562
325,794.981689453125,797.3992919921875,788.1318969726562,794.5787353515625
326,797.8021850585938,794.1758422851562,786.923095703125,799.4139404296875
327,792.5640869140625,788.937744140625,784.908447265625,800.6226806640625
328,785.3113403320312,788.5347900390625,784.5054931640625,796.5933837890625
329,780.0732421875,791.3552856445312,788.937744140625,788.1318969726562
330,785.3113403320312,793.7728881835938,790.952392578125,788.1318969726562
331,784.908447265625,791.7582397460938,790.952392578125,796.5933837890625
332,780.4761962890625,792.5640869140625,789.7435913085938,805.4578857421875
333,786.923095703125,795.7875366210938,790.5494384765625,801.025634765625
334,790.1465454101562,792.1611938476562,794.5787353515625,800.6226806640625
335,782.087890625,790.5494384765625,795.7875366210938,807.87548828125
336,782.087890625,798.2051391601562,793.3699340820312,804.2490844726562
337,785.3113403320312,798.6080322265625,789.7435913085938,797.3992919921875
338,782.893798828125,794.1758422851562,790.1465454101562,798.2051391601562
339,782.893798828125,797.3992919921875,789.3406372070312,800.6226806640625
340,781.6849975585938,794.981689453125,792.5640869140625,795.3846435546875
341,783.6996459960938,794.1758422851562,799.010986328125,796.1904907226562
342,786.1171875,794.5787353515625,797.8021850585938,799.8168334960938
343,786.5201416015625,796.5933837890625,796.5933837890625,796.5933837890625
344,787.7289428710938,798.2051391601562,798.2051391601562,791.7582397460938
345,789.7435913085938,794.981689453125,796.1904907226562,789.3406372070312
346,791.3552856445312,795.7875366210938,794.5787353515625,796.1904907226562
347,792.967041015625,797.3992919921875,800.6226806640625,802.2344360351562
348,792.5640869140625,792.967041015625,801.4285888671875,801.8314819335938
349,794.1758422851562,792.5640869140625,799.4139404296875,796.1904907226562
350,794.5787353515625,794.981689453125,796.996337890625,794.981689453125
351,796.1904907226562,795.3846435546875,789.7435913085938,800.6226806640625
352,795.7875366210938,797.3992919921875,797.3992919921875,794.5787353515625
353,789.7435913085938,798.6080322265625,803.4432373046875,792.967041015625
354,789.3406372070312,797.3992919921875,803.040283203125,801.025634765625
355,790.1465454101562,791.3552856445312,805.054931640625,811.098876953125
356,787.3259887695312,794.1758422851562,802.6373901367188,803.4432373046875
357,787.3259887695312,797.3992919921875,800.2197875976562,792.967041015625
358,790.952392578125,796.1904907226562,800.2197875976562,794.981689453125
359,793.3699340820312,790.5494384765625,805.8607788085938,792.967041015625
360,792.967041015625,786.1171875,806.2637329101562,790.952392578125
361,796.5933837890625,795.3846435546875,801.025634765625,792.1611938476562
362,794.981689453125,794.1758422851562,799.8168334960938,789.3406372070312
363,799.4139404296875,794.5787353515625,799.8168334960938,792.967041015625
364,802.6373901367188,796.1904907226562,798.2051391601562,795.7875366210938
365,792.967041015625,794.1758422851562,797.8021850585938,794.981689453125
366,793.7728881835938,798.2051391601562,799.4139404296875,797.3992919921875
367,798.6080322265625,800.2197875976562,797.8021850585938,801.8314819335938
368,797.8021850585938,790.952392578125,794.5787353515625,802.6373901367188
369,795.3846435546875,790.5494384765625,794.1758422851562,799.010986328125
370,788.937744140625,794.981689453125,791.3552856445312,796.996337890625
371,787.7289428710938,796.996337890625,792.5640869140625,797.3992919921875
372,789.3406372070312,793.7728881835938,795.7875366210938,790.5494384765625
373,792.967041015625,785.7142944335938,795.3846435546875,793.3699340820312
374,801.025634765625,785.7142944335938,790.5494384765625,809.4871826171875
375,793.7728881835938,784.1025390625,790.5494384765625,804.6520385742188
376,792.967041015625,782.4908447265625,788.937744140625,794.981689453125
377,799.010986328125,790.5494384765625,794.5787353515625,799.8168334960938
378,792.1611938476562,796.1904907226562,801.025634765625,805.8607788085938
379,787.3259887695312,800.6226806640625,799.010986328125,803.040283203125
380,783.6996459960938,800.2197875976562,796.5933837890625,798.6080322265625
381,778.8644409179688,791.3552856445312,794.5787353515625,796.1904907226562
382,780.879150390625,783.6996459960938,794.5787353515625,793.7728881835938
383,782.893798828125,786.923095703125,798.6080322265625,790.952392578125
384,782.087890625,786.5201416015625,798.6080322265625,785.3113403320312
385,788.1318969726562,782.893798828125,794.1758422851562,784.908447265625
386,788.1318969726562,782.893798828125,794.1758422851562,785.3113403320312
387,787.3259887695312,787.3259887695312,794.981689453125,788.5347900390625
388,788.5347900390625,788.5347900390625,792.5640869140625,794.981689453125
389,790.952392578125,782.893798828125,792.967041015625,803.8461303710938
390,791.3552856445312,786.923095703125,798.6080322265625,799.8168334960938
391,787.7289428710938,794.1758422851562,796.5933837890625,794.5787353515625
392,784.1025390625,791.3552856445312,790.5494384765625,796.5933837890625
393,783.2966918945312,793.7728881835938,792.5640869140625,795.3846435546875
394,781.6849975585938,793.7728881835938,796.1904907226562,796.1904907226562
395,783.2966918945312,792.5640869140625,791.7582397460938,797.8021850585938
396,784.1025390625,791.3552856445312,794.1758422851562,799.4139404296875
397,778.4615478515625,792.1611938476562,796.996337890625,804.6520385742188
398,781.6849975585938,795.3846435546875,798.6080322265625,808.2783813476562
399,790.5494384765625,799.010986328125,798.2051391601562,804.2490844726562
400,792.1611938476562,796.1904907226562,792.967041015625,796.996337890625
401,791.3552856445312,789.7435913085938,792.1611938476562,797.8021850585938
402,792.967041015625,791.3552856445312,792.967041015625,790.952392578125
403,791.3552856445312,795.7875366210938,787.7289428710938,780.879150390625
404,788.937744140625,796.1904907226562,788.937744140625,778.4615478515625
405,788.5347900390625,796.996337890625,792.5640869140625,783.2966918945312
406,790.952392578125,803.4432373046875,792.5640869140625,788.5347900390625
407,793.7728881835938,802.6373901367188,793.3699340820312,791.3552856445312
408,786.1171875,800.6226806640625,790.952392578125,791.3552856445312
409,785.7142944335938,797.3992919921875,791.7582397460938,795.7875366210938
410,787.7289428710938,788.937744140625,790.5494384765625,792.5640869140625
411,784.908447265625,792.5640869140625,791.3552856445312,788.937744140625
412,785.3113403320312,795.3846435546875,794.5787353515625,794.981689453125
413,786.923095703125,782.893798828125,788.5347900390625,790.5494384765625
414,786.923095703125,788.5347900390625,789.7435913085938,786.923095703125
415,786.923095703125,798.2051391601562,798.2051391601562,787.3259887695312
416,784.1025390625,789.7435913085938,796.5933837890625,788.937744140625
417,780.0732421875,790.952392578125,794.981689453125,790.952392578125
418,777.2527465820312,793.3699340820312,793.7728881835938,789.3406372070312
419,776.4468994140625,793.3699340820312,794.5787353515625,789.7435913085938
420,778.4615478515625,793.3699340820312,795.7875366210938,792.967041015625
421,784.5054931640625,789.3406372070312,796.1904907226562,797.8021850585938
422,786.1171875,790.5494384765625,794.5787353515625,796.1904907226562
423,788.1318969726562,786.923095703125,794.1758422851562,801.025634765625
424,790.1465454101562,779.6703491210938,797.8021850585938,803.040283203125
425,788.937744140625,780.879150390625,795.3846435546875,792.1611938476562
426,793.7728881835938,789.7435913085938,794.5787353515625,788.937744140625
427,799.8168334960938,799.8168334960938,798.2051391601562,793.7728881835938
428,796.996337890625,802.2344360351562,797.3992919921875,799.4139404296875
429,792.1611938476562,801.8314819335938,794.981689453125,791.3552856445312
430,793.3699340820312,801.8314819335938,794.981689453125,792.1611938476562
431,789.7435913085938,800.6226806640625,793.7728881835938,795.3846435546875
432,788.1318969726562,801.025634765625,794.1758422851562,788.937744140625
433,788.937744140625,796.1904907226562,796.1904907226562,790.1465454101562
434,788.5347900390625,794.5787353515625,792.967041015625,792.5640869140625
435,786.923095703125,794.1758422851562,792.967041015625,790.5494384765625
436,784.908447265625,792.967041015625,792.1611938476562,786.1171875
437,788.5347900390625,788.937744140625,791.3552856445312,787.7289428710938
438,784.908447265625,784.5054931640625,793.7728881835938,789.3406372070312
439,784.908447265625,789.7435913085938,793.3699340820312,799.010986328125
440,789.7435913085938,795.7875366210938,794.5787353515625,799.4139404296875
441,784.908447265625,793.7728881835938,791.3552856445312,789.7435913085938
442,787.3259887695312,792.5640869140625,788.937744140625,792.967041015625
443,791.3552856445312,796.996337890625,790.952392578125,796.1904907226562
444,786.923095703125,794.1758422851562,787.7289428710938,792.5640869140625
445,784.1025390625,794.981689453125,788.5347900390625,790.952392578125
446,786.1171875,798.2051391601562,791.7582397460938,792.1611938476562
447,786.5201416015625,797.8021850585938,791.7582397460938,790.5494384765625
448,784.5054931640625,794.5787353515625,789.3406372070312,789.7435913085938
449,787.7289428710938,787.7289428710938,789.3406372070312,789.3406372070312
450,788.5347900390625,789.3406372070312,792.5640869140625,792.5640869140625
451,786.5201416015625,798.2051391601562,789.7435913085938,798.2051391601562
452,787.7289428710938,802.6373901367188,789.7435913085938,796.1904907226562
453,794.981689453125,793.7728881835938,795.7875366210938,796.1904907226562
454,791.7582397460938,788.5347900390625,797.3992919921875,794.1758422851562
455,783.6996459960938,794.5787353515625,798.2051391601562,783.2966918945312
456,786.923095703125,799.010986328125,794.1758422851562,783.6996459960938
457,792.5640869140625,794.981689453125,790.952392578125,790.5494384765625
458,790.5494384765625,788.5347900390625,794.5787353515625,792.967041015625
459,789.3406372070312,788.937744140625,789.3406372070312,788.1318969726562
460,789.3406372070312,792.5640869140625,788.5347900390625,782.4908447265625
461,790.5494384765625,789.3406372070312,795.3846435546875,790.1465454101562
462,794.981689453125,782.087890625,794.981689453125,799.8168334960938
463,795.7875366210938,787.7289428710938,799.4139404296875,798.2051391601562
464,793.7728881835938,801.4285888671875,804.6520385742188,796.1904907226562
465,793.3699340820312,800.2197875976562,801.4285888671875,788.1318969726562
466,795.3846435546875,794.5787353515625,793.7728881835938,785.7142944335938
467,800.2197875976562,796.5933837890625,796.5933837890625,790.5494384765625
468,802.2344360351562,801.4285888671875,803.040283203125,790.952392578125
469,797.3992919921875,793.3699340820312,802.2344360351562,795.3846435546875
470,790.5494384765625,781.2820434570312,796.5933837890625,797.3992919921875
471,783.2966918945312,785.7142944335938,795.7875366210938,792.1611938476562
472,777.6557006835938,788.1318969726562,794.981689453125,792.967041015625
473,779.6703491210938,787.7289428710938,799.010986328125,803.4432373046875
474,780.0732421875,794.981689453125,802.2344360351562,808.6813354492188
475,781.2820434570312,805.4578857421875,796.996337890625,803.040283203125
476,787.7289428710938,804.6520385742188,796.1904907226562,803.040283203125
477,792.1611938476562,795.7875366210938,796.1904907226562,803.4432373046875
478,792.5640869140625,788.5347900390625,795.7875366210938,799.010986328125
479,793.3699340820312,792.5640869140625,794.981689453125,792.967041015625
480,787.7289428710938,793.3699340820312,791.7582397460938,790.952392578125
481,783.2966918945312,789.7435913085938,792.5640869140625,790.952392578125
482,785.3113403320312,792.1611938476562,795.7875366210938,792.5640869140625
483,781.6849975585938,789.3406372070312,799.010986328125,792.5640869140625
484,776.0439453125,788.1318969726562,791.3552856445312,787.3259887695312
485,780.4761962890625,790.5494384765625,787.7289428710938,797.3992919921875
486,781.6849975585938,788.937744140625,793.7728881835938,802.2344360351562
487,778.8644409179688,785.7142944335938,794.1758422851562,790.1465454101562
488,781.6849975585938,790.1465454101562,793.3699340820312,794.5787353515625
489,782.4908447265625,791.7582397460938,796.1904907226562,802.6373901367188
490,780.0732421875,792.1611938476562,799.8168334960938,793.7728881835938
491,781.6849975585938,793.7728881835938,796.1904907226562,780.879150390625
492,782.087890625,792.5640869140625,792.1611938476562,775.6410522460938
493,780.0732421875,795.3846435546875,790.952392578125,778.4615478515625
494,783.2966918945312,787.7289428710938,794.5787353515625,786.923095703125
495,785.3113403320312,779.2673950195312,793.7728881835938,788.5347900390625
496,782.4908447265625,789.7435913085938,786.923095703125,784.1025390625
497,787.7289428710938,801.025634765625,791.3552856445312,785.3113403320312
498,790.952392578125,801.4285888671875,796.996337890625,777.6557006835938
499,784.5054931640625,798.6080322265625,794.5787353515625,768.7911987304688
500,788.1318969726562,795.3846435546875,793.7728881835938,777.2527465820312
501,797.3992919921875,795.7875366210938,796.1904907226562,788.5347900390625
502,794.5787353515625,800.6226806640625,796.1904907226562,786.923095703125
503,791.3552856445312,797.8021850585938,796.996337890625,787.7289428710938
504,796.996337890625,797.3992919921875,795.3846435546875,791.7582397460938
505,794.1758422851562,799.010986328125,796.996337890625,793.3699340820312
506,787.7289428710938,792.5640869140625,797.3992919921875,792.5640869140625
507,794.1758422851562,794.981689453125,796.1904907226562,797.8021850585938
508,795.7875366210938,793.3699340820312,794.981689453125,801.4285888671875
509,793.3699340820312,793.7728881835938,797.3992919921875,797.3992919921875
510,790.952392578125,800.6226806640625,802.6373901367188,794.981689453125
511,787.3259887695312,801.025634765625,801.025634765625,796.996337890625
512,790.952392578125,794.1758422851562,794.981689453125,802.2344360351562
513,790.5494384765625,798.6080322265625,798.2051391601562,792.1611938476562
514,786.5201416015625,801.8314819335938,803.040283203125,788.1318969726562
515,786.5201416015625,797.3992919921875,803.040283203125,792.1611938476562
516,784.908447265625,797.3992919921875,799.010986328125,788.937744140625
517,783.2966918945312,793.7728881835938,796.1904907226562,788.937744140625
518,786.1171875,789.3406372070312,798.2051391601562,789.3406372070312
519,788.1318969726562,785.3113403320312,795.3846435546875,783.6996459960938
520,785.3113403320312,781.2820434570312,788.937744140625,776.4468994140625
521,786.1171875,782.4908447265625,790.5494384765625,785.3113403320312
522,792.967041015625,787.3259887695312,793.7728881835938,796.996337890625
523,793.3699340820312,786.923095703125,792.1611938476562,794.1758422851562
524,786.1171875,783.2966918945312,791.7582397460938,791.7582397460938
525,785.7142944335938,783.6996459960938,788.5347900390625,793.7728881835938
526,787.7289428710938,783.6996459960938,782.4908447265625,796.996337890625
527,785.3113403320312,783.2966918945312,784.1025390625,797.8021850585938
528,795.7875366210938,786.1171875,787.7289428710938,801.4285888671875
529,809.4871826171875,784.1025390625,786.5201416015625,807.069580078125
530,805.054931640625,783.2966918945312,781.6849975585938,804.2490844726562
531,802.2344360351562,787.7289428710938,786.5201416015625,805.054931640625
532,802.2344360351562,785.7142944335938,793.3699340820312,806.2637329101562
533,796.996337890625,779.2673950195312,794.981689453125,797.3992919921875
534,794.5787353515625,786.5201416015625,794.981689453125,796.1904907226562
535,795.7875366210938,798.2051391601562,790.952392578125,800.6226806640625
536,792.1611938476562,793.3699340820312,788.5347900390625,796.996337890625
537,787.7289428710938,784.5054931640625,789.3406372070312,794.981689453125
538,795.3846435546875,787.3259887695312,789.7435913085938,797.8021850585938
539,799.8168334960938,791.7582397460938,791.3552856445312,799.8168334960938
540,792.967041015625,794.1758422851562,790.5494384765625,796.996337890625
541,793.3699340820312,792.967041015625,788.5347900390625,794.5787353515625
542,793.7728881835938,790.952392578125,790.952392578125,794.1758422851562
543,790.952392578125,789.7435913085938,792.5640869140625,788.937744140625
544,795.3846435546875,793.3699340820312,795.3846435546875,790.5494384765625
545,793.7728881835938,796.996337890625,792.5640869140625,789.7435913085938
546,791.3552856445312,794.981689453125,792.1611938476562,795.3846435546875
547,790.952392578125,790.5494384765625,796.996337890625,809.084228515625
548,790.952392578125,792.967041015625,801.8314819335938,804.6520385742188
549,794.5787353515625,794.981689453125,803.040283203125,800.6226806640625
550,790.952392578125,790.952392578125,800.2197875976562,794.5787353515625
551,784.5054931640625,790.952392578125,800.2197875976562,791.7582397460938
552,786.1171875,785.7142944335938,800.2197875976562,801.4285888671875
553,785.3113403320312,779.6703491210938,797.3992919921875,797.8021850585938
554,786.1171875,782.087890625,794.981689453125,794.1758422851562
555,784.908447265625,786.1171875,788.937744140625,790.1465454101562
556,784.908447265625,792.1611938476562,789.3406372070312,785.3113403320312
557,791.3552856445312,793.3699340820312,796.996337890625,788.5347900390625
558,794.981689453125,790.5494384765625,799.010986328125,796.1904907226562
559,792.967041015625,795.3846435546875,796.1904907226562,796.996337890625
560,793.3699340820312,796.1904907226562,798.2051391601562,795.3846435546875
561,791.7582397460938,792.5640869140625,799.4139404296875,793.3699340820312
562,787.7289428710938,790.952392578125,794.981689453125,786.923095703125
563,782.087890625,784.908447265625,790.1465454101562,787.7289428710938
564,781.2820434570312,784.5054931640625,790.1465454101562,794.1758422851562
565,782.893798828125,786.5201416015625,790.952392578125,793.7728881835938
566,778.4615478515625,790.1465454101562,793.3699340820312,796.5933837890625
567,778.05859375,793.3699340820312,797.8021850585938,801.025634765625
568,781.6849975585938,790.952392578125,794.981689453125,796.1904907226562
569,784.908447265625,788.937744140625,790.5494384765625,799.4139404296875
570,786.1171875,792.1611938476562,789.3406372070312,805.4578857421875
571,784.5054931640625,795.3846435546875,786.1171875,793.7728881835938
572,788.1318969726562,792.1611938476562,784.1025390625,794.1758422851562
573,791.7582397460938,788.1318969726562,786.1171875,796.1904907226562
574,794.1758422851562,788.5347900390625,787.3259887695312,793.3699340820312
575,793.3699340820312,790.952392578125,786.923095703125,796.1904907226562
576,798.2051391601562,794.1758422851562,788.5347900390625,794.5787353515625
577,798.2051391601562,793.7728881835938,791.3552856445312,795.3846435546875
578,796.5933837890625,797.3992919921875,788.1318969726562,799.8168334960938
579,801.4285888671875,797.3992919921875,789.3406372070312,799.8168334960938
580,795.3846435546875,793.3699340820312,795.3846435546875,800.2197875976562
581,789.7435913085938,803.4432373046875,795.7875366210938,801.8314819335938
582,794.5787353515625,809.4871826171875,799.010986328125,803.4432373046875
583,792.5640869140625,803.8461303710938,795.3846435546875,798.6080322265625
584,784.1025390625,794.5787353515625,794.5787353515625,795.7875366210938
585,783.2966918945312,786.5201416015625,796.5933837890625,801.4285888671875
586,781.6849975585938,792.967041015625,797.8021850585938,793.3699340820312
587,776.4468994140625,797.3992919921875,796.1904907226562,784.1025390625
588,775.6410522460938,792.967041015625,792.5640869140625,788.5347900390625
589,775.2380981445312,788.1318969726562,794.981689453125,784.908447265625
590,776.0439453125,788.1318969726562,793.7728881835938,779.2673950195312
591,778.05859375,783.2966918945312,790.5494384765625,785.7142944335938
592,777.2527465820312,778.4615478515625,790.1465454101562,782.4908447265625
593,778.4615478515625,783.2966918945312,790.1465454101562,779.6703491210938
594,789.7435913085938,791.7582397460938,793.7728881835938,790.5494384765625
595,790.952392578125,790.952392578125,794.981689453125,788.937744140625
596,786.1171875,786.923095703125,791.7582397460938,788.1318969726562
597,787.3259887695312,790.1465454101562,794.1758422851562,794.1758422851562
598,786.5201416015625,790.952392578125,797.8021850585938,787.7289428710938
599,791.3552856445312,787.3259887695312,795.3846435546875,783.6996459960938
600,799.010986328125,787.3259887695312,796.996337890625,790.1465454101562
601,798.2051391601562,792.1611938476562,803.040283203125,786.923095703125
602,792.1611938476562,792.1611938476562,801.4285888671875,784.5054931640625
603,792.1611938476562,795.3846435546875,801.025634765625,794.1758422851562
604,796.1904907226562,797.8021850585938,796.1904907226562,796.1904907226562
605,799.4139404296875,798.6080322265625,794.981689453125,791.7582397460938
606,796.996337890625,796.5933837890625,793.7728881835938,787.3259887695312
607,794.5787353515625,797.8021850585938,789.7435913085938,794.981689453125
608,801.4285888671875,801.8314819335938,791.7582397460938,805.054931640625
609,798.6080322265625,799.4139404296875,794.1758422851562,793.3699340820312
610,800.6226806640625,803.8461303710938,794.1758422851562,783.2966918945312
611,801.025634765625,805.4578857421875,791.7582397460938,787.7289428710938
612,792.5640869140625,803.4432373046875,793.7728881835938,788.937744140625
613,794.5787353515625,805.054931640625,793.7728881835938,787.7289428710938
614,799.8168334960938,805.4578857421875,792.1611938476562,788.937744140625
615,799.4139404296875,801.8314819335938,792.967041015625,785.7142944335938
616,799.8168334960938,799.010986328125,790.1465454101562,784.5054931640625
617,801.8314819335938,797.8021850585938,791.3552856445312,787.7289428710938
618,798.2051391601562,799.8168334960938,792.5640869140625,794.5787353515625
619,795.7875366210938,800.2197875976562,790.952392578125,798.2051391601562
620,794.981689453125,797.8021850585938,792.967041015625,796.5933837890625
621,793.7728881835938,801.8314819335938,796.5933837890625,796.1904907226562
622,791.7582397460938,802.2344360351562,792.1611938476562,796.5933837890625
623,785.7142944335938,797.3992919921875,789.3406372070312,792.967041015625
624,787.3259887695312,800.2197875976562,792.967041015625,787.7289428710938
625,790.952392578125,803.4432373046875,796.5933837890625,790.5494384765625
626,792.967041015625,800.6226806640625,798.6080322265625,794.981689453125
627,794.5787353515625,799.4139404296875,794.981689453125,793.7728881835938
628,792.1611938476562,794.5787353515625,791.7582397460938,792.5640869140625
629,789.7435913085938,785.7142944335938,788.937744140625,788.937744140625
630,789.7435913085938,782.087890625,788.937744140625,785.7142944335938
631,786.1171875,790.1465454101562,793.7728881835938,788.5347900390625
632,778.4615478515625,797.8021850585938,796.996337890625,786.1171875
633,776.8497924804688,792.5640869140625,794.1758422851562,788.937744140625
634,788.1318969726562,792.1611938476562,796.5933837890625,797.3992919921875
635,790.1465454101562,794.981689453125,801.4285888671875,796.996337890625
636,785.7142944335938,787.3259887695312,801.025634765625,795.3846435546875
637,788.1318969726562,784.5054931640625,795.3846435546875,796.1904907226562
638,788.5347900390625,789.3406372070312,793.3699340820312,799.4139404296875
639,794.1758422851562,795.7875366210938,796.1904907226562,796.5933837890625
640,796.5933837890625,793.7728881835938,792.967041015625,788.5347900390625
641,793.7728881835938,787.7289428710938,791.3552856445312,790.1465454101562
642,793.7728881835938,788.937744140625,791.3552856445312,788.5347900390625
643,797.3992919921875,795.3846435546875,793.3699340820312,789.7435913085938
644,799.8168334960938,799.8168334960938,796.996337890625,788.5347900390625
645,799.8168334960938,796.5933837890625,789.7435913085938,786.5201416015625
646,799.010986328125,788.937744140625,788.1318969726562,786.923095703125
647,794.5787353515625,786.1171875,792.967041015625,785.3113403320312
648,788.5347900390625,792.1611938476562,792.5640869140625,791.3552856445312
649,782.893798828125,790.952392578125,793.7728881835938,796.1904907226562
650,781.6849975585938,788.5347900390625,792.5640869140625,788.937744140625
651,785.7142944335938,789.3406372070312,792.5640869140625,789.3406372070312
652,784.1025390625,786.5201416015625,792.1611938476562,792.967041015625
653,778.05859375,788.937744140625,788.1318969726562,790.1465454101562
654,783.6996459960938,795.3846435546875,785.3113403320312,800.6226806640625
655,788.5347900390625,794.981689453125,785.3113403320312,802.6373901367188
656,785.3113403320312,790.5494384765625,789.3406372070312,790.1465454101562
657,791.7582397460938,797.3992919921875,792.967041015625,788.937744140625
658,796.996337890625,801.025634765625,793.7728881835938,788.5347900390625
659,797.3992919921875,798.6080322265625,793.3699340820312,787.3259887695312
660,798.6080322265625,803.8461303710938,791.7582397460938,791.3552856445312
661,796.5933837890625,797.3992919921875,795.3846435546875,791.3552856445312
662,800.2197875976562,790.5494384765625,797.3992919921875,793.3699340820312
663,799.4139404296875,789.3406372070312,793.3699340820312,791.7582397460938
664,794.5787353515625,788.937744140625,796.5933837890625,784.5054931640625
665,790.952392578125,793.7728881835938,797.3992919921875,783.2966918945312
666,788.1318969726562,793.7728881835938,794.1758422851562,786.1171875
667,779.2673950195312,795.3846435546875,794.5787353515625,781.6849975585938
668,778.8644409179688,787.7289428710938,792.5640869140625,784.908447265625
669,786.5201416015625,781.6849975585938,788.937744140625,780.0732421875
670,784.908447265625,795.7875366210938,792.5640869140625,779.6703491210938
671,784.5054931640625,799.8168334960938,793.3699340820312,781.6849975585938
672,791.3552856445312,795.3846435546875,790.952392578125,784.5054931640625
673,796.5933837890625,796.5933837890625,791.3552856445312,797.3992919921875
674,794.1758422851562,800.2197875976562,791.3552856445312,799.4139404296875
675,787.3259887695312,801.8314819335938,786.5201416015625,792.967041015625
676,787.3259887695312,793.3699340820312,786.923095703125,793.7728881835938
677,796.996337890625,786.1171875,795.3846435546875,803.040283203125
678,797.8021850585938,792.967041015625,799.4139404296875,797.8021850585938
679,790.952392578125,802.6373901367188,800.2197875976562,792.1611938476562
680,791.3552856445312,797.8021850585938,799.8168334960938,796.1904907226562
681,791.7582397460938,797.8021850585938,795.7875366210938,799.4139404296875
682,787.7289428710938,804.2490844726562,795.3846435546875,792.1611938476562
683,792.5640869140625,803.040283203125,795.7875366210938,791.7582397460938
684,796.996337890625,794.981689453125,788.1318969726562,793.3699340820312
685,799.010986328125,797.8021850585938,793.7728881835938,795.3846435546875
686,807.87548828125,801.8314819335938,801.4285888671875,801.4285888671875
687,803.4432373046875,794.981689453125,801.8314819335938,803.4432373046875
688,798.2051391601562,795.3846435546875,801.025634765625,801.8314819335938
689,798.2051391601562,793.3699340820312,798.2051391601562,797.8021850585938
690,796.996337890625,792.5640869140625,799.4139404296875,800.6226806640625
691,796.5933837890625,794.1758422851562,797.8021850585938,798.6080322265625
692,800.2197875976562,799.010986328125,793.7728881835938,796.996337890625
693,802.2344360351562,796.1904907226562,795.3846435546875,799.4139404296875
694,800.6226806640625,795.3846435546875,799.010986328125,794.981689453125
695,800.2197875976562,797.3992919921875,796.5933837890625,796.996337890625
696,800.6226806640625,794.5787353515625,795.7875366210938,798.2051391601562
697,798.6080322265625,797.3992919921875,797.8021850585938,792.5640869140625
698,793.7728881835938,794.981689453125,795.7875366210938,791.7582397460938
699,788.1318969726562,787.3259887695312,794.1758422851562,796.1904907226562
700,790.5494384765625,784.908447265625,793.3699340820312,794.981689453125
701,788.937744140625,788.1318969726562,790.952392578125,784.5054931640625
702,787.3259887695312,790.952392578125,786.923095703125,778.4615478515625
703,786.1171875,788.937744140625,782.4908447265625,777.2527465820312
704,788.5347900390625,788.937744140625,783.2966918945312,784.1025390625
705,793.3699340820312,792.5640869140625,783.2966918945312,784.1025390625
706,792.1611938476562,794.1758422851562,786.1171875,778.05859375
707,791.3552856445312,795.7875366210938,793.3699340820312,784.1025390625
708,788.5347900390625,790.952392578125,792.1611938476562,792.1611938476562
709,789.7435913085938,786.1171875,791.7582397460938,791.7582397460938
710,784.908447265625,790.1465454101562,792.1611938476562,781.2820434570312
711,787.3259887695312,796.5933837890625,787.7289428710938,776.0439453125
712,798.6080322265625,795.7875366210938,790.5494384765625,782.087890625
713,794.5787353515625,791.7582397460938,792.1611938476562,784.5054931640625
714,799.8168334960938,794.981689453125,786.1171875,784.5054931640625
715,810.6959838867188,801.8314819335938,781.6849975585938,791.3552856445312
716,810.6959838867188,801.8314819335938,787.3259887695312,799.4139404296875
717,803.8461303710938,799.4139404296875,793.7728881835938,795.7875366210938
718,811.098876953125,795.7875366210938,788.5347900390625,797.8021850585938
719,816.3369750976562,793.7728881835938,790.5494384765625,799.8168334960938
720,806.6666870117188,794.1758422851562,799.4139404296875,797.8021850585938
721,802.2344360351562,795.3846435546875,799.4139404296875,802.2344360351562
722,801.025634765625,795.7875366210938,795.7875366210938,803.8461303710938
723,802.2344360351562,798.2051391601562,793.7728881835938,803.4432373046875
724,806.6666870117188,798.6080322265625,794.5787353515625,805.4578857421875
725,808.2783813476562,792.5640869140625,799.4139404296875,805.054931640625
726,806.2637329101562,791.7582397460938,801.4285888671875,802.2344360351562
727,804.6520385742188,795.3846435546875,803.040283203125,807.4725341796875
728,802.6373901367188,796.5933837890625,801.8314819335938,808.6813354492188
729,803.8461303710938,799.8168334960938,796.5933837890625,804.2490844726562
730,806.2637329101562,796.1904907226562,797.3992919921875,803.8461303710938
731,796.1904907226562,786.1171875,797.8021850585938,797.8021850585938
732,788.5347900390625,789.7435913085938,798.6080322265625,793.7728881835938
733,789.3406372070312,790.1465454101562,796.5933837890625,796.5933837890625
734,788.937744140625,786.923095703125,794.5787353515625,796.5933837890625
735,785.7142944335938,784.908447265625,794.981689453125,789.7435913085938
736,784.1025390625,784.1025390625,793.7728881835938,788.1318969726562
737,787.7289428710938,787.3259887695312,793.3699340820312,792.967041015625
738,789.7435913085938,791.3552856445312,789.3406372070312,795.7875366210938
739,793.7728881835938,792.1611938476562,793.7728881835938,798.2051391601562
740,791.3552856445312,794.981689453125,794.981689453125,799.4139404296875
741,781.2820434570312,798.2051391601562,794.1758422851562,794.5787353515625
742,779.2673950195312,796.1904907226562,793.3699340820312,788.937744140625
743,782.4908447265625,786.1171875,793.7728881835938,788.1318969726562
744,783.6996459960938,791.3552856445312,797.8021850585938,789.3406372070312
745,784.5054931640625,807.069580078125,798.2051391601562,788.937744140625
746,785.3113403320312,806.2637329101562,794.5787353515625,793.3699340820312
747,783.6996459960938,800.2197875976562,794.1758422851562,793.7728881835938
748,782.4908447265625,799.010986328125,795.7875366210938,789.3406372070312
749,784.1025390625,799.4139404296875,799.8168334960938,792.5640869140625
750,788.937744140625,798.2051391601562,804.6520385742188,804.2490844726562
751,786.923095703125,797.8021850585938,799.8168334960938,796.1904907226562
752,784.1025390625,798.6080322265625,798.6080322265625,784.908447265625
753,782.893798828125,798.2051391601562,799.4139404296875,791.3552856445312
754,781.6849975585938,799.8168334960938,796.1904907226562,793.7728881835938
755,787.7289428710938,799.4139404296875,799.010986328125,797.8021850585938
756,788.1318969726562,791.7582397460938,797.3992919921875,797.8021850585938
757,789.3406372070312,788.937744140625,793.7728881835938,796.996337890625
758,796.5933837890625,794.981689453125,794.5787353515625,800.2197875976562
759,796.5933837890625,798.6080322265625,796.1904907226562,798.2051391601562
760,799.4139404296875,798.2051391601562,801.4285888671875,795.7875366210938
761,800.2197875976562,800.2197875976562,797.3992919921875,792.967041015625
762,805.054931640625,794.981689453125,793.3699340820312,797.3992919921875
763,805.054931640625,792.1611938476562,801.8314819335938,793.7728881835938
764,799.4139404296875,798.2051391601562,803.040283203125,790.1465454101562
765,799.010986328125,801.8314819335938,793.3699340820312,790.5494384765625
766,794.1758422851562,803.040283203125,794.981689453125,794.1758422851562
767,788.1318969726562,802.6373901367188,799.8168334960938,794.1758422851562
768,787.7289428710938,791.7582397460938,792.967041015625,794.5787353515625
769,792.1611938476562,789.7435913085938,787.7289428710938,792.5640869140625
770,792.1611938476562,796.1904907226562,790.5494384765625,787.7289428710938
771,788.5347900390625,790.952392578125,795.3846435546875,788.5347900390625
772,790.1465454101562,788.937744140625,797.8021850585938,790.5494384765625
773,788.937744140625,787.7289428710938,790.5494384765625,792.1611938476562
774,784.1025390625,781.6849975585938,788.5347900390625,781.6849975585938
775,787.3259887695312,782.893798828125,794.981689453125,780.4761962890625
776,791.3552856445312,789.7435913085938,797.3992919921875,790.5494384765625
777,786.5201416015625,786.1171875,792.1611938476562,786.923095703125
778,783.6996459960938,776.0439453125,795.3846435546875,784.5054931640625
779,786.1171875,778.4615478515625,790.5494384765625,784.908447265625
780,788.1318969726562,785.7142944335938,782.4908447265625,785.3113403320312
781,784.5054931640625,785.7142944335938,786.1171875,781.2820434570312
782,785.3113403320312,788.937744140625,786.1171875,781.6849975585938
783,792.5640869140625,792.967041015625,786.923095703125,784.5054931640625
784,798.2051391601562,788.5347900390625,787.7289428710938,789.3406372070312
785,797.3992919921875,788.937744140625,789.3406372070312,794.1758422851562
786,792.1611938476562,790.952392578125,789.7435913085938,790.5494384765625
787,786.5201416015625,792.1611938476562,785.7142944335938,791.3552856445312
788,784.5054931640625,792.5640869140625,784.908447265625,791.7582397460938
789,786.923095703125,792.5640869140625,793.7728881835938,786.1171875
790,786.1171875,792.5640869140625,799.4139404296875,783.2966918945312
791,784.5054931640625,786.923095703125,791.7582397460938,782.4908447265625
792,784.1025390625,787.3259887695312,787.3259887695312,784.1025390625
793,784.908447265625,793.3699340820312,792.5640869140625,784.5054931640625
794,781.6849975585938,794.981689453125,791.7582397460938,784.908447265625
795,778.05859375,794.1758422851562,786.923095703125,788.1318969726562
796,782.893798828125,794.1758422851562,790.1465454101562,787.3259887695312
797,784.5054931640625,792.5640869140625,792.5640869140625,782.893798828125
798,777.6557006835938,788.1318969726562,785.3113403320312,784.5054931640625
799,779.2673950195312,785.3113403320312,785.3113403320312,786.923095703125
800,786.923095703125,787.7289428710938,792.967041015625,795.3846435546875
801,788.5347900390625,787.7289428710938,796.996337890625,796.1904907226562
802,790.5494384765625,788.1318969726562,794.981689453125,794.981689453125
803,790.5494384765625,788.1318969726562,791.7582397460938,794.5787353515625
804,789.7435913085938,787.3259887695312,797.8021850585938,791.3552856445312
805,796.1904907226562,790.1465454101562,800.2197875976562,791.7582397460938
806,796.1904907226562,792.1611938476562,802.6373901367188,792.5640869140625
807,787.7289428710938,788.5347900390625,804.6520385742188,790.5494384765625
808,789.7435913085938,793.3699340820312,800.2197875976562,790.1465454101562
809,795.7875366210938,795.3846435546875,799.010986328125,792.967041015625
810,796.996337890625,793.3699340820312,796.1904907226562,785.7142944335938
811,796.996337890625,793.3699340820312,790.952392578125,789.3406372070312
812,795.3846435546875,789.7435913085938,792.967041015625,808.2783813476562
813,797.8021850585938,788.5347900390625,796.5933837890625,805.054931640625
814,797.8021850585938,791.3552856445312,797.3992919921875,794.5787353515625
815,790.952392578125,798.2051391601562,794.5787353515625,785.7142944335938
816,789.3406372070312,797.3992919921875,791.7582397460938,780.0732421875
817,792.967041015625,790.1465454101562,796.5933837890625,782.893798828125
818,797.3992919921875,796.1904907226562,794.981689453125,786.923095703125
819,795.7875366210938,804.6520385742188,790.5494384765625,792.5640869140625
820,792.1611938476562,804.2490844726562,792.967041015625,795.3846435546875
821,794.1758422851562,798.6080322265625,793.3699340820312,790.5494384765625
822,795.3846435546875,795.7875366210938,790.1465454101562,786.1171875
823,798.2051391601562,791.3552856445312,788.5347900390625,794.981689453125
824,794.981689453125,788.5347900390625,795.3846435546875,791.7582397460938
825,801.025634765625,794.5787353515625,795.3846435546875,783.6996459960938
826,810.6959838867188,797.8021850585938,796.5933837890625,792.967041015625
827,802.6373901367188,797.8021850585938,795.3846435546875,793.7728881835938
828,799.010986328125,794.981689453125,791.3552856445312,787.7289428710938
829,796.996337890625,790.5494384765625,794.1758422851562,791.7582397460938
830,796.1904907226562,795.3846435546875,796.996337890625,795.7875366210938
831,795.7875366210938,802.6373901367188,792.967041015625,792.967041015625
832,788.5347900390625,801.8314819335938,792.967041015625,794.1758422851562
833,788.5347900390625,795.7875366210938,793.7728881835938,793.3699340820312
834,795.3846435546875,790.1465454101562,788.1318969726562,790.5494384765625
835,802.2344360351562,794.981689453125,794.981689453125,799.8168334960938
836,800.2197875976562,794.5787353515625,798.2051391601562,795.7875366210938
837,798.2051391601562,788.937744140625,793.7728881835938,792.1611938476562
838,790.952392578125,787.7289428710938,794.1758422851562,797.3992919921875
839,786.923095703125,789.3406372070312,792.967041015625,793.3699340820312
840,792.1611938476562,796.996337890625,790.1465454101562,792.967041015625
841,792.1611938476562,796.996337890625,792.1611938476562,796.5933837890625
842,790.5494384765625,795.3846435546875,792.967041015625,792.5640869140625
843,791.7582397460938,790.952392578125,791.7582397460938,794.981689453125
844,794.981689453125,784.908447265625,790.5494384765625,800.6226806640625
845,793.3699340820312,791.7582397460938,790.1465454101562,796.5933837890625
846,796.1904907226562,793.7728881835938,790.1465454101562,797.3992919921875
847,800.2197875976562,792.1611938476562,792.967041015625,790.5494384765625
848,796.5933837890625,795.7875366210938,792.967041015625,779.2673950195312
849,790.952392578125,790.5494384765625,790.1465454101562,774.4322509765625
850,788.5347900390625,783.2966918945312,789.3406372070312,775.6410522460938
851,789.7435913085938,786.923095703125,790.5494384765625,783.2966918945312
852,791.7582397460938,789.7435913085938,792.5640869140625,784.5054931640625
853,793.3699340820312,787.3259887695312,792.1611938476562,790.1465454101562
854,794.1758422851562,789.7435913085938,789.3406372070312,796.5933837890625
855,792.967041015625,786.1171875,785.3113403320312,791.7582397460938
856,796.996337890625,782.4908447265625,787.7289428710938,790.1465454101562
857,799.8168334960938,792.967041015625,792.1611938476562,796.996337890625
858,800.6226806640625,792.967041015625,789.7435913085938,803.040283203125
859,800.6226806640625,791.7582397460938,789.3406372070312,802.2344360351562
860,796.996337890625,789.3406372070312,790.1465454101562,792.5640869140625
861,796.1904907226562,786.1171875,795.3846435546875,784.908447265625
862,792.967041015625,791.7582397460938,799.8168334960938,786.1171875
863,794.1758422851562,787.7289428710938,798.2051391601562,789.7435913085938
864,792.1611938476562,788.1318969726562,798.2051391601562,790.1465454101562
865,786.923095703125,799.4139404296875,791.7582397460938,792.1611938476562
866,791.7582397460938,800.2197875976562,785.3113403320312,791.7582397460938
867,794.5787353515625,792.967041015625,793.3699340820312,790.952392578125
868,797.3992919921875,790.952392578125,802.2344360351562,795.7875366210938
869,798.6080322265625,790.1465454101562,801.025634765625,801.025634765625
870,794.981689453125,794.1758422851562,794.5787353515625,794.981689453125
871,795.3846435546875,793.7728881835938,791.7582397460938,790.952392578125
872,797.3992919921875,792.1611938476562,789.3406372070312,792.1611938476562
873,789.7435913085938,795.3846435546875,786.923095703125,786.1171875
874,785.7142944335938,795.3846435546875,788.5347900390625,786.1171875
875,786.5201416015625,798.6080322265625,791.7582397460938,791.3552856445312
876,789.3406372070312,799.8168334960938,791.3552856445312,790.952392578125
877,798.6080322265625,802.6373901367188,790.5494384765625,794.5787353515625
878,798.6080322265625,802.6373901367188,790.5494384765625,798.2051391601562
879,795.7875366210938,798.6080322265625,798.6080322265625,796.1904907226562
880,800.2197875976562,798.2051391601562,799.4139404296875,798.6080322265625
881,791.3552856445312,791.3552856445312,792.5640869140625,805.4578857421875
882,786.923095703125,793.7728881835938,797.8021850585938,799.4139404296875
883,787.7289428710938,795.3846435546875,801.8314819335938,794.1758422851562
884,784.1025390625,790.1465454101562,796.1904907226562,799.4139404296875
885,781.6849975585938,792.1611938476562,793.7728881835938,794.981689453125
886,783.2966918945312,794.1758422851562,792.967041015625,788.937744140625
887,792.5640869140625,794.1758422851562,788.1318969726562,793.7728881835938
888,794.981689453125,794.1758422851562,791.3552856445312,797.3992919921875
889,790.5494384765625,793.7728881835938,796.5933837890625,795.3846435546875
890,795.3846435546875,794.5787353515625,797.8021850585938,794.981689453125
891,797.3992919921875,792.967041015625,794.5787353515625,790.952392578125
892,800.6226806640625,786.923095703125,792.5640869140625,793.3699340820312
893,799.010986328125,788.5347900390625,795.3846435546875,797.8021850585938
894,791.3552856445312,785.3113403320312,796.5933837890625,796.1904907226562
895,786.923095703125,789.3406372070312,792.5640869140625,796.5933837890625
896,786.923095703125,794.5787353515625,786.5201416015625,802.6373901367188
897,790.1465454101562,792.967041015625,789.3406372070312,797.8021850585938
898,791.3552856445312,793.7728881835938,790.5494384765625,793.3699340820312
899,786.923095703125,787.3259887695312,789.7435913085938,796.5933837890625
900,785.3113403320312,780.4761962890625,788.5347900390625,802.6373901367188
901,791.7582397460938,785.3113403320312,784.908447265625,800.6226806640625
902,794.981689453125,791.3552856445312,787.7289428710938,796.996337890625
903,796.996337890625,782.893798828125,793.7728881835938,796.1904907226562
904,802.6373901367188,778.4615478515625,796.996337890625,794.5787353515625
905,795.7875366210938,788.5347900390625,794.981689453125,792.1611938476562
906,786.923095703125,795.3846435546875,790.952392578125,790.952392578125
907,790.5494384765625,791.3552856445312,788.937744140625,791.7582397460938
908,797.8021850585938,787.7289428710938,792.5640869140625,788.937744140625
909,797.3992919921875,788.1318969726562,797.3992919921875,792.967041015625
910,794.1758422851562,791.7582397460938,792.5640869140625,794.1758422851562
911,806.2637329101562,783.6996459960938,793.3699340820312,806.2637329101562
912,807.069580078125,792.5640869140625,794.5787353515625,804.2490844726562
913,804.2490844726562,797.3992919921875,788.937744140625,799.8168334960938
914,796.5933837890625,794.1758422851562,791.3552856445312,796.1904907226562
915,799.4139404296875,801.025634765625,797.3992919921875,792.967041015625
916,806.6666870117188,796.1904907226562,798.6080322265625,799.4139404296875
917,806.6666870117188,791.7582397460938,799.4139404296875,803.040283203125
918,807.069580078125,797.3992919921875,796.996337890625,805.4578857421875
919,802.2344360351562,794.981689453125,793.7728881835938,804.6520385742188
920,797.8021850585938,791.3552856445312,791.3552856445312,792.1611938476562
921,799.4139404296875,792.967041015625,794.981689453125,796.5933837890625
922,792.967041015625,793.3699340820312,796.1904907226562,795.3846435546875
923,792.1611938476562,789.7435913085938,792.1611938476562,792.5640869140625
924,790.952392578125,788.1318969726562,795.3846435546875,801.4285888671875
925,788.5347900390625,789.7435913085938,796.996337890625,796.1904907226562
926,792.5640869140625,790.5494384765625,793.3699340820312,788.937744140625
927,794.981689453125,791.7582397460938,792.967041015625,792.5640869140625
928,797.8021850585938,796.1904907226562,792.1611938476562,795.7875366210938
929,798.6080322265625,796.5933837890625,789.7435913085938,793.3699340820312
930,797.3992919921875,792.1611938476562,788.1318969726562,790.952392578125
931,792.1611938476562,793.7728881835938,788.1318969726562,788.1318969726562
932,787.3259887695312,793.3699340820312,787.7289428710938,789.7435913085938
933,790.5494384765625,791.3552856445312,790.1465454101562,788.1318969726562
934,791.3552856445312,793.3699340820312,793.3699340820312,783.2966918945312
935,790.952392578125,795.7875366210938,790.5494384765625,781.2820434570312
936,790.952392578125,792.1611938476562,786.5201416015625,788.937744140625
937,792.5640869140625,785.7142944335938,791.3552856445312,795.7875366210938
938,796.5933837890625,793.7728881835938,795.3846435546875,799.8168334960938
939,792.967041015625,795.7875366210938,788.937744140625,799.010986328125
940,789.3406372070312,790.952392578125,787.7289428710938,786.923095703125
941,796.1904907226562,793.3699340820312,786.1171875,787.7289428710938
942,803.4432373046875,790.5494384765625,790.952392578125,800.6226806640625
943,800.2197875976562,790.952392578125,790.952392578125,792.1611938476562
944,797.8021850585938,798.2051391601562,788.1318969726562,787.3259887695312
945,796.996337890625,801.4285888671875,794.1758422851562,798.6080322265625
946,792.1611938476562,799.4139404296875,792.1611938476562,794.981689453125
947,795.3846435546875,793.7728881835938,792.5640869140625,791.3552856445312
948,796.5933837890625,788.5347900390625,797.3992919921875,798.6080322265625
949,786.1171875,788.937744140625,792.5640869140625,797.3992919921875
950,788.1318969726562,789.3406372070312,791.3552856445312,792.5640869140625
951,791.7582397460938,790.5494384765625,794.5787353515625,795.3846435546875
952,790.5494384765625,792.1611938476562,791.3552856445312,799.4139404296875
953,795.7875366210938,789.3406372070312,790.1465454101562,808.6813354492188
954,796.996337890625,791.7582397460938,793.7728881835938,805.8607788085938
955,797.3992919921875,796.996337890625,796.996337890625,797.8021850585938
956,797.8021850585938,797.8021850585938,795.7875366210938,799.010986328125
957,797.3992919921875,794.981689453125,795.3846435546875,801.025634765625
958,801.4285888671875,793.3699340820312,797.3992919921875,804.2490844726562
959,796.996337890625,792.967041015625,795.7875366210938,802.6373901367188
960,792.1611938476562,790.5494384765625,797.3992919921875,800.2197875976562
961,793.3699340820312,785.7142944335938,795.7875366210938,793.7728881835938
962,797.3992919921875,788.5347900390625,793.3699340820312,791.7582397460938
963,797.8021850585938,783.6996459960938,796.996337890625,787.7289428710938
964,796.1904907226562,778.8644409179688,792.967041015625,788.1318969726562
965,799.4139404296875,790.5494384765625,791.7582397460938,797.8021850585938
966,798.6080322265625,795.3846435546875,795.3846435546875,796.5933837890625
967,798.2051391601562,790.1465454101562,798.6080322265625,793.3699340820312
968,801.025634765625,787.3259887695312,797.3992919921875,794.1758422851562
969,799.010986328125,794.981689453125,794.981689453125,795.7875366210938
970,795.7875366210938,796.5933837890625,795.7875366210938,794.1758422851562
971,795.3846435546875,792.1611938476562,791.7582397460938,789.7435913085938
972,797.3992919921875,793.3699340820312,792.1611938476562,789.7435913085938
973,799.8168334960938,790.952392578125,798.2051391601562,794.5787353515625
974,793.7728881835938,790.1465454101562,800.2197875976562,794.1758422851562
975,783.2966918945312,789.3406372070312,796.5933837890625,786.5201416015625
976,788.1318969726562,790.5494384765625,794.981689453125,783.6996459960938
977,795.7875366210938,790.5494384765625,795.7875366210938,786.1171875
978,792.1611938476562,790.1465454101562,792.967041015625,786.1171875
979,791.7582397460938,795.3846435546875,792.967041015625,783.2966918945312
980,794.1758422851562,797.8021850585938,796.5933837890625,788.1318969726562
981,791.7582397460938,799.010986328125,799.4139404296875,785.3113403320312
982,790.5494384765625,794.5787353515625,799.010986328125,782.4908447265625
983,791.7582397460938,790.1465454101562,797.8021850585938,789.7435913085938
984,790.5494384765625,792.1611938476562,801.8314819335938,788.937744140625
985,792.1611938476562,796.1904907226562,804.2490844726562,788.937744140625
986,791.3552856445312,797.3992919921875,799.010986328125,786.923095703125
987,789.3406372070312,799.8168334960938,799.4139404296875,787.3259887695312
988,793.7728881835938,796.1904907226562,798.6080322265625,786.1171875
989,791.7582397460938,792.5640869140625,792.1611938476562,779.6703491210938
990,794.981689453125,788.937744140625,795.7875366210938,783.2966918945312
991,799.8168334960938,787.3259887695312,792.1611938476562,792.5640869140625
992,793.7728881835938,791.7582397460938,790.5494384765625,793.3699340820312
993,794.5787353515625,794.1758422851562,791.3552856445312,790.952392578125
994,797.8021850585938,794.1758422851562,790.952392578125,792.5640869140625
995,794.1758422851562,795.7875366210938,786.923095703125,793.3699340820312
996,788.5347900390625,792.1611938476562,788.1318969726562,788.937744140625
997,784.5054931640625,790.1465454101562,791.7582397460938,781.6849975585938
998,786.923095703125,793.3699340820312,793.7728881835938,788.1318969726562
999,797.8021850585938,792.1611938476562,797.8021850585938,795.3846435546875
1000,803.8461303710938,790.5494384765625,795.7875366210938,794.981689453125
1001,801.025634765625,791.3552856445312,792.1611938476562,798.2051391601562
1002,802.2344360351562,788.937744140625,794.1758422851562,801.8314819335938
1003,793.7728881835938,781.6849975585938,792.5640869140625,799.8168334960938
1004,788.5347900390625,784.5054931640625,794.1758422851562,793.7728881835938
1005,787.7289428710938,790.1465454101562,792.967041015625,787.7289428710938
1006,786.923095703125,789.3406372070312,795.3846435546875,790.5494384765625
1007,791.7582397460938,790.1465454101562,797.3992919921875,792.967041015625
1008,788.1318969726562,788.5347900390625,792.967041015625,782.893798828125
1009,787.3259887695312,787.3259887695312,791.7582397460938,777.6557006835938
1010,790.952392578125,786.5201416015625,788.1318969726562,787.7289428710938
1011,790.1465454101562,784.5054931640625,787.7289428710938,794.1758422851562
1012,788.1318969726562,787.3259887695312,797.8021850585938,790.1465454101562
1013,787.7289428710938,786.5201416015625,802.6373901367188,788.937744140625
1014,790.1465454101562,786.923095703125,796.5933837890625,794.1758422851562
1015,788.937744140625,785.7142944335938,795.7875366210938,793.7728881835938
1016,788.937744140625,792.1611938476562,801.4285888671875,787.3259887695312
1017,790.1465454101562,798.6080322265625,797.3992919921875,786.5201416015625
1018,786.5201416015625,792.1611938476562,793.3699340820312,788.1318969726562
1019,790.1465454101562,794.1758422851562,801.025634765625,792.5640869140625
1020,796.996337890625,799.010986328125,801.8314819335938,792.967041015625
1021,801.025634765625,793.3699340820312,797.8021850585938,797.8021850585938
1022,807.069580078125,793.3699340820312,794.1758422851562,807.4725341796875
1023,800.2197875976562,799.4139404296875,791.3552856445312,796.5933837890625
1024,790.952392578125,797.8021850585938,790.5494384765625,786.5201416015625
1025,788.1318969726562,794.1758422851562,797.8021850585938,788.937744140625
1026,784.908447265625,787.7289428710938,803.040283203125,796.1904907226562
1027,784.908447265625,786.1171875,796.5933837890625,796.1904907226562
1028,788.937744140625,793.7728881835938,798.2051391601562,793.3699340820312
1029,792.967041015625,797.3992919921875,797.3992919921875,800.6226806640625
1030,792.5640869140625,793.7728881835938,793.3699340820312,796.996337890625
1031,790.952392578125,792.967041015625,795.3846435546875,794.981689453125
1032,793.7728881835938,797.8021850585938,794.5787353515625,801.025634765625
1033,795.7875366210938,799.4139404296875,792.967041015625,798.6080322265625
1034,798.2051391601562,790.952392578125,799.010986328125,794.5787353515625
1035,801.8314819335938,794.5787353515625,799.4139404296875,799.4139404296875
1036,802.6373901367188,803.040283203125,794.1758422851562,797.8021850585938
1037,800.2197875976562,799.4139404296875,794.5787353515625,787.7289428710938
1038,799.010986328125,792.967041015625,795.3846435546875,780.879150390625
1039,800.2197875976562,796.5933837890625,792.1611938476562,782.087890625
1040,801.025634765625,797.8021850585938,789.3406372070312,780.4761962890625
1041,797.8021850585938,792.1611938476562,786.923095703125,781.6849975585938
1042,792.5640869140625,790.1465454101562,788.5347900390625,793.3699340820312
1043,792.5640869140625,792.967041015625,788.1318969726562,794.5787353515625
1044,792.1611938476562,795.3846435546875,785.7142944335938,797.8021850585938
1045,789.7435913085938,790.952392578125,795.7875366210938,799.8168334960938
1046,785.7142944335938,794.5787353515625,799.8168334960938,792.5640869140625
1047,783.6996459960938,800.2197875976562,791.7582397460938,788.937744140625
1048,786.5201416015625,793.7728881835938,781.6849975585938,781.2820434570312
1049,786.1171875,782.4908447265625,782.4908447265625,780.0732421875
1050,782.893798828125,784.5054931640625,784.908447265625,784.908447265625
1051,782.893798828125,792.1611938476562,779.2673950195312,786.5201416015625
1052,786.5201416015625,793.7728881835938,784.1025390625,788.937744140625
1053,790.1465454101562,792.967041015625,794.5787353515625,798.2051391601562
1054,791.3552856445312,794.1758422851562,803.040283203125,798.6080322265625
1055,791.7582397460938,793.7728881835938,805.8607788085938,793.7728881835938
1056,796.996337890625,795.7875366210938,802.2344360351562,802.2344360351562
1057,795.3846435546875,800.2197875976562,798.6080322265625,807.87548828125
1058,786.923095703125,795.7875366210938,796.5933837890625,801.4285888671875
1059,792.5640869140625,791.3552856445312,797.8021850585938,804.2490844726562
1060,800.2197875976562,790.1465454101562,794.1758422851562,808.2783813476562
1061,801.025634765625,787.3259887695312,794.5787353515625,805.8607788085938
1062,800.6226806640625,793.3699340820312,796.996337890625,801.025634765625
1063,798.6080322265625,802.2344360351562,800.2197875976562,798.2051391601562
1064,794.1758422851562,799.8168334960938,801.8314819335938,803.4432373046875
1065,791.3552856445312,790.952392578125,797.8021850585938,801.8314819335938
1066,795.7875366210938,790.952392578125,794.981689453125,796.996337890625
1067,798.6080322265625,799.4139404296875,799.4139404296875,796.5933837890625
1068,794.5787353515625,799.8168334960938,797.3992919921875,798.2051391601562
1069,790.952392578125,798.6080322265625,791.3552856445312,796.1904907226562
1070,790.952392578125,799.4139404296875,795.7875366210938,794.1758422851562
1071,794.1758422851562,798.2051391601562,796.1904907226562,796.1904907226562
1072,795.3846435546875,795.7875366210938,793.3699340820312,792.5640869140625
1073,793.7728881835938,792.967041015625,792.967041015625,792.5640869140625
1074,792.5640869140625,794.5787353515625,794.5787353515625,792.967041015625
1075,796.996337890625,801.025634765625,794.5787353515625,791.3552856445312
1076,803.4432373046875,798.6080322265625,792.5640869140625,799.010986328125
1077,796.1904907226562,797.3992919921875,795.7875366210938,799.8168334960938
1078,798.2051391601562,801.4285888671875,798.2051391601562,791.3552856445312
1079,804.6520385742188,798.6080322265625,796.1904907226562,792.1611938476562
1080,799.4139404296875,796.1904907226562,795.7875366210938,797.3992919921875
1081,796.1904907226562,796.5933837890625,798.2051391601562,792.1611938476562
1082,789.7435913085938,795.3846435546875,794.1758422851562,783.2966918945312
1083,786.1171875,791.3552856445312,788.937744140625,786.1171875
1084,792.1611938476562,795.3846435546875,791.3552856445312,789.7435913085938
1085,800.2197875976562,803.8461303710938,793.3699340820312,792.1611938476562
1086,800.6226806640625,800.2197875976562,793.7728881835938,796.1904907226562
1087,796.1904907226562,798.6080322265625,793.3699340820312,799.010986328125
1088,796.5933837890625,803.4432373046875,791.3552856445312,797.8021850585938
1089,796.5933837890625,803.4432373046875,792.967041015625,786.1171875
1090,796.5933837890625,801.025634765625,794.1758422851562,790.5494384765625
1091,796.996337890625,796.996337890625,789.3406372070312,791.7582397460938
1092,799.8168334960938,794.981689453125,788.1318969726562,787.7289428710938
1093,797.8021850585938,792.967041015625,788.5347900390625,789.7435913085938
1094,794.981689453125,793.7728881835938,789.3406372070312,787.3259887695312
1095,795.7875366210938,794.981689453125,789.7435913085938,787.3259887695312
1096,796.5933837890625,796.5933837890625,787.7289428710938,790.1465454101562
1097,797.8021850585938,796.5933837890625,790.952392578125,795.7875366210938
1098,801.025634765625,794.1758422851562,797.3992919921875,799.4139404296875
1099,801.8314819335938,793.3699340820312,792.967041015625,803.040283203125
1100,796.1904907226562,792.5640869140625,790.952392578125,802.2344360351562
1101,796.5933837890625,791.3552856445312,792.967041015625,793.7728881835938
1102,794.981689453125,794.5787353515625,791.3552856445312,795.3846435546875
1103,794.981689453125,797.3992919921875,794.981689453125,803.040283203125
1104,794.981689453125,793.7728881835938,793.7728881835938,801.025634765625
1105,792.1611938476562,791.7582397460938,787.7289428710938,799.4139404296875
1106,794.981689453125,801.025634765625,791.3552856445312,803.040283203125
1107,795.7875366210938,802.6373901367188,798.2051391601562,797.8021850585938
1108,794.981689453125,797.3992919921875,802.6373901367188,796.1904907226562
1109,795.7875366210938,797.3992919921875,800.2197875976562,794.5787353515625
1110,791.7582397460938,791.7582397460938,792.1611938476562,790.5494384765625
1111,792.967041015625,788.937744140625,794.5787353515625,800.2197875976562
1112,793.7728881835938,790.5494384765625,799.010986328125,792.5640869140625
1113,790.5494384765625,787.3259887695312,796.1904907226562,786.1171875
1114,790.952392578125,788.1318969726562,794.5787353515625,787.7289428710938
1115,792.1611938476562,788.937744140625,795.3846435546875,781.6849975585938
1116,791.3552856445312,799.8168334960938,797.8021850585938,787.7289428710938
1117,789.7435913085938,804.2490844726562,800.6226806640625,792.5640869140625
1118,784.908447265625,795.3846435546875,800.2197875976562,783.2966918945312
1119,784.1025390625,800.2197875976562,801.4285888671875,776.4468994140625
1120,784.908447265625,804.2490844726562,798.2051391601562,779.6703491210938
1121,792.5640869140625,797.3992919921875,796.1904907226562,787.3259887695312
1122,801.4285888671875,790.1465454101562,796.1904907226562,799.4139404296875
1123,796.996337890625,788.937744140625,793.3699340820312,802.6373901367188
1124,792.5640869140625,789.3406372070312,792.1611938476562,794.5787353515625
1125,789.7435913085938,792.1611938476562,792.967041015625,790.1465454101562
1126,788.5347900390625,795.3846435546875,792.967041015625,788.1318969726562
1127,790.1465454101562,798.2051391601562,794.981689453125,789.7435913085938
1128,789.3406372070312,794.981689453125,797.3992919921875,789.7435913085938
1129,792.1611938476562,794.1758422851562,793.3699340820312,789.7435913085938
1130,799.4139404296875,796.1904907226562,794.5787353515625,795.3846435546875
1131,803.8461303710938,799.010986328125,801.8314819335938,805.054931640625
1132,805.8607788085938,799.4139404296875,802.2344360351562,803.4432373046875
1133,799.010986328125,789.3406372070312,796.5933837890625,795.7875366210938
1134,791.3552856445312,788.1318969726562,791.7582397460938,804.2490844726562
1135,787.7289428710938,793.7728881835938,794.981689453125,800.6226806640625
1136,790.1465454101562,792.1611938476562,799.8168334960938,787.3259887695312
1137,788.937744140625,795.7875366210938,799.010986328125,790.1465454101562
1138,788.5347900390625,799.8168334960938,796.996337890625,793.3699340820312
1139,789.3406372070312,799.4139404296875,794.5787353515625,790.952392578125
1140,785.3113403320312,791.7582397460938,793.7728881835938,788.5347900390625
1141,788.1318969726562,787.3259887695312,792.5640869140625,790.5494384765625
1142,794.5787353515625,788.937744140625,791.3552856445312,792.5640869140625
1143,793.3699340820312,790.1465454101562,792.967041015625,790.952392578125
1144,794.5787353515625,791.3552856445312,791.7582397460938,792.5640869140625
1145,797.3992919921875,785.7142944335938,789.3406372070312,794.1758422851562
1146,798.6080322265625,786.923095703125,787.7289428710938,788.937744140625
1147,803.040283203125,794.5787353515625,784.908447265625,788.5347900390625
1148,800.2197875976562,796.1904907226562,785.3113403320312,792.5640869140625
1149,795.7875366210938,788.5347900390625,788.5347900390625,796.996337890625
1150,790.5494384765625,786.923095703125,788.937744140625,793.3699340820312
1151,790.1465454101562,794.1758422851562,787.7289428710938,789.3406372070312
1152,793.7728881835938,791.3552856445312,788.5347900390625,796.996337890625
1153,786.5201416015625,785.7142944335938,788.1318969726562,791.7582397460938
1154,784.908447265625,791.3552856445312,786.923095703125,786.1171875
1155,787.7289428710938,793.7728881835938,789.7435913085938,784.5054931640625
1156,792.5640869140625,791.7582397460938,791.3552856445312,781.2820434570312
1157,793.3699340820312,794.5787353515625,792.5640869140625,785.7142944335938
1158,791.7582397460938,794.981689453125,791.7582397460938,782.087890625
1159,793.7728881835938,791.3552856445312,786.5201416015625,778.8644409179688
1160,794.981689453125,792.5640869140625,792.967041015625,787.7289428710938
1161,789.7435913085938,793.7728881835938,799.4139404296875,789.7435913085938
1162,788.1318969726562,786.923095703125,799.010986328125,784.1025390625
1163,792.1611938476562,786.923095703125,800.2197875976562,786.1171875
1164,788.5347900390625,794.1758422851562,791.3552856445312,788.1318969726562
1165,787.7289428710938,793.7728881835938,788.5347900390625,787.7289428710938
1166,790.5494384765625,788.5347900390625,794.1758422851562,790.5494384765625
1167,795.3846435546875,789.3406372070312,796.1904907226562,794.1758422851562
1168,802.2344360351562,792.5640869140625,791.3552856445312,796.996337890625
1169,798.2051391601562,792.967041015625,786.5201416015625,792.967041015625
1170,788.937744140625,791.7582397460938,796.5933837890625,791.3552856445312
1171,784.5054931640625,791.3552856445312,796.996337890625,788.937744140625
1172,783.2966918945312,791.3552856445312,788.5347900390625,792.1611938476562
1173,781.6849975585938,789.7435913085938,791.7582397460938,785.7142944335938
1174,779.6703491210938,785.7142944335938,796.5933837890625,779.6703491210938
1175,784.5054931640625,786.1171875,794.1758422851562,783.2966918945312
1176,786.1171875,788.937744140625,789.3406372070312,781.6849975585938
1177,786.1171875,786.1171875,792.5640869140625,782.4908447265625
1178,790.1465454101562,786.1171875,796.5933837890625,786.5201416015625
1179,788.937744140625,790.952392578125,795.7875366210938,787.7289428710938
1180,780.879150390625,789.3406372070312,795.7875366210938,783.2966918945312
1181,779.2673950195312,788.937744140625,794.5787353515625,777.2527465820312
1182,781.6849975585938,790.952392578125,790.952392578125,780.879150390625
1183,776.8497924804688,792.967041015625,790.1465454101562,788.5347900390625
1184,776.4468994140625,791.7582397460938,789.7435913085938,792.1611938476562
1185,779.2673950195312,786.5201416015625,793.7728881835938,785.3113403320312
1186,780.4761962890625,783.6996459960938,797.8021850585938,786.1171875
1187,785.3113403320312,792.1611938476562,797.8021850585938,789.3406372070312
1188,787.7289428710938,799.8168334960938,802.6373901367188,794.981689453125
1189,789.7435913085938,799.4139404296875,801.025634765625,803.040283203125
1190,790.5494384765625,796.1904907226562,797.8021850585938,801.4285888671875
1191,792.5640869140625,792.5640869140625,799.4139404296875,800.6226806640625
1192,796.1904907226562,793.7728881835938,794.981689453125,805.8607788085938
1193,796.1904907226562,794.981689453125,788.1318969726562,805.8607788085938
1194,796.996337890625,792.5640869140625,788.5347900390625,801.4285888671875
1195,799.010986328125,786.923095703125,788.5347900390625,803.8461303710938
1196,796.996337890625,785.3113403320312,786.923095703125,803.8461303710938
1197,799.010986328125,795.3846435546875,791.3552856445312,792.967041015625
1198,802.6373901367188,795.7875366210938,791.3552856445312,786.5201416015625
1199,805.8607788085938,795.3846435546875,795.7875366210938,792.967041015625
1200,803.8461303710938,798.2051391601562,797.3992919921875,800.2197875976562
1201,798.2051391601562,792.1611938476562,788.1318969726562,803.040283203125
1202,798.6080322265625,795.3846435546875,789.3406372070312,805.054931640625
1203,802.6373901367188,803.4432373046875,795.3846435546875,802.2344360351562
1204,799.4139404296875,801.4285888671875,794.5787353515625,796.5933837890625
1205,789.3406372070312,798.2051391601562,790.952392578125,792.1611938476562
1206,789.3406372070312,798.2051391601562,790.1465454101562,795.3846435546875
1207,788.5347900390625,796.1904907226562,786.5201416015625,803.4432373046875
1208,794.5787353515625,797.8021850585938,787.7289428710938,796.1904907226562
1209,802.6373901367188,797.8021850585938,789.7435913085938,790.5494384765625
1210,798.6080322265625,792.1611938476562,790.5494384765625,799.010986328125
1211,795.7875366210938,795.7875366210938,792.967041015625,798.6080322265625
1212,796.996337890625,803.4432373046875,792.5640869140625,796.1904907226562
1213,796.996337890625,798.2051391601562,788.937744140625,792.5640869140625
1214,796.5933837890625,795.7875366210938,790.5494384765625,790.5494384765625
1215,796.1904907226562,796.1904907226562,792.1611938476562,794.1758422851562
1216,798.2051391601562,796.1904907226562,791.7582397460938,795.3846435546875
1217,798.2051391601562,797.3992919921875,794.1758422851562,793.7728881835938
1218,796.5933837890625,795.7875366210938,792.1611938476562,801.025634765625
1219,794.981689453125,792.5640869140625,792.967041015625,796.996337890625
1220,800.6226806640625,790.952392578125,797.8021850585938,794.981689453125
1221,801.4285888671875,794.1758422851562,802.6373901367188,801.4285888671875
1222,790.952392578125,792.967041015625,803.040283203125,794.981689453125
1223,792.5640869140625,795.3846435546875,794.981689453125,786.1171875
1224,797.3992919921875,796.996337890625,792.1611938476562,783.6996459960938
1225,794.981689453125,794.981689453125,792.5640869140625,781.2820434570312
1226,792.5640869140625,792.5640869140625,791.3552856445312,787.7289428710938
1227,790.5494384765625,790.952392578125,791.7582397460938,794.1758422851562
1228,793.3699340820312,797.3992919921875,794.981689453125,796.5933837890625
1229,792.1611938476562,797.8021850585938,794.981689453125,798.2051391601562
1230,789.7435913085938,794.1758422851562,790.952392578125,796.1904907226562
1231,792.5640869140625,793.3699340820312,794.5787353515625,790.1465454101562
1232,791.3552856445312,790.1465454101562,797.3992919921875,786.1171875
1233,791.7582397460938,783.2966918945312,794.1758422851562,789.3406372070312
1234,794.981689453125,781.6849975585938,791.3552856445312,789.7435913085938
1235,793.3699340820312,795.7875366210938,790.1465454101562,789.7435913085938
1236,794.981689453125,802.2344360351562,792.967041015625,789.7435913085938
1237,798.6080322265625,795.7875366210938,794.5787353515625,792.967041015625
1238,795.7875366210938,792.967041015625,794.1758422851562,788.937744140625
1239,800.6226806640625,790.952392578125,795.7875366210938,788.937744140625
1240,798.2051391601562,790.952392578125,799.010986328125,794.1758422851562
1241,794.981689453125,791.7582397460938,797.8021850585938,798.6080322265625
1242,802.6373901367188,794.981689453125,798.6080322265625,804.6520385742188
1243,802.6373901367188,790.5494384765625,798.2051391601562,797.8021850585938
1244,796.996337890625,789.3406372070312,793.3699340820312,794.5787353515625
1245,797.8021850585938,786.923095703125,794.1758422851562,795.7875366210938
1246,798.6080322265625,779.2673950195312,793.7728881835938,796.996337890625
1247,797.3992919921875,786.923095703125,794.981689453125,800.2197875976562
1248,799.010986328125,791.3552856445312,796.996337890625,799.010986328125
1249,801.025634765625,789.3406372070312,792.5640869140625,793.7728881835938
1250,795.3846435546875,790.1465454101562,790.5494384765625,788.937744140625
1251,792.5640869140625,790.5494384765625,794.5787353515625,789.7435913085938
1252,794.1758422851562,786.923095703125,788.5347900390625,788.937744140625
1253,790.952392578125,784.5054931640625,787.7289428710938,788.5347900390625
1254,790.1465454101562,788.5347900390625,794.5787353515625,794.5787353515625
1255,794.5787353515625,790.952392578125,795.7875366210938,798.6080322265625
1256,796.1904907226562,791.3552856445312,800.6226806640625,793.7728881835938
1257,793.3699340820312,792.967041015625,804.6520385742188,790.1465454101562
1258,788.5347900390625,786.923095703125,802.2344360351562,784.908447265625
1259,792.967041015625,782.4908447265625,801.4285888671875,782.087890625
1260,800.2197875976562,789.3406372070312,803.4432373046875,795.3846435546875
1261,796.996337890625,792.967041015625,798.6080322265625,790.5494384765625
1262,793.7728881835938,793.7728881835938,794.5787353515625,778.8644409179688
1263,792.5640869140625,789.3406372070312,791.3552856445312,780.4761962890625
1264,791.7582397460938,786.5201416015625,789.7435913085938,782.893798828125
1265,796.1904907226562,789.7435913085938,788.937744140625,788.5347900390625
1266,794.981689453125,794.5787353515625,793.3699340820312,793.3699340820312
1267,783.2966918945312,789.7435913085938,794.5787353515625,794.981689453125
1268,779.6703491210938,785.3113403320312,794.5787353515625,800.2197875976562
1269,782.4908447265625,788.1318969726562,790.1465454101562,791.3552856445312
1270,781.6849975585938,784.1025390625,784.1025390625,779.6703491210938
1271,783.6996459960938,784.5054931640625,788.1318969726562,784.1025390625
1272,786.5201416015625,790.5494384765625,788.937744140625,787.7289428710938
1273,784.908447265625,791.3552856445312,786.923095703125,788.937744140625
1274,785.3113403320312,791.7582397460938,786.5201416015625,790.1465454101562
1275,790.952392578125,790.952392578125,789.3406372070312,793.3699340820312
1276,796.996337890625,792.5640869140625,794.981689453125,792.967041015625
1277,797.8021850585938,793.7728881835938,796.1904907226562,789.7435913085938
1278,792.967041015625,787.3259887695312,793.7728881835938,790.5494384765625
1279,792.1611938476562,790.5494384765625,786.1171875,792.967041015625
1280,796.996337890625,797.3992919921875,792.5640869140625,796.996337890625
1281,798.6080322265625,797.3992919921875,802.2344360351562,796.996337890625
1282,797.3992919921875,792.967041015625,795.3846435546875,792.1611938476562
1283,793.3699340820312,782.893798828125,791.7582397460938,795.3846435546875
1284,789.7435913085938,788.937744140625,795.3846435546875,796.5933837890625
1285,790.1465454101562,794.5787353515625,793.7728881835938,793.3699340820312
1286,791.3552856445312,789.7435913085938,790.5494384765625,790.1465454101562
1287,795.7875366210938,793.7728881835938,789.7435913085938,794.5787353515625
1288,791.3552856445312,796.5933837890625,793.7728881835938,802.2344360351562
1289,780.0732421875,792.5640869140625,792.1611938476562,791.7582397460938
1290,782.087890625,794.981689453125,791.7582397460938,793.3699340820312
1291,786.5201416015625,794.5787353515625,790.952392578125,798.6080322265625
1292,790.952392578125,796.5933837890625,794.5787353515625,793.3699340820312
1293,796.1904907226562,801.4285888671875,801.8314819335938,792.967041015625
1294,796.1904907226562,801.8314819335938,796.5933837890625,794.1758422851562
1295,790.952392578125,801.8314819335938,789.3406372070312,794.981689453125
1296,786.1171875,799.4139404296875,792.967041015625,793.7728881835938
1297,785.7142944335938,799.010986328125,797.8021850585938,792.967041015625
1298,785.7142944335938,802.6373901367188,796.1904907226562,793.7728881835938
1299,786.5201416015625,801.4285888671875,799.010986328125,802.2344360351562
1300,793.3699340820312,792.967041015625,799.010986328125,805.054931640625
1301,795.3846435546875,792.5640869140625,797.3992919921875,799.010986328125
1302,790.5494384765625,796.5933837890625,796.5933837890625,801.025634765625
1303,784.1025390625,798.2051391601562,795.7875366210938,804.2490844726562
1304,783.6996459960938,800.6226806640625,798.6080322265625,789.7435913085938
1305,789.3406372070312,799.8168334960938,797.8021850585938,784.5054931640625
1306,797.8021850585938,794.981689453125,798.6080322265625,795.7875366210938
1307,795.7875366210938,793.3699340820312,794.5787353515625,800.6226806640625
1308,790.1465454101562,796.1904907226562,792.967041015625,796.5933837890625
1309,792.967041015625,794.5787353515625,801.8314819335938,797.3992919921875
1310,796.1904907226562,793.3699340820312,799.8168334960938,802.6373901367188
1311,795.7875366210938,799.4139404296875,796.5933837890625,800.6226806640625
1312,797.3992919921875,803.040283203125,797.3992919921875,795.7875366210938
1313,796.5933837890625,802.6373901367188,792.967041015625,795.7875366210938
1314,786.1171875,793.7728881835938,788.937744140625,799.8168334960938
1315,778.05859375,790.5494384765625,791.7582397460938,796.5933837890625
1316,781.2820434570312,793.7728881835938,790.952392578125,788.5347900390625
1317,786.5201416015625,791.7582397460938,792.1611938476562,791.3552856445312
1318,788.937744140625,795.7875366210938,799.8168334960938,794.981689453125
1319,790.952392578125,798.2051391601562,795.7875366210938,792.1611938476562
1320,793.7728881835938,795.7875366210938,792.5640869140625,796.996337890625
1321,796.996337890625,795.3846435546875,792.967041015625,800.6226806640625
1322,792.967041015625,789.7435913085938,792.1611938476562,801.4285888671875
1323,787.7289428710938,788.5347900390625,795.7875366210938,800.2197875976562
1324,782.4908447265625,791.3552856445312,795.3846435546875,797.8021850585938
1325,780.4761962890625,788.5347900390625,787.7289428710938,800.2197875976562
1326,789.3406372070312,788.5347900390625,788.937744140625,807.4725341796875
1327,792.967041015625,793.3699340820312,793.7728881835938,800.6226806640625
1328,786.923095703125,794.1758422851562,788.1318969726562,791.7582397460938
1329,787.7289428710938,792.1611938476562,785.3113403320312,796.1904907226562
1330,786.5201416015625,792.1611938476562,794.1758422851562,793.3699340820312
1331,790.5494384765625,797.8021850585938,797.3992919921875,784.908447265625
1332,797.8021850585938,796.5933837890625,794.5787353515625,786.5201416015625
1333,796.1904907226562,790.1465454101562,794.5787353515625,788.937744140625
1334,786.5201416015625,786.1171875,794.5787353515625,789.7435913085938
1335,786.5201416015625,790.952392578125,792.1611938476562,788.5347900390625
1336,794.1758422851562,796.1904907226562,791.7582397460938,784.908447265625
1337,792.967041015625,799.010986328125,794.981689453125,799.010986328125
1338,787.3259887695312,794.981689453125,791.7582397460938,802.2344360351562
1339,785.3113403320312,791.7582397460938,790.5494384765625,789.7435913085938
1340,786.5201416015625,790.952392578125,787.3259887695312,788.5347900390625
1341,786.5201416015625,784.5054931640625,783.6996459960938,790.5494384765625
1342,788.1318969726562,784.908447265625,789.7435913085938,795.3846435546875
1343,785.7142944335938,790.5494384765625,790.1465454101562,795.7875366210938
1344,782.4908447265625,792.967041015625,792.5640869140625,787.3259887695312
1345,786.1171875,791.3552856445312,793.3699340820312,783.6996459960938
1346,786.1171875,787.7289428710938,785.3113403320312,784.1025390625
1347,784.5054931640625,785.7142944335938,784.1025390625,784.908447265625
1348,787.3259887695312,788.937744140625,791.7582397460938,789.7435913085938
1349,791.3552856445312,789.7435913085938,794.1758422851562,796.1904907226562
1350,793.7728881835938,791.3552856445312,793.3699340820312,797.3992919921875
1351,794.5787353515625,794.5787353515625,788.1318969726562,787.7289428710938
1352,796.5933837890625,792.1611938476562,786.5201416015625,789.7435913085938
1353,794.5787353515625,794.5787353515625,790.1465454101562,799.010986328125
1354,788.937744140625,800.6226806640625,790.1465454101562,782.893798828125
1355,786.1171875,797.8021850585938,788.937744140625,779.6703491210938
1356,784.1025390625,796.1904907226562,788.1318969726562,783.2966918945312
1357,785.7142944335938,792.1611938476562,787.3259887695312,779.6703491210938
1358,790.5494384765625,793.7728881835938,790.1465454101562,782.893798828125
1359,789.7435913085938,798.2051391601562,791.3552856445312,785.7142944335938
1360,788.937744140625,798.6080322265625,794.1758422851562,792.1611938476562
1361,799.010986328125,801.4285888671875,796.1904907226562,787.3259887695312
1362,800.6226806640625,794.981689453125,786.5201416015625,780.4761962890625
1363,795.7875366210938,791.7582397460938,784.5054931640625,784.1025390625
1364,792.967041015625,792.5640869140625,789.3406372070312,783.6996459960938
1365,788.5347900390625,795.7875366210938,794.1758422851562,785.7142944335938
1366,792.5640869140625,798.6080322265625,794.5787353515625,791.3552856445312
1367,796.996337890625,792.5640869140625,791.3552856445312,793.3699340820312
1368,792.1611938476562,791.3552856445312,789.3406372070312,797.8021850585938
1369,784.908447265625,790.952392578125,786.923095703125,792.5640869140625
1370,787.7289428710938,788.1318969726562,784.908447265625,788.937744140625
1371,791.3552856445312,789.7435913085938,787.7289428710938,790.5494384765625
1372,795.3846435546875,791.7582397460938,792.1611938476562,792.5640869140625
1373,796.996337890625,792.1611938476562,795.3846435546875,794.981689453125
1374,795.7875366210938,794.1758422851562,795.7875366210938,791.3552856445312
1375,798.2051391601562,792.5640869140625,795.7875366210938,789.3406372070312
1376,801.025634765625,798.2051391601562,794.981689453125,796.996337890625
1377,800.6226806640625,803.040283203125,794.981689453125,790.952392578125
1378,792.5640869140625,802.2344360351562,796.5933837890625,785.7142944335938
1379,789.7435913085938,800.2197875976562,794.981689453125,792.5640869140625
1380,790.1465454101562,795.3846435546875,788.937744140625,796.996337890625
1381,793.7728881835938,790.5494384765625,788.1318969726562,796.996337890625
1382,798.6080322265625,788.5347900390625,790.952392578125,797.3992919921875
1383,792.967041015625,792.5640869140625,796.1904907226562,799.010986328125
1384,788.5347900390625,794.1758422851562,798.2051391601562,796.1904907226562
1385,788.1318969726562,794.981689453125,792.1611938476562,791.3552856445312
1386,789.3406372070312,798.2051391601562,791.3552856445312,794.981689453125
1387,791.3552856445312,797.3992919921875,795.3846435546875,809.89013671875
1388,787.7289428710938,800.6226806640625,796.1904907226562,806.6666870117188
1389,786.923095703125,801.4285888671875,799.4139404296875,801.4285888671875
1390,789.3406372070312,798.6080322265625,797.3992919921875,802.6373901367188
1391,784.908447265625,791.7582397460938,792.967041015625,806.6666870117188
1392,777.6557006835938,788.1318969726562,793.3699340820312,809.89013671875
1393,782.087890625,792.5640869140625,791.7582397460938,802.2344360351562
1394,782.087890625,791.3552856445312,792.5640869140625,796.1904907226562
1395,782.893798828125,789.3406372070312,793.3699340820312,787.7289428710938
1396,788.1318969726562,790.952392578125,794.1758422851562,779.6703491210938
1397,787.3259887695312,788.937744140625,796.5933837890625,783.2966918945312
1398,790.952392578125,789.7435913085938,795.3846435546875,787.7289428710938
1399,798.6080322265625,791.3552856445312,794.5787353515625,791.3552856445312
1400,799.4139404296875,792.967041015625,798.6080322265625,795.7875366210938
1401,800.2197875976562,793.7728881835938,803.4432373046875,802.6373901367188
1402,802.2344360351562,793.7728881835938,795.7875366210938,798.6080322265625
1403,792.1611938476562,792.967041015625,788.5347900390625,786.923095703125
1404,786.923095703125,793.3699340820312,792.1611938476562,784.5054931640625
1405,791.3552856445312,802.6373901367188,793.7728881835938,786.5201416015625
1406,790.952392578125,797.8021850585938,791.3552856445312,788.937744140625
1407,789.3406372070312,792.1611938476562,794.1758422851562,788.1318969726562
1408,785.3113403320312,797.3992919921875,792.967041015625,788.5347900390625
1409,783.6996459960938,790.5494384765625,788.1318969726562,789.3406372070312
1410,788.937744140625,787.3259887695312,782.893798828125,796.1904907226562
1411,788.937744140625,798.2051391601562,784.5054931640625,794.1758422851562
1412,784.1025390625,799.010986328125,792.1611938476562,787.3259887695312
1413,786.5201416015625,795.7875366210938,794.981689453125,786.923095703125
1414,787.7289428710938,788.937744140625,790.952392578125,787.3259887695312
1415,784.1025390625,786.5201416015625,786.923095703125,790.5494384765625
1416,786.1171875,788.937744140625,789.7435913085938,788.5347900390625
1417,786.5201416015625,792.5640869140625,790.952392578125,784.5054931640625
1418,784.1025390625,790.952392578125,790.5494384765625,788.1318969726562
1419,785.7142944335938,787.3259887695312,792.5640869140625,794.1758422851562
1420,788.1318969726562,790.1465454101562,794.981689453125,792.5640869140625
1421,793.3699340820312,792.967041015625,790.1465454101562,786.923095703125
1422,792.967041015625,793.3699340820312,792.967041015625,792.967041015625
1423,789.7435913085938,790.952392578125,795.3846435546875,793.7728881835938
1424,792.967041015625,792.967041015625,790.1465454101562,791.7582397460938
1425,792.967041015625,794.1758422851562,789.3406372070312,790.5494384765625
1426,796.1904907226562,796.996337890625,788.937744140625,786.923095703125
1427,792.5640869140625,796.996337890625,790.952392578125,786.1171875
1428,782.893798828125,794.5787353515625,792.5640869140625,791.3552856445312
1429,781.2820434570312,791.7582397460938,793.3699340820312,791.3552856445312
1430,774.8351440429688,788.1318969726562,791.3552856445312,785.3113403320312
1431,776.0439453125,792.967041015625,793.7728881835938,791.7582397460938
1432,786.923095703125,796.996337890625,795.7875366210938,799.4139404296875
1433,787.3259887695312,789.3406372070312,791.7582397460938,797.8021850585938
1434,787.7289428710938,788.5347900390625,792.1611938476562,791.7582397460938
1435,790.952392578125,794.1758422851562,794.1758422851562,792.967041015625
1436,786.923095703125,794.5787353515625,797.3992919921875,801.8314819335938
1437,790.5494384765625,799.8168334960938,800.6226806640625,807.4725341796875
1438,794.5787353515625,800.2197875976562,801.4285888671875,799.4139404296875
1439,790.1465454101562,794.5787353515625,801.8314819335938,788.937744140625
1440,790.952392578125,792.1611938476562,798.6080322265625,786.923095703125
1441,794.1758422851562,791.3552856445312,796.5933837890625,788.1318969726562
1442,792.967041015625,795.7875366210938,794.981689453125,790.952392578125
1443,794.1758422851562,795.3846435546875,797.8021850585938,788.937744140625
1444,795.7875366210938,786.923095703125,792.5640869140625,789.3406372070312
1445,794.981689453125,781.6849975585938,785.7142944335938,790.952392578125
1446,794.981689453125,790.952392578125,794.5787353515625,789.7435913085938
1447,788.937744140625,797.3992919921875,799.010986328125,787.7289428710938
1448,787.3259887695312,798.2051391601562,799.010986328125,790.952392578125
1449,792.967041015625,796.5933837890625,800.2197875976562,795.7875366210938
1450,790.1465454101562,797.3992919921875,797.3992919921875,783.6996459960938
1451,784.908447265625,796.5933837890625,795.7875366210938,781.2820434570312
1452,785.3113403320312,790.5494384765625,795.3846435546875,787.3259887695312
1453,791.7582397460938,789.3406372070312,794.1758422851562,794.981689453125
1454,798.2051391601562,794.1758422851562,794.981689453125,799.8168334960938
1455,802.6373901367188,796.1904907226562,796.996337890625,792.1611938476562
1456,801.4285888671875,789.3406372070312,796.1904907226562,787.7289428710938
1457,790.952392578125,792.1611938476562,794.981689453125,790.1465454101562
1458,783.6996459960938,800.2197875976562,792.967041015625,791.7582397460938
1459,786.923095703125,792.5640869140625,789.3406372070312,789.7435913085938
1460,788.937744140625,791.7582397460938,790.1465454101562,790.1465454101562
1461,787.7289428710938,794.981689453125,793.3699340820312,792.1611938476562
1462,792.1611938476562,793.7728881835938,792.967041015625,793.7728881835938
1463,793.7728881835938,793.7728881835938,793.3699340820312,793.3699340820312
1464,790.1465454101562,794.1758422851562,794.5787353515625,794.5787353515625
1465,787.7289428710938,794.5787353515625,793.7728881835938,787.3259887695312
1466,786.1171875,790.952392578125,793.7728881835938,779.2673950195312
1467,786.923095703125,790.952392578125,790.5494384765625,782.087890625
1468,790.952392578125,794.1758422851562,790.5494384765625,780.0732421875
1469,793.3699340820312,788.5347900390625,793.3699340820312,782.4908447265625
1470,794.5787353515625,789.7435913085938,792.5640869140625,788.5347900390625
1471,796.5933837890625,796.996337890625,788.937744140625,796.5933837890625
1472,798.6080322265625,797.8021850585938,794.981689453125,801.8314819335938
1473,794.981689453125,795.7875366210938,801.8314819335938,794.5787353515625
1474,799.8168334960938,796.1904907226562,794.5787353515625,794.981689453125
1475,800.6226806640625,797.3992919921875,789.7435913085938,790.5494384765625
1476,797.3992919921875,796.996337890625,789.3406372070312,782.087890625
1477,797.8021850585938,801.4285888671875,795.3846435546875,786.923095703125
1478,794.981689453125,800.2197875976562,798.6080322265625,792.1611938476562
1479,795.3846435546875,790.1465454101562,794.981689453125,795.3846435546875
1480,798.6080322265625,794.1758422851562,797.3992919921875,800.2197875976562
1481,800.2197875976562,794.5787353515625,801.025634765625,796.996337890625
1482,797.8021850585938,787.7289428710938,796.996337890625,793.3699340820312
1483,794.5787353515625,794.5787353515625,794.5787353515625,796.996337890625
1484,793.7728881835938,799.8168334960938,798.6080322265625,800.2197875976562
1485,794.981689453125,796.5933837890625,796.996337890625,800.6226806640625
1486,790.5494384765625,794.5787353515625,791.7582397460938,793.3699340820312
1487,792.5640869140625,795.3846435546875,794.5787353515625,790.952392578125
1488,792.5640869140625,792.967041015625,795.7875366210938,796.1904907226562
1489,790.5494384765625,792.1611938476562,794.5787353515625,798.2051391601562
1490,796.996337890625,793.3699340820312,796.996337890625,796.5933837890625
1491,799.4139404296875,793.7728881835938,797.8021850585938,797.8021850585938
1492,793.7728881835938,795.3846435546875,794.981689453125,799.8168334960938
1493,791.3552856445312,789.7435913085938,794.1758422851562,796.996337890625
1494,793.3699340820312,785.7142944335938,790.1465454101562,798.6080322265625
1495,793.7728881835938,786.5201416015625,791.3552856445312,799.4139404296875
1496,786.5201416015625,784.908447265625,790.5494384765625,784.908447265625
1497,784.5054931640625,784.908447265625,788.1318969726562,786.923095703125
1498,793.3699340820312,787.3259887695312,786.923095703125,796.1904907226562
1499,792.967041015625,794.1758422851562,787.7289428710938,791.3552856445312
1500,787.7289428710938,795.3846435546875,794.981689453125,794.1758422851562
1501,785.7142944335938,784.1025390625,795.3846435546875,789.3406372070312
1502,786.1171875,781.2820434570312,792.5640869140625,789.3406372070312
1503,786.5201416015625,786.1171875,790.5494384765625,794.5787353515625
1504,782.087890625,782.4908447265625,790.1465454101562,786.923095703125
1505,783.6996459960938,784.1025390625,793.7728881835938,783.2966918945312
1506,788.5347900390625,790.952392578125,790.5494384765625,790.5494384765625
1507,786.923095703125,790.5494384765625,786.5201416015625,798.2051391601562
1508,777.2527465820312,788.937744140625,788.5347900390625,786.923095703125
1509,783.2966918945312,786.1171875,786.923095703125,788.1318969726562
1510,793.3699340820312,789.3406372070312,786.5201416015625,799.4139404296875
1511,791.7582397460938,792.967041015625,788.1318969726562,792.5640869140625
1512,794.5787353515625,792.5640869140625,789.3406372070312,788.937744140625
1513,793.3699340820312,794.981689453125,785.3113403320312,794.981689453125
1514,789.7435913085938,793.3699340820312,788.5347900390625,799.4139404296875
1515,794.981689453125,791.3552856445312,797.3992919921875,795.3846435546875
1516,799.4139404296875,794.1758422851562,799.010986328125,797.3992919921875
1517,799.4139404296875,793.7728881835938,801.025634765625,802.2344360351562
1518,801.025634765625,791.7582397460938,801.025634765625,804.6520385742188
1519,798.2051391601562,792.967041015625,798.6080322265625,799.8168334960938
1520,797.8021850585938,797.3992919921875,795.7875366210938,798.2051391601562
1521,800.6226806640625,798.2051391601562,787.7289428710938,799.8168334960938
1522,798.2051391601562,800.2197875976562,786.923095703125,795.7875366210938
1523,792.1611938476562,801.025634765625,789.7435913085938,787.3259887695312
1524,793.7728881835938,803.4432373046875,787.3259887695312,779.2673950195312
1525,793.3699340820312,801.8314819335938,788.1318969726562,782.087890625
1526,789.7435913085938,795.3846435546875,788.937744140625,786.1171875
1527,793.3699340820312,794.1758422851562,784.1025390625,784.5054931640625
1528,792.5640869140625,792.967041015625,786.923095703125,786.1171875
1529,787.7289428710938,786.923095703125,792.5640869140625,790.1465454101562
1530,786.923095703125,784.5054931640625,794.981689453125,791.3552856445312
1531,790.5494384765625,791.7582397460938,793.7728881835938,788.937744140625
1532,782.4908447265625,791.7582397460938,794.5787353515625,785.7142944335938
1533,781.2820434570312,791.3552856445312,792.967041015625,789.7435913085938
1534,792.5640869140625,797.8021850585938,788.937744140625,794.1758422851562
1535,796.5933837890625,797.3992919921875,795.7875366210938,794.5787353515625
1536,799.4139404296875,796.1904907226562,795.3846435546875,795.3846435546875
1537,798.6080322265625,796.1904907226562,790.952392578125,793.7728881835938
1538,797.3992919921875,795.3846435546875,795.7875366210938,796.996337890625
1539,801.4285888671875,796.1904907226562,800.6226806640625,799.8168334960938
1540,800.6226806640625,796.1904907226562,796.1904907226562,799.010986328125
1541,794.981689453125,796.5933837890625,791.3552856445312,795.7875366210938
1542,788.5347900390625,790.1465454101562,791.3552856445312,790.1465454101562
1543,790.1465454101562,790.5494384765625,794.981689453125,790.952392578125
1544,791.7582397460938,795.3846435546875,797.3992919921875,791.3552856445312
1545,788.937744140625,791.7582397460938,796.1904907226562,789.3406372070312
1546,793.7728881835938,784.908447265625,793.7728881835938,788.5347900390625
1547,794.5787353515625,788.937744140625,793.3699340820312,791.7582397460938
1548,794.5787353515625,792.1611938476562,801.4285888671875,801.4285888671875
1549,797.3992919921875,790.952392578125,802.2344360351562,801.4285888671875
1550,793.7728881835938,793.7728881835938,795.7875366210938,792.1611938476562
1551,790.1465454101562,786.923095703125,793.3699340820312,788.5347900390625
1552,794.981689453125,782.893798828125,791.3552856445312,785.7142944335938
1553,797.8021850585938,786.923095703125,792.5640869140625,785.7142944335938
1554,796.5933837890625,797.3992919921875,798.2051391601562,788.5347900390625
1555,798.2051391601562,802.2344360351562,798.6080322265625,793.3699340820312
1556,803.040283203125,794.5787353515625,799.010986328125,798.6080322265625
1557,801.4285888671875,797.3992919921875,801.4285888671875,793.3699340820312
1558,792.1611938476562,800.2197875976562,797.3992919921875,789.3406372070312
1559,794.981689453125,795.7875366210938,794.981689453125,789.3406372070312
1560,796.996337890625,796.5933837890625,795.3846435546875,793.3699340820312
1561,798.6080322265625,795.7875366210938,800.2197875976562,801.4285888671875
1562,805.054931640625,797.8021850585938,805.4578857421875,806.2637329101562
1563,803.040283203125,798.6080322265625,803.8461303710938,799.010986328125
1564,804.6520385742188,798.2051391601562,795.7875366210938,792.1611938476562
1565,807.87548828125,799.4139404296875,800.2197875976562,791.7582397460938
1566,810.2930297851562,798.2051391601562,809.4871826171875,792.1611938476562
1567,811.90478515625,801.025634765625,801.8314819335938,794.5787353515625
1568,807.069580078125,799.8168334960938,798.2051391601562,799.4139404296875
1569,795.7875366210938,789.3406372070312,798.2051391601562,792.5640869140625
1570,787.7289428710938,788.937744140625,795.7875366210938,792.5640869140625
1571,790.1465454101562,796.1904907226562,795.7875366210938,792.967041015625
1572,792.1611938476562,792.5640869140625,790.952392578125,781.2820434570312
1573,789.7435913085938,791.7582397460938,793.7728881835938,775.6410522460938
1574,789.7435913085938,791.7582397460938,789.7435913085938,776.4468994140625
1575,794.1758422851562,786.5201416015625,786.1171875,784.5054931640625
1576,792.967041015625,780.0732421875,790.952392578125,788.1318969726562
1577,795.7875366210938,785.7142944335938,796.996337890625,796.996337890625
1578,796.1904907226562,790.5494384765625,800.6226806640625,803.4432373046875
1579,794.981689453125,790.1465454101562,794.981689453125,804.2490844726562
1580,804.2490844726562,795.3846435546875,796.5933837890625,807.069580078125
