timestamp,RAW_TP9,RAW_AF7,RAW_AF8,RAW_TP10
1,782.087890625,798.6080322265625,792.967041015625,801.025634765625
2,799.4139404296875,799.8168334960938,794.981689453125,807.069580078125
3,794.5787353515625,795.7875366210938,796.1904907226562,801.8314819335938
4,778.4615478515625,790.952392578125,795.7875366210938,794.1758422851562
5,775.6410522460938,792.5640869140625,794.1758422851562,789.7435913085938
6,783.6996459960938,788.5347900390625,790.952392578125,792.1611938476562
7,788.937744140625,785.3113403320312,794.981689453125,793.3699340820312
8,782.893798828125,785.7142944335938,796.5933837890625,786.5201416015625
9,779.6703491210938,787.3259887695312,796.1904907226562,786.1171875
10,779.6703491210938,786.923095703125,796.5933837890625,783.6996459960938
11,783.2966918945312,791.3552856445312,792.1611938476562,780.879150390625
12,786.5201416015625,795.7875366210938,794.1758422851562,781.6849975585938
13,787.7289428710938,797.8021850585938,796.996337890625,783.6996459960938
14,788.937744140625,797.8021850585938,799.8168334960938,788.937744140625
15,793.7728881835938,792.1611938476562,797.8021850585938,790.952392578125
16,804.6520385742188,791.3552856445312,792.5640869140625,790.1465454101562
17,815.93408203125,792.967041015625,792.967041015625,789.3406372070312
18,809.4871826171875,792.5640869140625,790.952392578125,792.5640869140625
19,800.6226806640625,793.7728881835938,788.5347900390625,790.952392578125
20,793.7728881835938,794.981689453125,787.7289428710938,785.7142944335938
21,786.5201416015625,796.1904907226562,788.1318969726562,790.5494384765625
22,792.967041015625,794.981689453125,792.1611938476562,794.5787353515625
23,794.5787353515625,794.5787353515625,793.3699340820312,790.1465454101562
24,784.1025390625,798.2051391601562,790.952392578125,782.087890625
25,781.6849975585938,797.3992919921875,788.5347900390625,784.1025390625
26,785.7142944335938,794.1758422851562,786.923095703125,787.7289428710938
27,791.7582397460938,792.5640869140625,786.923095703125,782.893798828125
28,794.1758422851562,791.3552856445312,791.3552856445312,782.893798828125
29,788.5347900390625,790.1465454101562,792.1611938476562,785.7142944335938
30,789.3406372070312,791.7582397460938,790.5494384765625,789.3406372070312
31,785.7142944335938,792.1611938476562,795.3846435546875,784.5054931640625
32,780.879150390625,791.3552856445312,797.8021850585938,780.0732421875
33,784.5054931640625,791.3552856445312,796.1904907226562,783.2966918945312
34,781.6849975585938,790.1465454101562,794.981689453125,784.5054931640625
35,789.3406372070312,792.5640869140625,793.3699340820312,780.879150390625
36,792.967041015625,792.5640869140625,792.967041015625,773.2234497070312
37,787.3259887695312,795.3846435546875,793.7728881835938,772.0146484375
38,788.5347900390625,797.3992919921875,791.7582397460938,776.8497924804688
39,790.1465454101562,794.5787353515625,787.3259887695312,773.2234497070312
40,787.7289428710938,790.1465454101562,790.952392578125,770.8058471679688
41,785.3113403320312,784.5054931640625,793.3699340820312,781.2820434570312
42,791.7582397460938,785.3113403320312,792.1611938476562,786.923095703125
43,797.8021850585938,789.3406372070312,793.7728881835938,784.1025390625
44,794.981689453125,792.1611938476562,795.7875366210938,786.1171875
45,786.923095703125,792.5640869140625,791.3552856445312,781.6849975585938
46,774.4322509765625,790.952392578125,791.3552856445312,772.8204956054688
47,771.6116943359375,791.7582397460938,799.010986328125,774.8351440429688
48,771.2088012695312,791.7582397460938,798.6080322265625,780.879150390625
49,767.9853515625,788.937744140625,796.5933837890625,779.2673950195312
50,770.0,788.937744140625,798.2051391601562,774.8351440429688
51,773.6264038085938,792.967041015625,797.3992919921875,778.8644409179688
52,778.4615478515625,786.923095703125,796.5933837890625,786.5201416015625
53,790.1465454101562,785.7142944335938,802.2344360351562,796.1904907226562
54,792.967041015625,797.3992919921875,799.010986328125,788.937744140625
55,787.3259887695312,796.5933837890625,790.5494384765625,782.087890625
56,787.3259887695312,792.1611938476562,790.952392578125,783.2966918945312
57,790.1465454101562,790.952392578125,791.3552856445312,777.2527465820312
58,800.6226806640625,791.3552856445312,791.3552856445312,776.0439453125
59,803.8461303710938,783.2966918945312,793.7728881835938,781.6849975585938
60,790.1465454101562,776.0439453125,794.5787353515625,788.937744140625
61,779.2673950195312,784.5054931640625,794.5787353515625,787.7289428710938
62,768.7911987304688,792.5640869140625,797.3992919921875,780.879150390625
63,776.4468994140625,793.3699340820312,799.4139404296875,781.6849975585938
64,786.923095703125,790.5494384765625,792.1611938476562,794.5787353515625
65,786.1171875,788.937744140625,786.923095703125,795.7875366210938
66,790.1465454101562,789.3406372070312,790.1465454101562,791.7582397460938
67,791.7582397460938,791.7582397460938,792.967041015625,796.1904907226562
68,797.3992919921875,787.7289428710938,796.1904907226562,801.025634765625
69,793.7728881835938,789.3406372070312,800.6226806640625,799.4139404296875
70,787.3259887695312,799.010986328125,797.8021850585938,797.3992919921875
71,784.5054931640625,798.6080322265625,789.7435913085938,793.7728881835938
72,784.1025390625,793.7728881835938,793.3699340820312,790.5494384765625
73,793.3699340820312,797.3992919921875,799.4139404296875,793.3699340820312
74,798.6080322265625,797.8021850585938,794.981689453125,790.952392578125
75,794.5787353515625,791.7582397460938,792.967041015625,792.967041015625
76,796.996337890625,794.1758422851562,795.7875366210938,791.7582397460938
77,797.3992919921875,797.8021850585938,799.8168334960938,788.5347900390625
78,786.5201416015625,793.3699340820312,799.4139404296875,787.3259887695312
79,788.5347900390625,796.1904907226562,800.2197875976562,797.3992919921875
80,788.5347900390625,798.2051391601562,804.6520385742188,804.2490844726562
81,776.8497924804688,792.1611938476562,801.025634765625,794.981689453125
82,791.3552856445312,797.8021850585938,798.6080322265625,792.967041015625
83,800.6226806640625,802.2344360351562,797.8021850585938,794.981689453125
84,789.3406372070312,796.1904907226562,797.8021850585938,792.5640869140625
85,796.1904907226562,799.010986328125,797.8021850585938,790.952392578125
86,807.4725341796875,806.2637329101562,800.2197875976562,796.996337890625
87,796.996337890625,803.040283203125,803.040283203125,795.7875366210938
88,797.3992919921875,803.8461303710938,806.2637329101562,794.5787353515625
89,801.4285888671875,809.89013671875,808.2783813476562,799.8168334960938
90,796.1904907226562,806.2637329101562,806.2637329101562,801.4285888671875
91,793.7728881835938,804.6520385742188,806.6666870117188,805.4578857421875
92,793.7728881835938,799.010986328125,803.4432373046875,799.010986328125
93,801.4285888671875,795.7875366210938,799.8168334960938,796.1904907226562
94,803.040283203125,797.3992919921875,796.5933837890625,795.7875366210938
95,801.4285888671875,796.996337890625,792.967041015625,788.937744140625
96,801.8314819335938,804.6520385742188,792.1611938476562,788.5347900390625
97,797.3992919921875,803.8461303710938,794.981689453125,786.923095703125
98,793.7728881835938,797.8021850585938,797.3992919921875,790.952392578125
99,797.3992919921875,798.2051391601562,794.5787353515625,790.952392578125
100,796.996337890625,792.967041015625,794.1758422851562,787.3259887695312
101,786.5201416015625,795.7875366210938,797.3992919921875,786.923095703125
102,786.1171875,801.8314819335938,799.010986328125,790.5494384765625
103,790.1465454101562,796.5933837890625,797.3992919921875,791.7582397460938
104,794.981689453125,795.3846435546875,793.3699340820312,785.7142944335938
105,797.8021850585938,801.025634765625,792.5640869140625,786.5201416015625
106,797.8021850585938,803.8461303710938,794.1758422851562,782.4908447265625
107,790.952392578125,801.025634765625,794.981689453125,780.4761962890625
108,792.967041015625,793.7728881835938,794.1758422851562,781.6849975585938
109,801.025634765625,792.967041015625,794.5787353515625,783.2966918945312
110,792.5640869140625,795.7875366210938,796.5933837890625,782.4908447265625
111,779.6703491210938,792.5640869140625,794.5787353515625,776.0439453125
112,778.4615478515625,792.5640869140625,793.3699340820312,779.2673950195312
113,782.087890625,794.981689453125,796.1904907226562,784.1025390625
114,785.7142944335938,796.1904907226562,796.1904907226562,789.7435913085938
115,786.923095703125,796.1904907226562,799.010986328125,787.3259887695312
116,780.879150390625,796.996337890625,794.5787353515625,778.05859375
117,787.7289428710938,799.4139404296875,791.3552856445312,785.3113403320312
118,790.952392578125,795.7875366210938,792.5640869140625,788.937744140625
119,787.7289428710938,790.5494384765625,789.7435913085938,782.893798828125
120,801.8314819335938,794.5787353515625,790.1465454101562,789.3406372070312
121,807.87548828125,796.1904907226562,791.7582397460938,789.3406372070312
122,803.8461303710938,794.5787353515625,790.952392578125,786.5201416015625
123,803.4432373046875,793.7728881835938,788.5347900390625,789.3406372070312
124,803.8461303710938,796.1904907226562,793.7728881835938,789.7435913085938
125,805.054931640625,798.2051391601562,796.1904907226562,794.981689453125
126,791.3552856445312,794.981689453125,792.5640869140625,794.1758422851562
127,776.4468994140625,793.3699340820312,794.1758422851562,785.3113403320312
128,775.6410522460938,795.7875366210938,796.996337890625,785.7142944335938
129,775.6410522460938,793.7728881835938,800.2197875976562,784.5054931640625
130,780.4761962890625,792.5640869140625,800.2197875976562,787.3259887695312
131,779.2673950195312,793.3699340820312,800.6226806640625,787.7289428710938
132,773.2234497070312,790.952392578125,802.2344360351562,778.05859375
133,775.6410522460938,789.7435913085938,799.010986328125,776.0439453125
134,784.1025390625,792.1611938476562,799.010986328125,783.2966918945312
135,785.7142944335938,795.3846435546875,797.8021850585938,785.7142944335938
136,796.5933837890625,794.981689453125,798.6080322265625,788.5347900390625
137,797.8021850585938,792.5640869140625,801.4285888671875,802.6373901367188
138,779.2673950195312,796.996337890625,799.8168334960938,798.6080322265625
139,780.879150390625,803.4432373046875,796.996337890625,787.7289428710938
140,795.3846435546875,805.054931640625,794.5787353515625,792.5640869140625
141,798.2051391601562,799.8168334960938,796.1904907226562,787.7289428710938
142,789.3406372070312,797.8021850585938,798.2051391601562,787.7289428710938
143,785.7142944335938,799.8168334960938,796.5933837890625,793.3699340820312
144,785.7142944335938,797.3992919921875,794.981689453125,784.908447265625
145,791.3552856445312,795.7875366210938,796.996337890625,781.2820434570312
146,792.5640869140625,793.7728881835938,797.8021850585938,786.923095703125
147,784.1025390625,793.7728881835938,795.7875366210938,783.6996459960938
148,784.5054931640625,791.3552856445312,793.3699340820312,783.2966918945312
149,784.908447265625,790.952392578125,794.1758422851562,789.7435913085938
150,782.087890625,793.7728881835938,794.981689453125,782.4908447265625
151,778.8644409179688,788.937744140625,794.5787353515625,781.2820434570312
152,778.05859375,790.1465454101562,794.1758422851562,789.7435913085938
153,786.1171875,796.1904907226562,793.3699340820312,787.7289428710938
154,790.1465454101562,793.7728881835938,795.3846435546875,783.2966918945312
155,783.2966918945312,794.981689453125,796.5933837890625,786.5201416015625
156,783.6996459960938,803.040283203125,796.996337890625,788.1318969726562
157,797.8021850585938,807.069580078125,799.8168334960938,790.952392578125
158,798.6080322265625,807.4725341796875,801.4285888671875,791.7582397460938
159,792.967041015625,806.6666870117188,796.5933837890625,790.952392578125
160,793.7728881835938,801.4285888671875,791.7582397460938,793.3699340820312
161,794.5787353515625,801.4285888671875,794.5787353515625,790.952392578125
162,794.5787353515625,804.6520385742188,795.3846435546875,786.1171875
163,793.7728881835938,799.010986328125,796.1904907226562,785.3113403320312
164,790.5494384765625,795.3846435546875,794.981689453125,787.7289428710938
165,791.3552856445312,796.5933837890625,796.1904907226562,791.3552856445312
166,790.952392578125,794.981689453125,796.1904907226562,787.3259887695312
167,800.6226806640625,792.967041015625,792.967041015625,783.6996459960938
168,800.6226806640625,797.3992919921875,797.3992919921875,789.3406372070312
169,779.2673950195312,797.8021850585938,794.1758422851562,781.6849975585938
170,781.2820434570312,799.8168334960938,790.1465454101562,777.6557006835938
171,788.1318969726562,803.040283203125,791.3552856445312,783.6996459960938
172,782.893798828125,801.4285888671875,789.7435913085938,784.1025390625
173,782.087890625,800.2197875976562,791.3552856445312,780.4761962890625
174,782.087890625,797.3992919921875,790.952392578125,779.6703491210938
175,783.2966918945312,799.010986328125,790.952392578125,786.923095703125
176,792.5640869140625,801.025634765625,792.967041015625,793.7728881835938
177,795.7875366210938,800.6226806640625,794.981689453125,786.1171875
178,788.1318969726562,792.5640869140625,791.3552856445312,779.6703491210938
179,784.5054931640625,789.3406372070312,788.5347900390625,784.908447265625
180,786.5201416015625,793.3699340820312,794.5787353515625,793.3699340820312
181,784.5054931640625,792.5640869140625,798.2051391601562,795.7875366210938
182,786.5201416015625,788.5347900390625,794.981689453125,796.5933837890625
183,786.1171875,788.1318969726562,793.3699340820312,801.4285888671875
184,787.7289428710938,790.952392578125,798.2051391601562,801.4285888671875
185,796.996337890625,792.5640869140625,799.8168334960938,796.1904907226562
186,793.3699340820312,788.1318969726562,794.981689453125,794.5787353515625
187,786.923095703125,783.2966918945312,791.3552856445312,791.7582397460938
188,794.1758422851562,782.4908447265625,792.5640869140625,785.7142944335938
189,793.3699340820312,785.3113403320312,794.981689453125,785.3113403320312
190,798.6080322265625,789.3406372070312,795.3846435546875,791.3552856445312
191,812.7106323242188,793.3699340820312,799.4139404296875,796.996337890625
192,801.025634765625,795.3846435546875,802.6373901367188,794.5787353515625
193,788.5347900390625,791.7582397460938,803.4432373046875,789.7435913085938
194,794.981689453125,790.952392578125,801.4285888671875,794.1758422851562
195,788.1318969726562,791.7582397460938,798.6080322265625,800.6226806640625
196,777.6557006835938,788.937744140625,803.8461303710938,798.6080322265625
197,779.2673950195312,790.952392578125,805.4578857421875,793.3699340820312
198,776.8497924804688,786.5201416015625,802.6373901367188,794.5787353515625
199,772.8204956054688,784.908447265625,805.4578857421875,796.1904907226562
200,782.087890625,786.5201416015625,805.054931640625,785.7142944335938
201,781.6849975585938,786.5201416015625,804.2490844726562,783.6996459960938
202,779.6703491210938,788.937744140625,803.040283203125,783.6996459960938
203,786.5201416015625,786.5201416015625,800.2197875976562,786.923095703125
204,788.1318969726562,785.7142944335938,799.8168334960938,788.5347900390625
205,787.3259887695312,788.1318969726562,802.6373901367188,789.7435913085938
206,787.7289428710938,786.5201416015625,807.069580078125,799.8168334960938
207,794.5787353515625,782.087890625,801.8314819335938,805.8607788085938
208,790.5494384765625,785.7142944335938,797.8021850585938,803.8461303710938
209,793.3699340820312,788.1318969726562,798.6080322265625,800.6226806640625
210,804.2490844726562,789.3406372070312,799.4139404296875,811.5018310546875
211,792.967041015625,792.1611938476562,800.6226806640625,815.93408203125
212,793.7728881835938,791.7582397460938,803.040283203125,815.93408203125
213,801.4285888671875,790.1465454101562,801.025634765625,815.5311279296875
214,802.2344360351562,793.3699340820312,797.8021850585938,810.2930297851562
215,806.6666870117188,796.5933837890625,796.5933837890625,809.4871826171875
216,808.6813354492188,795.3846435546875,796.996337890625,807.069580078125
217,810.2930297851562,798.6080322265625,795.3846435546875,810.2930297851562
218,811.5018310546875,801.4285888671875,792.1611938476562,810.2930297851562
219,805.4578857421875,792.1611938476562,787.3259887695312,794.981689453125
220,790.952392578125,788.1318969726562,784.5054931640625,783.6996459960938
221,785.7142944335938,793.3699340820312,786.1171875,784.1025390625
222,783.2966918945312,793.7728881835938,787.3259887695312,788.1318969726562
223,782.4908447265625,794.1758422851562,787.3259887695312,783.2966918945312
224,784.5054931640625,796.1904907226562,790.952392578125,779.2673950195312
225,783.6996459960938,790.1465454101562,794.981689453125,779.2673950195312
226,788.5347900390625,788.937744140625,801.025634765625,783.2966918945312
227,792.1611938476562,793.3699340820312,802.2344360351562,784.1025390625
228,788.1318969726562,790.1465454101562,801.8314819335938,783.2966918945312
229,786.5201416015625,790.1465454101562,807.4725341796875,787.3259887695312
230,790.5494384765625,794.1758422851562,810.2930297851562,786.1171875
231,789.3406372070312,796.1904907226562,810.2930297851562,785.3113403320312
232,788.5347900390625,796.1904907226562,807.069580078125,785.7142944335938
233,794.1758422851562,799.8168334960938,806.2637329101562,795.7875366210938
234,791.7582397460938,800.2197875976562,803.040283203125,793.3699340820312
235,780.4761962890625,793.3699340820312,798.2051391601562,776.8497924804688
236,779.2673950195312,792.967041015625,794.981689453125,778.8644409179688
237,781.6849975585938,789.7435913085938,793.7728881835938,783.6996459960938
238,782.087890625,784.1025390625,793.3699340820312,782.087890625
239,785.3113403320312,790.1465454101562,792.967041015625,784.5054931640625
240,787.7289428710938,797.3992919921875,797.8021850585938,786.923095703125
241,791.7582397460938,796.996337890625,798.6080322265625,792.967041015625
242,799.010986328125,793.3699340820312,797.3992919921875,798.6080322265625
243,798.2051391601562,786.5201416015625,799.010986328125,797.3992919921875
244,798.6080322265625,792.967041015625,800.2197875976562,800.2197875976562
245,799.010986328125,795.7875366210938,800.6226806640625,801.4285888671875
246,794.5787353515625,790.5494384765625,797.8021850585938,792.1611938476562
247,796.996337890625,790.1465454101562,798.6080322265625,787.7289428710938
248,795.3846435546875,788.1318969726562,797.8021850585938,784.908447265625
249,786.923095703125,790.5494384765625,791.7582397460938,778.4615478515625
250,782.893798828125,794.1758422851562,790.5494384765625,771.6116943359375
251,783.6996459960938,796.1904907226562,794.5787353515625,768.7911987304688
252,788.5347900390625,795.3846435546875,799.010986328125,771.6116943359375
253,788.5347900390625,795.3846435546875,795.3846435546875,765.5677490234375
254,780.0732421875,794.1758422851562,792.5640869140625,758.7179565429688
255,779.2673950195312,793.7728881835938,792.5640869140625,759.120849609375
256,776.8497924804688,792.967041015625,794.981689453125,762.7472534179688
257,776.8497924804688,797.8021850585938,798.2051391601562,767.5823974609375
258,782.893798828125,803.8461303710938,794.981689453125,773.2234497070312
259,778.8644409179688,798.6080322265625,798.2051391601562,774.029296875
260,779.6703491210938,794.5787353515625,803.8461303710938,778.8644409179688
261,783.6996459960938,796.5933837890625,804.6520385742188,787.3259887695312
262,788.5347900390625,795.7875366210938,801.8314819335938,794.1758422851562
263,792.967041015625,794.1758422851562,796.1904907226562,794.981689453125
264,787.3259887695312,795.3846435546875,795.3846435546875,793.3699340820312
265,790.5494384765625,795.7875366210938,801.8314819335938,801.025634765625
266,799.8168334960938,800.2197875976562,803.040283203125,808.2783813476562
267,801.4285888671875,797.8021850585938,801.025634765625,819.5604248046875
268,806.6666870117188,798.2051391601562,804.2490844726562,826.8131713867188
269,812.3076782226562,805.4578857421875,805.8607788085938,820.3662719726562
270,809.4871826171875,801.4285888671875,803.4432373046875,811.90478515625
271,808.6813354492188,800.6226806640625,806.6666870117188,811.5018310546875
272,811.90478515625,804.2490844726562,809.084228515625,815.1282348632812
273,813.113525390625,802.2344360351562,805.054931640625,812.3076782226562
274,813.113525390625,805.4578857421875,804.2490844726562,811.5018310546875
275,803.040283203125,805.8607788085938,803.040283203125,811.5018310546875
276,793.7728881835938,799.8168334960938,801.8314819335938,801.8314819335938
277,794.981689453125,796.1904907226562,802.6373901367188,790.1465454101562
278,798.2051391601562,797.8021850585938,801.025634765625,793.7728881835938
279,790.952392578125,796.5933837890625,801.025634765625,796.996337890625
280,786.5201416015625,791.7582397460938,798.6080322265625,791.7582397460938
281,786.5201416015625,794.1758422851562,792.967041015625,790.952392578125
282,782.087890625,796.1904907226562,791.3552856445312,788.5347900390625
283,784.1025390625,791.3552856445312,794.1758422851562,794.5787353515625
284,782.893798828125,788.5347900390625,794.981689453125,798.2051391601562
285,776.8497924804688,792.967041015625,797.8021850585938,790.1465454101562
286,767.9853515625,790.1465454101562,798.2051391601562,783.2966918945312
287,767.9853515625,785.3113403320312,792.1611938476562,779.6703491210938
288,772.0146484375,786.923095703125,790.5494384765625,780.879150390625
289,779.6703491210938,790.1465454101562,792.5640869140625,781.2820434570312
290,785.3113403320312,792.1611938476562,798.2051391601562,785.3113403320312
291,781.2820434570312,790.1465454101562,794.5787353515625,786.1171875
292,778.05859375,790.5494384765625,792.1611938476562,783.2966918945312
293,779.2673950195312,788.1318969726562,794.5787353515625,784.908447265625
294,790.1465454101562,788.937744140625,793.3699340820312,794.1758422851562
295,790.1465454101562,790.952392578125,793.7728881835938,797.8021850585938
296,786.5201416015625,789.7435913085938,791.7582397460938,786.1171875
297,793.7728881835938,782.893798828125,789.3406372070312,783.2966918945312
298,796.5933837890625,780.4761962890625,786.1171875,784.5054931640625
299,794.981689453125,786.1171875,790.1465454101562,782.087890625
300,798.2051391601562,789.3406372070312,792.5640869140625,784.1025390625
301,796.1904907226562,790.1465454101562,792.5640869140625,791.3552856445312
302,794.981689453125,792.5640869140625,794.5787353515625,788.5347900390625
303,793.7728881835938,794.1758422851562,792.967041015625,786.5201416015625
304,792.5640869140625,790.952392578125,794.1758422851562,791.3552856445312
305,793.7728881835938,788.1318969726562,798.6080322265625,789.3406372070312
306,791.7582397460938,789.3406372070312,800.2197875976562,794.1758422851562
307,791.7582397460938,794.1758422851562,803.4432373046875,794.5787353515625
308,792.1611938476562,797.8021850585938,805.8607788085938,786.5201416015625
309,794.981689453125,796.1904907226562,803.8461303710938,789.3406372070312
310,801.8314819335938,789.7435913085938,800.2197875976562,788.5347900390625
311,791.7582397460938,783.6996459960938,799.8168334960938,776.8497924804688
312,780.879150390625,786.1171875,796.5933837890625,775.6410522460938
313,784.1025390625,790.1465454101562,794.5787353515625,780.0732421875
314,793.7728881835938,788.937744140625,796.5933837890625,781.6849975585938
315,787.7289428710938,783.6996459960938,795.3846435546875,776.4468994140625
316,769.1941528320312,778.05859375,794.1758422851562,773.2234497070312
317,772.4176025390625,776.0439453125,792.5640869140625,780.879150390625
318,773.6264038085938,775.2380981445312,789.3406372070312,780.4761962890625
319,777.6557006835938,781.6849975585938,788.937744140625,779.2673950195312
320,788.937744140625,784.5054931640625,794.1758422851562,783.6996459960938
321,786.5201416015625,788.937744140625,791.7582397460938,780.4761962890625
322,790.952392578125,796.5933837890625,787.3259887695312,785.7142944335938
323,801.8314819335938,794.981689453125,793.3699340820312,793.3699340820312
324,807.4725341796875,794.5787353515625,792.1611938476562,790.1465454101562
325,809.4871826171875,796.5933837890625,787.3259887695312,788.937744140625
326,807.069580078125,802.2344360351562,789.3406372070312,796.1904907226562
327,800.6226806640625,804.6520385742188,787.7289428710938,790.952392578125
328,798.2051391601562,800.2197875976562,787.3259887695312,790.1465454101562
329,799.4139404296875,798.2051391601562,789.3406372070312,801.8314819335938
330,797.8021850585938,797.3992919921875,786.923095703125,793.3699340820312
331,796.1904907226562,797.8021850585938,786.1171875,785.7142944335938
332,796.996337890625,801.8314819335938,788.937744140625,789.7435913085938
333,806.6666870117188,797.8021850585938,793.3699340820312,792.967041015625
334,804.6520385742188,795.7875366210938,792.1611938476562,790.1465454101562
335,795.7875366210938,799.4139404296875,790.1465454101562,792.5640869140625
336,803.4432373046875,797.8021850585938,790.5494384765625,794.5787353515625
337,798.6080322265625,799.4139404296875,793.3699340820312,792.967041015625
338,782.087890625,798.6080322265625,793.3699340820312,789.7435913085938
339,780.4761962890625,795.3846435546875,789.3406372070312,779.6703491210938
340,793.3699340820312,792.967041015625,791.3552856445312,782.4908447265625
341,795.3846435546875,797.3992919921875,794.981689453125,786.1171875
342,783.6996459960938,801.4285888671875,796.5933837890625,781.2820434570312
343,783.2966918945312,798.6080322265625,795.7875366210938,782.893798828125
344,784.908447265625,795.7875366210938,792.967041015625,779.6703491210938
345,789.7435913085938,794.5787353515625,794.1758422851562,776.4468994140625
346,790.952392578125,796.1904907226562,794.1758422851562,779.2673950195312
347,790.952392578125,791.3552856445312,796.5933837890625,786.1171875
348,794.5787353515625,789.3406372070312,800.6226806640625,785.3113403320312
349,790.1465454101562,788.5347900390625,797.3992919921875,781.6849975585938
350,788.937744140625,788.5347900390625,801.4285888671875,786.1171875
351,784.1025390625,791.3552856445312,799.010986328125,786.923095703125
352,777.6557006835938,790.952392578125,793.3699340820312,789.7435913085938
353,784.908447265625,790.1465454101562,798.6080322265625,790.1465454101562
354,785.7142944335938,792.967041015625,795.3846435546875,779.6703491210938
355,781.6849975585938,795.7875366210938,791.3552856445312,778.8644409179688
356,784.908447265625,792.967041015625,794.5787353515625,786.923095703125
357,782.087890625,789.7435913085938,796.996337890625,783.6996459960938
358,784.908447265625,788.1318969726562,796.996337890625,779.6703491210938
359,787.3259887695312,788.937744140625,797.8021850585938,789.3406372070312
360,790.952392578125,788.5347900390625,793.7728881835938,789.7435913085938
361,795.7875366210938,785.7142944335938,789.7435913085938,788.937744140625
362,784.1025390625,784.5054931640625,788.5347900390625,784.5054931640625
363,784.5054931640625,789.7435913085938,789.7435913085938,782.4908447265625
364,790.1465454101562,796.1904907226562,790.1465454101562,786.1171875
365,788.1318969726562,796.5933837890625,789.7435913085938,785.3113403320312
366,788.5347900390625,792.5640869140625,788.5347900390625,782.893798828125
367,795.7875366210938,794.981689453125,788.937744140625,787.3259887695312
368,798.2051391601562,798.6080322265625,793.3699340820312,790.5494384765625
369,805.054931640625,796.996337890625,796.1904907226562,786.923095703125
370,805.8607788085938,795.7875366210938,798.6080322265625,787.3259887695312
371,795.3846435546875,796.1904907226562,801.8314819335938,789.3406372070312
372,779.6703491210938,795.7875366210938,803.4432373046875,784.5054931640625
373,772.0146484375,790.952392578125,801.4285888671875,778.4615478515625
374,780.4761962890625,792.5640869140625,797.3992919921875,779.2673950195312
375,786.5201416015625,792.967041015625,794.1758422851562,784.908447265625
376,793.3699340820312,796.1904907226562,793.3699340820312,794.1758422851562
377,792.967041015625,802.6373901367188,794.5787353515625,786.1171875
378,783.2966918945312,798.2051391601562,793.7728881835938,779.2673950195312
379,782.893798828125,794.5787353515625,794.1758422851562,790.952392578125
380,786.923095703125,793.3699340820312,794.5787353515625,790.952392578125
381,786.5201416015625,794.1758422851562,792.1611938476562,784.5054931640625
382,789.3406372070312,793.7728881835938,794.5787353515625,788.937744140625
383,790.1465454101562,795.3846435546875,798.6080322265625,793.3699340820312
384,790.1465454101562,792.5640869140625,799.010986328125,796.5933837890625
385,788.1318969726562,786.5201416015625,797.3992919921875,798.6080322265625
386,784.5054931640625,787.7289428710938,793.7728881835938,795.3846435546875
387,778.4615478515625,790.952392578125,786.923095703125,786.923095703125
388,778.05859375,788.1318969726562,785.7142944335938,785.3113403320312
389,781.2820434570312,782.087890625,786.5201416015625,777.2527465820312
390,788.937744140625,781.2820434570312,785.7142944335938,773.2234497070312
391,790.5494384765625,781.6849975585938,785.7142944335938,779.2673950195312
392,789.7435913085938,783.6996459960938,785.3113403320312,769.5970458984375
393,799.4139404296875,785.3113403320312,786.1171875,767.9853515625
394,791.3552856445312,786.923095703125,786.5201416015625,776.0439453125
395,782.4908447265625,785.3113403320312,784.1025390625,775.6410522460938
396,787.3259887695312,788.937744140625,782.893798828125,778.8644409179688
397,780.4761962890625,794.981689453125,790.1465454101562,778.8644409179688
398,775.6410522460938,796.996337890625,793.3699340820312,775.6410522460938
399,780.4761962890625,803.8461303710938,792.1611938476562,783.2966918945312
400,782.4908447265625,806.2637329101562,796.1904907226562,790.952392578125
401,784.908447265625,797.8021850585938,795.7875366210938,790.1465454101562
402,782.4908447265625,792.967041015625,796.1904907226562,792.1611938476562
403,776.4468994140625,792.5640869140625,798.2051391601562,786.5201416015625
404,774.029296875,794.1758422851562,799.010986328125,782.4908447265625
405,777.2527465820312,797.3992919921875,802.6373901367188,789.7435913085938
406,785.7142944335938,798.2051391601562,802.2344360351562,792.1611938476562
407,790.952392578125,792.5640869140625,798.6080322265625,792.967041015625
408,792.967041015625,792.967041015625,796.1904907226562,788.5347900390625
409,782.893798828125,797.3992919921875,796.5933837890625,784.5054931640625
410,776.4468994140625,795.3846435546875,797.3992919921875,790.5494384765625
411,789.3406372070312,792.967041015625,796.996337890625,790.952392578125
412,796.1904907226562,790.5494384765625,798.2051391601562,788.1318969726562
413,793.7728881835938,788.5347900390625,801.8314819335938,792.967041015625
414,792.5640869140625,787.7289428710938,800.6226806640625,795.3846435546875
415,794.5787353515625,786.923095703125,801.025634765625,788.1318969726562
416,794.5787353515625,787.3259887695312,799.4139404296875,782.893798828125
417,799.010986328125,790.952392578125,798.6080322265625,788.5347900390625
418,798.2051391601562,790.1465454101562,799.4139404296875,792.5640869140625
419,795.7875366210938,792.967041015625,796.5933837890625,790.952392578125
420,790.5494384765625,797.3992919921875,799.4139404296875,794.5787353515625
421,789.3406372070312,796.996337890625,799.4139404296875,802.6373901367188
422,794.1758422851562,794.5787353515625,800.6226806640625,800.6226806640625
423,786.5201416015625,786.923095703125,798.6080322265625,795.3846435546875
424,782.893798828125,785.7142944335938,798.6080322265625,796.996337890625
425,785.3113403320312,787.3259887695312,798.6080322265625,801.8314819335938
426,782.4908447265625,788.5347900390625,797.8021850585938,801.4285888671875
427,784.908447265625,792.967041015625,796.996337890625,790.5494384765625
428,792.5640869140625,797.3992919921875,800.6226806640625,796.1904907226562
429,784.1025390625,797.3992919921875,802.2344360351562,797.3992919921875
430,780.879150390625,795.3846435546875,797.3992919921875,789.7435913085938
431,785.7142944335938,793.7728881835938,799.010986328125,793.3699340820312
432,786.1171875,791.7582397460938,799.010986328125,788.937744140625
433,786.923095703125,793.7728881835938,796.996337890625,787.7289428710938
434,792.1611938476562,793.7728881835938,798.2051391601562,787.7289428710938
435,801.4285888671875,795.3846435546875,799.4139404296875,784.5054931640625
436,803.040283203125,800.2197875976562,795.3846435546875,785.3113403320312
437,800.2197875976562,798.6080322265625,793.3699340820312,786.923095703125
438,809.89013671875,801.4285888671875,793.7728881835938,790.952392578125
439,804.2490844726562,803.4432373046875,792.1611938476562,787.7289428710938
440,790.1465454101562,802.6373901367188,791.3552856445312,785.3113403320312
441,794.981689453125,797.3992919921875,790.5494384765625,789.3406372070312
442,799.4139404296875,791.3552856445312,792.1611938476562,792.1611938476562
443,797.3992919921875,788.937744140625,792.967041015625,790.952392578125
444,793.3699340820312,786.1171875,791.7582397460938,790.5494384765625
445,786.923095703125,788.937744140625,791.3552856445312,796.5933837890625
446,781.6849975585938,791.3552856445312,794.981689453125,795.7875366210938
447,790.1465454101562,790.1465454101562,797.3992919921875,794.5787353515625
448,794.5787353515625,793.3699340820312,797.3992919921875,797.8021850585938
449,783.2966918945312,794.5787353515625,799.010986328125,794.1758422851562
450,786.1171875,796.996337890625,802.2344360351562,788.5347900390625
451,795.7875366210938,797.8021850585938,803.4432373046875,789.7435913085938
452,796.5933837890625,795.7875366210938,805.054931640625,791.7582397460938
453,800.6226806640625,796.5933837890625,809.4871826171875,797.3992919921875
454,799.8168334960938,796.996337890625,807.87548828125,799.010986328125
455,789.7435913085938,798.6080322265625,802.6373901367188,795.7875366210938
456,789.7435913085938,798.6080322265625,805.8607788085938,796.1904907226562
457,796.5933837890625,796.5933837890625,809.084228515625,799.8168334960938
458,793.7728881835938,791.3552856445312,804.2490844726562,792.5640869140625
459,792.967041015625,798.6080322265625,801.4285888671875,785.7142944335938
460,791.3552856445312,801.4285888671875,799.4139404296875,788.937744140625
461,783.6996459960938,793.3699340820312,799.4139404296875,781.2820434570312
462,791.7582397460938,792.1611938476562,797.3992919921875,780.0732421875
463,803.8461303710938,791.7582397460938,797.3992919921875,785.7142944335938
464,793.3699340820312,789.3406372070312,798.6080322265625,786.1171875
465,783.2966918945312,790.952392578125,799.010986328125,782.893798828125
466,780.0732421875,794.1758422851562,797.8021850585938,784.1025390625
467,779.2673950195312,796.5933837890625,794.5787353515625,783.2966918945312
468,785.3113403320312,794.5787353515625,796.1904907226562,787.3259887695312
469,788.1318969726562,794.1758422851562,797.8021850585938,793.3699340820312
470,784.908447265625,794.5787353515625,800.2197875976562,789.3406372070312
471,786.1171875,792.5640869140625,800.2197875976562,790.5494384765625
472,788.937744140625,798.2051391601562,800.6226806640625,794.5787353515625
473,789.3406372070312,801.025634765625,799.010986328125,790.5494384765625
474,793.3699340820312,798.2051391601562,794.981689453125,788.5347900390625
475,789.3406372070312,800.6226806640625,793.3699340820312,792.5640869140625
476,780.4761962890625,802.2344360351562,792.1611938476562,790.1465454101562
477,782.087890625,795.3846435546875,791.7582397460938,783.6996459960938
478,793.7728881835938,792.967041015625,794.5787353515625,789.7435913085938
479,793.3699340820312,796.5933837890625,796.1904907226562,796.1904907226562
480,788.5347900390625,801.4285888671875,792.1611938476562,786.923095703125
481,789.7435913085938,799.010986328125,786.1171875,785.3113403320312
482,787.3259887695312,799.010986328125,790.952392578125,788.5347900390625
483,796.1904907226562,805.054931640625,795.7875366210938,790.5494384765625
484,799.8168334960938,803.4432373046875,795.7875366210938,789.7435913085938
485,796.996337890625,803.4432373046875,796.996337890625,788.5347900390625
486,795.7875366210938,804.2490844726562,792.5640869140625,794.981689453125
487,793.7728881835938,801.025634765625,794.1758422851562,796.996337890625
488,794.981689453125,802.6373901367188,799.010986328125,794.5787353515625
489,793.7728881835938,799.8168334960938,797.3992919921875,795.7875366210938
490,793.3699340820312,794.1758422851562,794.981689453125,796.996337890625
491,787.3259887695312,793.7728881835938,796.1904907226562,794.981689453125
492,781.6849975585938,799.4139404296875,798.6080322265625,793.3699340820312
493,782.4908447265625,799.4139404296875,796.5933837890625,792.967041015625
494,781.6849975585938,794.5787353515625,792.5640869140625,791.3552856445312
495,780.4761962890625,795.7875366210938,794.5787353515625,790.1465454101562
496,781.2820434570312,794.981689453125,797.3992919921875,787.7289428710938
497,778.05859375,792.967041015625,797.8021850585938,788.5347900390625
498,776.4468994140625,794.981689453125,798.6080322265625,796.1904907226562
499,777.2527465820312,792.5640869140625,799.8168334960938,790.952392578125
500,774.029296875,794.981689453125,795.7875366210938,786.1171875
501,775.2380981445312,791.7582397460938,796.996337890625,785.7142944335938
502,781.6849975585938,788.1318969726562,798.2051391601562,782.087890625
503,784.908447265625,792.5640869140625,792.5640869140625,786.5201416015625
504,779.6703491210938,795.3846435546875,784.908447265625,786.923095703125
505,780.0732421875,794.981689453125,782.893798828125,788.1318969726562
506,780.879150390625,788.5347900390625,785.3113403320312,788.1318969726562
507,784.5054931640625,785.7142944335938,785.7142944335938,786.5201416015625
508,785.7142944335938,790.1465454101562,788.5347900390625,787.7289428710938
509,779.6703491210938,794.1758422851562,790.1465454101562,792.967041015625
510,780.879150390625,795.3846435546875,791.7582397460938,793.7728881835938
511,784.1025390625,794.981689453125,789.3406372070312,784.908447265625
512,788.1318969726562,796.5933837890625,792.1611938476562,786.5201416015625
513,788.937744140625,801.025634765625,796.5933837890625,786.5201416015625
514,783.6996459960938,802.2344360351562,796.996337890625,788.937744140625
515,779.6703491210938,795.3846435546875,797.8021850585938,788.1318969726562
516,780.4761962890625,786.923095703125,792.967041015625,784.1025390625
517,783.2966918945312,788.1318969726562,786.1171875,789.7435913085938
518,784.1025390625,793.3699340820312,782.4908447265625,794.5787353515625
519,781.6849975585938,790.952392578125,786.5201416015625,793.3699340820312
520,779.2673950195312,794.5787353515625,792.5640869140625,785.7142944335938
521,788.5347900390625,793.7728881835938,793.7728881835938,790.1465454101562
522,791.7582397460938,790.5494384765625,789.3406372070312,791.7582397460938
523,794.5787353515625,796.1904907226562,789.7435913085938,790.5494384765625
524,802.2344360351562,794.5787353515625,790.5494384765625,792.967041015625
525,803.4432373046875,792.5640869140625,787.7289428710938,786.5201416015625
526,798.6080322265625,796.1904907226562,788.5347900390625,782.893798828125
527,789.7435913085938,796.1904907226562,793.3699340820312,786.1171875
528,792.1611938476562,795.7875366210938,795.3846435546875,788.937744140625
529,792.1611938476562,795.7875366210938,793.3699340820312,784.908447265625
530,795.7875366210938,795.3846435546875,788.5347900390625,785.3113403320312
531,802.2344360351562,794.1758422851562,789.7435913085938,787.3259887695312
532,790.5494384765625,787.3259887695312,790.5494384765625,787.7289428710938
533,788.5347900390625,787.7289428710938,791.7582397460938,796.996337890625
534,794.1758422851562,793.7728881835938,795.7875366210938,794.1758422851562
535,792.1611938476562,791.3552856445312,795.7875366210938,787.3259887695312
536,788.5347900390625,786.1171875,794.981689453125,790.1465454101562
537,778.4615478515625,788.5347900390625,794.981689453125,788.1318969726562
538,776.4468994140625,788.937744140625,792.967041015625,783.6996459960938
539,778.05859375,778.4615478515625,793.7728881835938,784.5054931640625
540,788.1318969726562,781.2820434570312,798.2051391601562,786.1171875
541,790.952392578125,786.5201416015625,796.5933837890625,783.6996459960938
542,782.087890625,784.5054931640625,793.3699340820312,784.1025390625
543,784.1025390625,780.879150390625,792.5640869140625,782.087890625
544,789.3406372070312,777.6557006835938,790.1465454101562,784.908447265625
545,794.981689453125,783.6996459960938,795.7875366210938,790.1465454101562
546,792.967041015625,791.7582397460938,798.2051391601562,782.4908447265625
547,796.5933837890625,790.952392578125,795.7875366210938,782.4908447265625
548,796.996337890625,785.7142944335938,797.8021850585938,786.5201416015625
549,792.5640869140625,792.5640869140625,799.010986328125,791.3552856445312
550,798.2051391601562,796.996337890625,798.6080322265625,793.3699340820312
551,794.981689453125,791.3552856445312,795.3846435546875,789.3406372070312
552,793.7728881835938,792.1611938476562,799.8168334960938,793.7728881835938
553,790.5494384765625,792.5640869140625,801.4285888671875,799.4139404296875
554,783.2966918945312,791.3552856445312,799.8168334960938,799.8168334960938
555,778.8644409179688,790.952392578125,797.3992919921875,793.7728881835938
556,780.879150390625,791.3552856445312,796.1904907226562,794.5787353515625
557,786.1171875,791.7582397460938,796.996337890625,794.5787353515625
558,790.952392578125,790.1465454101562,791.3552856445312,792.967041015625
559,790.5494384765625,793.7728881835938,789.3406372070312,796.5933837890625
560,789.3406372070312,797.8021850585938,795.3846435546875,795.3846435546875
561,790.5494384765625,794.981689453125,799.010986328125,791.3552856445312
562,790.952392578125,795.7875366210938,799.010986328125,787.3259887695312
563,788.5347900390625,799.8168334960938,800.2197875976562,783.2966918945312
564,779.6703491210938,797.3992919921875,797.3992919921875,777.6557006835938
565,782.893798828125,798.2051391601562,793.3699340820312,775.6410522460938
566,789.7435913085938,797.8021850585938,793.3699340820312,776.0439453125
567,785.3113403320312,795.3846435546875,791.7582397460938,778.8644409179688
568,787.3259887695312,795.3846435546875,793.3699340820312,783.2966918945312
569,790.952392578125,789.7435913085938,793.3699340820312,783.2966918945312
570,791.3552856445312,787.3259887695312,792.967041015625,788.1318969726562
571,793.3699340820312,789.3406372070312,797.3992919921875,793.3699340820312
572,793.7728881835938,789.3406372070312,796.5933837890625,788.1318969726562
573,792.967041015625,786.923095703125,793.7728881835938,786.923095703125
574,795.7875366210938,789.7435913085938,793.7728881835938,792.5640869140625
575,798.6080322265625,795.7875366210938,796.1904907226562,795.7875366210938
576,792.5640869140625,795.7875366210938,797.8021850585938,792.967041015625
577,784.1025390625,794.5787353515625,799.8168334960938,789.3406372070312
578,784.1025390625,796.5933837890625,803.8461303710938,795.3846435546875
579,786.1171875,794.1758422851562,803.8461303710938,799.010986328125
580,796.5933837890625,795.3846435546875,801.025634765625,797.8021850585938
581,799.8168334960938,798.6080322265625,796.5933837890625,794.5787353515625
582,790.1465454101562,796.1904907226562,797.3992919921875,792.1611938476562
583,792.967041015625,800.6226806640625,801.025634765625,792.967041015625
584,796.996337890625,805.054931640625,796.5933837890625,790.5494384765625
585,793.7728881835938,799.010986328125,796.996337890625,792.1611938476562
586,785.3113403320312,794.1758422851562,795.7875366210938,790.5494384765625
587,783.6996459960938,799.8168334960938,794.981689453125,788.1318969726562
588,784.908447265625,804.6520385742188,796.1904907226562,785.3113403320312
589,784.1025390625,802.2344360351562,792.5640869140625,789.3406372070312
590,796.1904907226562,799.4139404296875,796.996337890625,793.3699340820312
591,792.967041015625,799.010986328125,795.3846435546875,788.937744140625
592,780.4761962890625,796.1904907226562,794.5787353515625,792.1611938476562
593,784.1025390625,790.1465454101562,794.5787353515625,786.923095703125
594,780.4761962890625,787.7289428710938,795.3846435546875,784.908447265625
595,784.1025390625,798.2051391601562,801.025634765625,796.996337890625
596,790.952392578125,802.6373901367188,799.8168334960938,796.996337890625
597,792.967041015625,795.7875366210938,799.4139404296875,795.7875366210938
598,793.7728881835938,794.5787353515625,799.010986328125,793.7728881835938
599,795.7875366210938,792.5640869140625,799.8168334960938,789.3406372070312
600,801.8314819335938,793.7728881835938,803.4432373046875,795.3846435546875
601,801.8314819335938,800.6226806640625,804.2490844726562,798.6080322265625
602,798.2051391601562,797.8021850585938,799.4139404296875,793.7728881835938
603,803.4432373046875,797.3992919921875,799.010986328125,793.3699340820312
604,800.2197875976562,797.3992919921875,803.8461303710938,796.996337890625
605,795.3846435546875,792.967041015625,807.069580078125,792.5640869140625
606,797.3992919921875,794.1758422851562,810.6959838867188,790.1465454101562
607,786.923095703125,788.937744140625,804.2490844726562,785.7142944335938
608,779.2673950195312,782.4908447265625,796.5933837890625,783.2966918945312
609,782.893798828125,789.3406372070312,797.3992919921875,781.2820434570312
610,786.1171875,791.7582397460938,795.7875366210938,783.2966918945312
611,789.3406372070312,790.5494384765625,790.952392578125,784.1025390625
612,791.7582397460938,792.1611938476562,790.952392578125,777.2527465820312
613,792.967041015625,793.3699340820312,793.3699340820312,782.893798828125
614,789.7435913085938,794.1758422851562,795.3846435546875,786.1171875
615,788.1318969726562,791.3552856445312,793.3699340820312,780.4761962890625
616,786.923095703125,788.1318969726562,790.952392578125,774.8351440429688
617,785.3113403320312,784.1025390625,793.7728881835938,781.2820434570312
618,781.6849975585938,781.6849975585938,791.7582397460938,784.5054931640625
619,780.0732421875,780.879150390625,790.952392578125,782.087890625
620,785.7142944335938,778.8644409179688,793.7728881835938,783.6996459960938
621,792.967041015625,781.6849975585938,795.7875366210938,788.1318969726562
622,795.7875366210938,786.5201416015625,795.3846435546875,797.3992919921875
623,797.3992919921875,793.3699340820312,794.1758422851562,797.3992919921875
624,797.3992919921875,797.8021850585938,797.3992919921875,789.7435913085938
625,784.5054931640625,791.7582397460938,796.996337890625,786.5201416015625
626,781.2820434570312,790.5494384765625,794.981689453125,784.908447265625
627,794.1758422851562,790.5494384765625,795.3846435546875,792.1611938476562
628,796.996337890625,790.952392578125,794.981689453125,795.7875366210938
629,788.1318969726562,790.1465454101562,790.952392578125,785.3113403320312
630,784.908447265625,786.1171875,791.7582397460938,780.4761962890625
631,791.3552856445312,788.1318969726562,792.967041015625,786.923095703125
632,788.937744140625,790.952392578125,794.5787353515625,784.1025390625
633,780.879150390625,785.3113403320312,797.8021850585938,781.6849975585938
634,780.879150390625,784.1025390625,798.6080322265625,787.3259887695312
635,781.6849975585938,790.1465454101562,795.7875366210938,790.952392578125
636,783.6996459960938,794.981689453125,795.7875366210938,791.3552856445312
637,784.1025390625,795.3846435546875,798.6080322265625,791.7582397460938
638,782.4908447265625,794.5787353515625,794.981689453125,788.1318969726562
639,785.7142944335938,794.5787353515625,795.7875366210938,785.7142944335938
640,782.893798828125,792.1611938476562,794.5787353515625,785.3113403320312
641,784.908447265625,789.3406372070312,792.5640869140625,782.087890625
642,786.923095703125,796.1904907226562,794.981689453125,787.3259887695312
643,786.923095703125,802.2344360351562,791.3552856445312,795.3846435546875
644,786.1171875,803.040283203125,792.5640869140625,788.937744140625
645,786.1171875,803.8461303710938,796.5933837890625,784.5054931640625
646,794.5787353515625,799.8168334960938,796.5933837890625,786.1171875
647,799.010986328125,799.010986328125,796.5933837890625,787.3259887695312
648,797.3992919921875,799.4139404296875,795.7875366210938,787.7289428710938
649,799.8168334960938,798.6080322265625,795.7875366210938,790.1465454101562
650,799.010986328125,799.8168334960938,801.8314819335938,797.3992919921875
651,786.923095703125,805.054931640625,804.6520385742188,792.967041015625
652,780.879150390625,805.8607788085938,800.2197875976562,786.923095703125
653,785.7142944335938,803.8461303710938,799.8168334960938,792.967041015625
654,782.087890625,801.8314819335938,798.6080322265625,796.1904907226562
655,776.0439453125,800.6226806640625,796.996337890625,788.1318969726562
656,777.2527465820312,796.1904907226562,796.5933837890625,779.2673950195312
657,783.2966918945312,797.3992919921875,798.2051391601562,780.879150390625
658,781.2820434570312,803.040283203125,801.025634765625,785.7142944335938
659,778.8644409179688,803.040283203125,799.8168334960938,786.923095703125
660,774.029296875,798.2051391601562,795.3846435546875,783.6996459960938
661,776.4468994140625,796.5933837890625,796.5933837890625,781.6849975585938
662,780.0732421875,801.4285888671875,799.010986328125,776.0439453125
663,782.4908447265625,809.084228515625,803.4432373046875,778.4615478515625
664,780.4761962890625,810.2930297851562,801.8314819335938,778.05859375
665,769.1941528320312,807.4725341796875,792.1611938476562,765.5677490234375
666,771.6116943359375,820.7692260742188,792.5640869140625,759.5238037109375
667,761.94140625,825.2014770507812,788.1318969726562,748.6447143554688
668,749.8534545898438,826.00732421875,781.2820434570312,738.974365234375
669,751.4652099609375,846.5567626953125,785.7142944335938,739.7802124023438
670,736.1538696289062,856.6300659179688,782.893798828125,728.901123046875
671,708.3516235351562,852.1978149414062,777.2527465820312,702.3076782226562
672,694.6520385742188,862.2710571289062,785.3113403320312,684.981689453125
673,691.025634765625,872.7472534179688,789.7435913085938,678.1318969726562
674,673.6996459960938,865.8974609375,776.8497924804688,664.8351440429688
675,663.6264038085938,861.062255859375,775.2380981445312,655.1648559570312
676,650.7326049804688,855.8241577148438,780.879150390625,649.120849609375
677,637.032958984375,856.2271118164062,788.1318969726562,642.6740112304688
678,635.4212646484375,861.062255859375,792.5640869140625,640.2564086914062
679,629.3773193359375,853.003662109375,790.5494384765625,639.047607421875
680,635.4212646484375,854.2124633789062,789.3406372070312,642.6740112304688
681,647.106201171875,853.8095092773438,788.5347900390625,653.9560546875
682,648.3150024414062,846.1538696289062,790.952392578125,658.3883056640625
683,658.7911987304688,842.5274658203125,792.5640869140625,662.8204956054688
684,671.6849975585938,838.09521484375,788.937744140625,668.05859375
685,679.3406372070312,829.6337280273438,790.5494384765625,675.7142944335938
686,693.040283203125,832.8571166992188,794.1758422851562,690.6226806640625
687,703.91943359375,847.3626098632812,794.5787353515625,697.4725341796875
688,714.3956298828125,844.945068359375,794.5787353515625,704.3223266601562
689,723.6630249023438,839.3040161132812,792.5640869140625,715.2014770507812
690,732.12451171875,837.6923217773438,789.7435913085938,720.8424682617188
691,738.1685180664062,836.886474609375,790.952392578125,730.5128173828125
692,748.2417602539062,840.5128173828125,791.3552856445312,750.2564086914062
693,756.3003540039062,838.09521484375,789.7435913085938,757.912109375
694,760.7326049804688,827.2161254882812,790.1465454101562,759.5238037109375
695,769.5970458984375,820.3662719726562,790.952392578125,767.5823974609375
696,775.2380981445312,812.3076782226562,794.981689453125,771.2088012695312
697,784.908447265625,805.054931640625,800.2197875976562,774.8351440429688
698,783.2966918945312,805.4578857421875,800.2197875976562,781.2820434570312
699,779.6703491210938,807.4725341796875,800.6226806640625,792.1611938476562
700,791.7582397460938,800.6226806640625,799.010986328125,800.6226806640625
701,799.4139404296875,788.5347900390625,790.5494384765625,797.3992919921875
702,798.6080322265625,782.893798828125,787.3259887695312,801.025634765625
703,805.8607788085938,780.0732421875,789.7435913085938,814.3223266601562
704,812.3076782226562,776.4468994140625,795.3846435546875,824.7985229492188
705,808.2783813476562,770.4029541015625,801.8314819335938,830.03662109375
706,811.098876953125,767.1795043945312,800.2197875976562,831.6483764648438
707,813.91943359375,765.970703125,794.1758422851562,833.2600708007812
708,820.7692260742188,762.3442993164062,797.8021850585938,835.2747192382812
709,827.2161254882812,761.94140625,803.8461303710938,839.3040161132812
710,828.02197265625,760.7326049804688,805.054931640625,836.08056640625
711,832.4542236328125,761.5384521484375,805.4578857421875,835.6776733398438
712,834.06591796875,767.9853515625,807.4725341796875,839.3040161132812
713,833.2600708007812,764.3589477539062,805.4578857421875,840.915771484375
714,841.7216186523438,759.9267578125,798.6080322265625,843.7362670898438
715,847.7655639648438,759.5238037109375,796.1904907226562,846.959716796875
716,846.959716796875,759.5238037109375,797.3992919921875,850.1831665039062
717,848.5714111328125,761.94140625,797.3992919921875,841.3186645507812
718,851.3919677734375,759.5238037109375,796.1904907226562,838.901123046875
719,850.5860595703125,764.7619018554688,799.010986328125,847.7655639648438
720,845.3479614257812,766.7765502929688,798.6080322265625,843.7362670898438
721,846.5567626953125,763.5531005859375,796.5933837890625,844.1392211914062
722,842.5274658203125,760.3296508789062,796.996337890625,842.930419921875
723,836.4835205078125,760.3296508789062,799.010986328125,834.4688720703125
724,832.8571166992188,763.9560546875,799.010986328125,832.05126953125
725,830.4395751953125,761.1355590820312,795.7875366210938,830.03662109375
726,834.8717651367188,761.94140625,794.5787353515625,832.8571166992188
727,828.02197265625,766.7765502929688,794.981689453125,837.6923217773438
728,823.1868286132812,767.9853515625,791.7582397460938,830.8424682617188
729,823.99267578125,765.970703125,786.923095703125,823.5897216796875
730,824.7985229492188,767.5823974609375,789.7435913085938,830.03662109375
731,822.7838745117188,771.2088012695312,795.3846435546875,832.05126953125
732,828.02197265625,772.0146484375,796.5933837890625,830.4395751953125
733,837.2893676757812,768.3883056640625,794.981689453125,835.2747192382812
734,835.2747192382812,768.7911987304688,788.937744140625,840.5128173828125
735,834.06591796875,772.4176025390625,782.893798828125,833.6630249023438
736,835.2747192382812,774.8351440429688,789.7435913085938,830.03662109375
737,838.901123046875,780.879150390625,795.3846435546875,826.8131713867188
738,836.4835205078125,781.6849975585938,793.7728881835938,826.4102783203125
739,833.6630249023438,780.0732421875,792.967041015625,829.2307739257812
740,836.886474609375,781.6849975585938,793.7728881835938,833.6630249023438
741,836.886474609375,779.6703491210938,792.967041015625,833.2600708007812
742,828.4249267578125,778.05859375,790.952392578125,834.06591796875
743,826.00732421875,778.8644409179688,793.7728881835938,840.5128173828125
744,829.6337280273438,779.6703491210938,796.5933837890625,833.2600708007812
745,829.2307739257812,778.4615478515625,799.4139404296875,826.8131713867188
746,832.05126953125,782.4908447265625,800.6226806640625,826.8131713867188
747,829.2307739257812,784.5054931640625,800.2197875976562,823.5897216796875
748,824.3956298828125,781.6849975585938,801.8314819335938,818.3516235351562
749,827.2161254882812,784.908447265625,802.6373901367188,823.1868286132812
750,817.5457763671875,783.2966918945312,801.025634765625,821.5750732421875
751,811.098876953125,780.0732421875,800.2197875976562,815.1282348632812
752,813.113525390625,780.879150390625,801.4285888671875,814.7252807617188
753,814.3223266601562,779.2673950195312,799.8168334960938,807.4725341796875
754,821.97802734375,778.8644409179688,801.8314819335938,817.1428833007812
755,814.7252807617188,782.087890625,801.4285888671875,819.5604248046875
756,810.2930297851562,783.6996459960938,800.2197875976562,810.2930297851562
757,815.1282348632812,780.4761962890625,805.054931640625,815.1282348632812
758,807.87548828125,779.2673950195312,802.6373901367188,811.5018310546875
759,806.2637329101562,780.879150390625,799.4139404296875,804.6520385742188
760,806.2637329101562,779.6703491210938,802.6373901367188,804.2490844726562
761,807.069580078125,780.879150390625,804.2490844726562,812.3076782226562
762,805.4578857421875,777.2527465820312,801.8314819335938,814.3223266601562
763,804.6520385742188,774.8351440429688,801.8314819335938,809.89013671875
764,800.2197875976562,780.4761962890625,800.6226806640625,803.040283203125
765,801.4285888671875,777.2527465820312,801.4285888671875,805.8607788085938
766,801.025634765625,778.8644409179688,803.4432373046875,808.6813354492188
767,794.1758422851562,784.1025390625,797.8021850585938,800.2197875976562
768,794.981689453125,788.1318969726562,797.8021850585938,800.2197875976562
769,793.3699340820312,787.7289428710938,799.4139404296875,797.8021850585938
770,793.3699340820312,785.3113403320312,794.981689453125,790.952392578125
771,800.2197875976562,786.1171875,794.981689453125,789.3406372070312
772,798.6080322265625,786.5201416015625,795.7875366210938,790.952392578125
773,790.1465454101562,788.5347900390625,795.3846435546875,785.3113403320312
774,790.1465454101562,786.1171875,798.2051391601562,780.4761962890625
775,790.5494384765625,786.5201416015625,800.2197875976562,785.3113403320312
776,790.5494384765625,788.5347900390625,797.3992919921875,786.1171875
777,790.952392578125,787.7289428710938,790.952392578125,790.1465454101562
778,799.8168334960938,787.3259887695312,790.952392578125,796.996337890625
779,815.5311279296875,787.3259887695312,794.5787353515625,801.4285888671875
780,811.5018310546875,795.3846435546875,791.3552856445312,799.4139404296875
781,808.6813354492188,799.010986328125,785.7142944335938,794.5787353515625
782,805.8607788085938,791.3552856445312,790.952392578125,789.7435913085938
783,799.8168334960938,790.1465454101562,796.1904907226562,787.7289428710938
784,799.8168334960938,792.1611938476562,797.8021850585938,790.5494384765625
785,803.4432373046875,794.1758422851562,799.010986328125,798.2051391601562
786,810.6959838867188,794.981689453125,799.8168334960938,809.084228515625
787,814.7252807617188,794.5787353515625,799.4139404296875,813.113525390625
788,812.7106323242188,796.5933837890625,799.8168334960938,811.098876953125
789,807.87548828125,796.5933837890625,801.4285888671875,812.3076782226562
790,805.054931640625,793.3699340820312,798.2051391601562,803.4432373046875
791,808.6813354492188,793.3699340820312,799.8168334960938,801.8314819335938
792,810.6959838867188,792.1611938476562,800.2197875976562,807.069580078125
793,803.4432373046875,787.3259887695312,796.996337890625,803.4432373046875
794,801.025634765625,785.7142944335938,795.3846435546875,794.981689453125
795,801.8314819335938,787.7289428710938,797.8021850585938,793.7728881835938
796,794.981689453125,785.7142944335938,796.1904907226562,799.4139404296875
797,793.3699340820312,780.4761962890625,791.3552856445312,801.025634765625
798,787.7289428710938,782.893798828125,787.3259887695312,791.3552856445312
799,772.8204956054688,785.3113403320312,786.923095703125,778.05859375
800,775.2380981445312,782.087890625,786.923095703125,782.087890625
801,787.3259887695312,785.7142944335938,786.923095703125,787.3259887695312
802,789.7435913085938,789.7435913085938,790.1465454101562,790.1465454101562
803,786.1171875,793.3699340820312,792.967041015625,794.981689453125
804,780.0732421875,788.1318969726562,791.3552856445312,786.923095703125
805,783.2966918945312,791.3552856445312,788.5347900390625,784.1025390625
806,789.7435913085938,794.5787353515625,791.3552856445312,783.2966918945312
807,792.967041015625,790.1465454101562,795.7875366210938,785.7142944335938
808,796.996337890625,792.1611938476562,794.5787353515625,790.5494384765625
809,793.3699340820312,788.5347900390625,792.5640869140625,788.5347900390625
810,784.5054931640625,791.7582397460938,793.7728881835938,786.923095703125
811,790.952392578125,797.3992919921875,797.3992919921875,788.1318969726562
812,793.3699340820312,798.6080322265625,801.025634765625,791.7582397460938
813,786.923095703125,798.6080322265625,796.996337890625,795.3846435546875
814,784.908447265625,796.996337890625,796.996337890625,791.3552856445312
815,790.5494384765625,799.4139404296875,799.4139404296875,788.5347900390625
816,800.2197875976562,803.040283203125,793.7728881835938,788.5347900390625
817,802.2344360351562,802.2344360351562,791.7582397460938,788.937744140625
818,801.8314819335938,796.5933837890625,787.7289428710938,789.7435913085938
819,806.2637329101562,794.5787353515625,788.937744140625,796.5933837890625
820,799.010986328125,792.967041015625,792.5640869140625,790.952392578125
821,797.8021850585938,792.967041015625,787.7289428710938,781.6849975585938
822,804.6520385742188,797.8021850585938,788.1318969726562,788.937744140625
823,796.996337890625,798.6080322265625,786.923095703125,794.981689453125
824,790.1465454101562,796.1904907226562,782.893798828125,792.5640869140625
825,791.3552856445312,795.7875366210938,788.5347900390625,789.7435913085938
826,789.3406372070312,791.3552856445312,792.967041015625,795.3846435546875
827,786.5201416015625,789.7435913085938,791.3552856445312,799.8168334960938
828,782.4908447265625,788.5347900390625,793.3699340820312,794.1758422851562
829,781.6849975585938,788.937744140625,797.3992919921875,791.7582397460938
830,787.7289428710938,794.1758422851562,797.8021850585938,794.5787353515625
831,788.1318969726562,789.7435913085938,792.967041015625,792.5640869140625
832,794.5787353515625,787.3259887695312,792.967041015625,790.5494384765625
833,795.7875366210938,790.952392578125,795.3846435546875,786.923095703125
834,789.3406372070312,792.1611938476562,792.967041015625,789.7435913085938
835,786.923095703125,793.3699340820312,791.7582397460938,790.5494384765625
836,789.3406372070312,792.967041015625,791.7582397460938,780.879150390625
837,793.3699340820312,792.967041015625,792.1611938476562,781.6849975585938
838,793.7728881835938,786.1171875,791.3552856445312,792.1611938476562
839,790.5494384765625,786.5201416015625,792.5640869140625,796.1904907226562
840,787.7289428710938,787.7289428710938,796.5933837890625,788.5347900390625
841,794.1758422851562,786.5201416015625,797.8021850585938,784.908447265625
842,794.981689453125,786.5201416015625,798.6080322265625,792.967041015625
843,790.5494384765625,785.7142944335938,798.2051391601562,797.8021850585938
844,790.1465454101562,788.5347900390625,794.981689453125,794.5787353515625
845,788.1318969726562,786.923095703125,793.3699340820312,787.7289428710938
846,783.2966918945312,785.7142944335938,790.1465454101562,784.1025390625
847,784.908447265625,787.3259887695312,791.7582397460938,792.1611938476562
848,786.5201416015625,789.3406372070312,794.981689453125,790.5494384765625
849,785.7142944335938,788.937744140625,795.7875366210938,788.1318969726562
850,786.5201416015625,791.3552856445312,794.981689453125,800.6226806640625
851,786.5201416015625,795.7875366210938,791.3552856445312,801.4285888671875
852,786.1171875,790.952392578125,789.3406372070312,795.7875366210938
853,788.1318969726562,790.1465454101562,788.1318969726562,797.3992919921875
854,788.1318969726562,793.3699340820312,789.3406372070312,797.8021850585938
855,787.7289428710938,790.5494384765625,790.952392578125,785.7142944335938
856,789.3406372070312,787.7289428710938,788.1318969726562,783.2966918945312
857,787.7289428710938,784.5054931640625,788.1318969726562,789.3406372070312
858,789.7435913085938,785.3113403320312,789.7435913085938,788.937744140625
859,790.5494384765625,789.7435913085938,791.7582397460938,794.981689453125
860,785.3113403320312,793.7728881835938,793.7728881835938,794.5787353515625
861,782.4908447265625,790.952392578125,795.3846435546875,796.996337890625
862,780.879150390625,788.5347900390625,792.967041015625,797.8021850585938
863,783.6996459960938,788.5347900390625,790.5494384765625,790.1465454101562
864,784.908447265625,789.3406372070312,795.3846435546875,794.5787353515625
865,779.2673950195312,788.5347900390625,795.7875366210938,794.1758422851562
866,783.6996459960938,786.5201416015625,787.7289428710938,791.7582397460938
867,788.937744140625,789.7435913085938,786.1171875,790.1465454101562
868,791.7582397460938,785.7142944335938,790.5494384765625,788.5347900390625
869,792.1611938476562,781.6849975585938,789.3406372070312,786.1171875
870,790.5494384765625,786.5201416015625,788.937744140625,784.908447265625
871,788.5347900390625,785.3113403320312,790.952392578125,782.087890625
872,793.3699340820312,788.5347900390625,790.1465454101562,784.5054931640625
873,805.8607788085938,793.3699340820312,790.952392578125,794.981689453125
874,808.2783813476562,792.967041015625,794.1758422851562,796.5933837890625
875,799.010986328125,794.5787353515625,796.996337890625,796.996337890625
876,788.5347900390625,792.967041015625,794.1758422851562,792.1611938476562
877,780.4761962890625,794.981689453125,791.3552856445312,787.3259887695312
878,786.1171875,798.6080322265625,794.5787353515625,786.923095703125
879,793.7728881835938,799.010986328125,796.996337890625,788.1318969726562
880,790.5494384765625,794.1758422851562,792.967041015625,787.3259887695312
881,790.5494384765625,799.4139404296875,790.952392578125,786.1171875
882,795.7875366210938,805.4578857421875,795.3846435546875,792.967041015625
883,788.937744140625,799.4139404296875,795.3846435546875,794.1758422851562
884,783.2966918945312,794.5787353515625,792.5640869140625,791.3552856445312
885,788.5347900390625,797.3992919921875,788.937744140625,792.1611938476562
886,791.3552856445312,800.6226806640625,790.1465454101562,784.1025390625
887,796.1904907226562,794.981689453125,794.1758422851562,788.1318969726562
888,790.5494384765625,792.5640869140625,795.7875366210938,793.3699340820312
889,793.3699340820312,794.5787353515625,796.5933837890625,790.5494384765625
890,795.7875366210938,796.5933837890625,791.3552856445312,784.5054931640625
891,789.7435913085938,796.1904907226562,792.1611938476562,784.1025390625
892,787.7289428710938,793.3699340820312,795.3846435546875,786.1171875
893,789.7435913085938,790.1465454101562,791.7582397460938,788.1318969726562
894,790.5494384765625,790.5494384765625,789.7435913085938,790.1465454101562
895,783.6996459960938,786.923095703125,791.3552856445312,790.5494384765625
896,791.7582397460938,782.087890625,799.010986328125,794.5787353515625
897,797.8021850585938,789.7435913085938,799.8168334960938,793.7728881835938
898,797.8021850585938,792.967041015625,799.8168334960938,791.3552856445312
899,798.6080322265625,786.1171875,797.8021850585938,794.1758422851562
900,800.6226806640625,785.3113403320312,793.3699340820312,801.4285888671875
901,800.2197875976562,793.7728881835938,798.2051391601562,801.025634765625
902,792.967041015625,793.3699340820312,801.8314819335938,792.5640869140625
903,794.1758422851562,788.937744140625,800.6226806640625,795.3846435546875
904,800.2197875976562,793.3699340820312,804.2490844726562,803.4432373046875
905,800.2197875976562,790.1465454101562,806.2637329101562,803.8461303710938
906,790.952392578125,784.1025390625,798.6080322265625,796.996337890625
907,784.908447265625,781.6849975585938,797.3992919921875,796.5933837890625
908,785.7142944335938,782.087890625,796.1904907226562,799.010986328125
909,789.7435913085938,783.6996459960938,793.3699340820312,792.967041015625
910,798.2051391601562,786.5201416015625,796.5933837890625,788.1318969726562
911,803.040283203125,789.7435913085938,799.4139404296875,789.7435913085938
912,793.3699340820312,785.3113403320312,797.8021850585938,789.3406372070312
913,788.5347900390625,784.5054931640625,794.1758422851562,784.908447265625
914,794.1758422851562,786.923095703125,792.967041015625,788.937744140625
915,795.3846435546875,787.3259887695312,793.3699340820312,790.5494384765625
916,791.7582397460938,788.1318969726562,794.1758422851562,789.7435913085938
917,788.937744140625,790.952392578125,794.5787353515625,790.1465454101562
918,788.5347900390625,792.5640869140625,794.981689453125,790.1465454101562
919,790.5494384765625,791.3552856445312,792.1611938476562,795.7875366210938
920,795.7875366210938,794.5787353515625,790.952392578125,800.2197875976562
921,793.3699340820312,792.5640869140625,792.1611938476562,792.967041015625
922,785.7142944335938,788.5347900390625,789.3406372070312,788.5347900390625
923,788.937744140625,792.967041015625,788.937744140625,790.952392578125
924,793.7728881835938,794.5787353515625,796.1904907226562,793.3699340820312
925,794.1758422851562,794.1758422851562,797.3992919921875,792.5640869140625
926,793.3699340820312,795.3846435546875,793.3699340820312,790.1465454101562
927,792.1611938476562,793.3699340820312,795.7875366210938,791.7582397460938
928,790.952392578125,793.3699340820312,796.996337890625,789.3406372070312
929,789.3406372070312,796.1904907226562,794.1758422851562,784.5054931640625
930,790.1465454101562,790.952392578125,788.937744140625,790.5494384765625
931,792.1611938476562,785.3113403320312,788.937744140625,795.3846435546875
932,791.7582397460938,790.952392578125,796.996337890625,787.3259887695312
933,788.1318969726562,795.7875366210938,795.3846435546875,784.1025390625
934,784.908447265625,793.7728881835938,792.5640869140625,784.5054931640625
935,792.967041015625,791.3552856445312,792.5640869140625,783.6996459960938
936,790.5494384765625,790.952392578125,794.1758422851562,782.4908447265625
937,781.6849975585938,791.7582397460938,798.2051391601562,782.4908447265625
938,791.7582397460938,796.996337890625,801.8314819335938,791.3552856445312
939,794.1758422851562,794.981689453125,799.010986328125,791.3552856445312
940,793.3699340820312,793.3699340820312,797.8021850585938,787.3259887695312
941,790.1465454101562,796.996337890625,797.3992919921875,791.3552856445312
942,787.3259887695312,796.5933837890625,797.3992919921875,789.3406372070312
943,790.952392578125,796.996337890625,800.2197875976562,788.1318969726562
944,797.3992919921875,790.952392578125,799.4139404296875,791.7582397460938
945,794.981689453125,785.3113403320312,797.8021850585938,790.1465454101562
946,785.3113403320312,789.3406372070312,793.7728881835938,790.5494384765625
947,784.1025390625,791.3552856445312,792.967041015625,792.1611938476562
948,780.4761962890625,791.3552856445312,795.3846435546875,788.1318969726562
949,780.4761962890625,788.1318969726562,796.5933837890625,790.5494384765625
950,789.3406372070312,787.3259887695312,794.5787353515625,801.4285888671875
951,792.1611938476562,788.937744140625,792.967041015625,801.4285888671875
952,790.952392578125,790.1465454101562,796.5933837890625,801.8314819335938
953,790.1465454101562,793.7728881835938,796.5933837890625,805.054931640625
954,786.923095703125,785.7142944335938,792.1611938476562,794.5787353515625
955,786.5201416015625,782.4908447265625,793.7728881835938,789.7435913085938
956,792.5640869140625,787.3259887695312,794.981689453125,786.923095703125
957,792.5640869140625,785.7142944335938,790.1465454101562,783.6996459960938
958,785.3113403320312,783.6996459960938,790.5494384765625,786.923095703125
959,784.5054931640625,787.3259887695312,794.1758422851562,786.5201416015625
960,791.7582397460938,796.996337890625,796.5933837890625,789.7435913085938
961,794.1758422851562,795.3846435546875,794.5787353515625,792.1611938476562
962,788.937744140625,790.1465454101562,791.3552856445312,790.1465454101562
963,783.6996459960938,786.923095703125,789.7435913085938,783.6996459960938
964,784.1025390625,781.6849975585938,785.3113403320312,780.0732421875
965,790.952392578125,784.1025390625,784.908447265625,788.1318969726562
966,793.3699340820312,787.7289428710938,786.5201416015625,789.7435913085938
967,788.1318969726562,786.923095703125,790.1465454101562,787.7289428710938
968,783.6996459960938,788.1318969726562,788.937744140625,794.1758422851562
969,785.3113403320312,788.1318969726562,785.3113403320312,799.010986328125
970,791.3552856445312,788.5347900390625,787.7289428710938,798.2051391601562
971,790.1465454101562,787.7289428710938,789.7435913085938,795.3846435546875
972,786.923095703125,788.5347900390625,790.1465454101562,793.7728881835938
973,783.2966918945312,788.5347900390625,794.1758422851562,795.3846435546875
974,777.6557006835938,788.5347900390625,794.1758422851562,796.1904907226562
975,781.2820434570312,794.981689453125,794.5787353515625,804.2490844726562
976,790.5494384765625,798.6080322265625,796.5933837890625,809.89013671875
977,796.996337890625,800.6226806640625,788.5347900390625,803.4432373046875
978,798.6080322265625,799.8168334960938,785.7142944335938,801.025634765625
979,799.8168334960938,800.6226806640625,788.1318969726562,801.025634765625
980,801.025634765625,796.1904907226562,786.923095703125,796.996337890625
981,803.040283203125,790.952392578125,782.087890625,794.1758422851562
982,805.8607788085938,794.5787353515625,782.087890625,792.967041015625
983,813.5164794921875,795.7875366210938,791.3552856445312,797.8021850585938
984,812.3076782226562,795.7875366210938,792.967041015625,796.996337890625
985,801.025634765625,791.7582397460938,788.5347900390625,792.967041015625
986,803.040283203125,793.7728881835938,785.7142944335938,792.967041015625
987,799.010986328125,801.025634765625,781.6849975585938,792.1611938476562
988,790.952392578125,799.010986328125,783.2966918945312,796.1904907226562
989,784.908447265625,795.7875366210938,789.3406372070312,794.5787353515625
990,777.2527465820312,791.7582397460938,791.3552856445312,787.7289428710938
991,780.0732421875,788.1318969726562,790.5494384765625,785.7142944335938
992,780.4761962890625,786.5201416015625,790.5494384765625,790.1465454101562
993,776.0439453125,791.7582397460938,794.5787353515625,795.7875366210938
994,777.6557006835938,796.5933837890625,797.3992919921875,791.3552856445312
995,784.1025390625,791.7582397460938,794.1758422851562,792.5640869140625
996,781.6849975585938,789.3406372070312,792.5640869140625,791.3552856445312
997,776.8497924804688,791.7582397460938,789.3406372070312,785.3113403320312
998,780.4761962890625,791.7582397460938,788.1318969726562,783.6996459960938
999,782.893798828125,792.5640869140625,790.1465454101562,782.893798828125
1000,783.2966918945312,790.1465454101562,792.5640869140625,778.05859375
1001,784.1025390625,792.1611938476562,791.7582397460938,778.8644409179688
1002,788.937744140625,794.1758422851562,790.952392578125,780.4761962890625
1003,793.3699340820312,794.5787353515625,791.3552856445312,782.4908447265625
1004,795.3846435546875,796.5933837890625,792.967041015625,788.1318969726562
1005,803.4432373046875,797.3992919921875,795.3846435546875,784.5054931640625
1006,810.2930297851562,801.025634765625,792.967041015625,790.952392578125
1007,808.6813354492188,803.040283203125,791.3552856445312,794.1758422851562
1008,809.89013671875,801.025634765625,793.7728881835938,787.7289428710938
1009,805.4578857421875,800.6226806640625,794.5787353515625,787.3259887695312
1010,796.5933837890625,804.6520385742188,797.3992919921875,791.7582397460938
1011,792.967041015625,810.2930297851562,801.025634765625,805.8607788085938
1012,791.3552856445312,808.6813354492188,798.6080322265625,806.6666870117188
1013,787.7289428710938,800.2197875976562,792.1611938476562,796.5933837890625
1014,788.5347900390625,796.1904907226562,794.1758422851562,792.1611938476562
1015,789.7435913085938,799.4139404296875,797.3992919921875,799.010986328125
1016,786.923095703125,793.7728881835938,799.4139404296875,801.025634765625
1017,784.1025390625,785.7142944335938,800.6226806640625,791.7582397460938
1018,781.6849975585938,786.923095703125,790.1465454101562,788.1318969726562
1019,783.2966918945312,788.5347900390625,792.967041015625,788.5347900390625
1020,792.1611938476562,789.7435913085938,801.4285888671875,791.3552856445312
1021,794.981689453125,793.3699340820312,801.4285888671875,794.5787353515625
1022,786.5201416015625,792.967041015625,801.025634765625,794.981689453125
1023,785.3113403320312,785.3113403320312,799.8168334960938,786.923095703125
1024,788.937744140625,787.3259887695312,799.010986328125,778.8644409179688
1025,790.952392578125,789.3406372070312,798.2051391601562,782.893798828125
1026,796.5933837890625,791.3552856445312,796.996337890625,791.3552856445312
1027,802.2344360351562,794.981689453125,796.5933837890625,796.996337890625
1028,797.8021850585938,797.8021850585938,794.981689453125,795.7875366210938
1029,794.981689453125,799.4139404296875,791.3552856445312,784.5054931640625
1030,788.5347900390625,796.996337890625,791.7582397460938,782.087890625
1031,784.1025390625,796.996337890625,794.5787353515625,788.5347900390625
1032,790.1465454101562,795.7875366210938,796.996337890625,783.6996459960938
1033,790.5494384765625,796.5933837890625,794.981689453125,783.2966918945312
1034,788.1318969726562,796.1904907226562,789.3406372070312,784.5054931640625
1035,781.6849975585938,791.7582397460938,792.967041015625,785.7142944335938
1036,780.4761962890625,790.5494384765625,792.967041015625,786.923095703125
1037,784.1025390625,791.3552856445312,788.1318969726562,785.3113403320312
1038,784.1025390625,788.937744140625,791.7582397460938,793.3699340820312
1039,783.6996459960938,791.7582397460938,795.3846435546875,798.6080322265625
1040,782.087890625,792.5640869140625,794.1758422851562,792.967041015625
1041,785.7142944335938,783.2966918945312,792.967041015625,792.967041015625
1042,791.3552856445312,784.5054931640625,794.1758422851562,797.8021850585938
1043,791.7582397460938,790.952392578125,795.3846435546875,794.5787353515625
1044,788.5347900390625,790.1465454101562,789.7435913085938,787.3259887695312
1045,786.923095703125,788.937744140625,786.1171875,787.3259887695312
1046,785.7142944335938,787.3259887695312,788.937744140625,790.5494384765625
1047,786.923095703125,790.5494384765625,788.937744140625,788.1318969726562
1048,789.3406372070312,794.1758422851562,788.5347900390625,788.5347900390625
1049,793.7728881835938,797.3992919921875,791.7582397460938,792.967041015625
1050,800.6226806640625,793.7728881835938,790.5494384765625,789.7435913085938
1051,801.4285888671875,791.7582397460938,789.7435913085938,785.7142944335938
1052,794.5787353515625,795.3846435546875,786.923095703125,784.5054931640625
1053,792.5640869140625,792.5640869140625,784.1025390625,788.937744140625
1054,800.2197875976562,794.5787353515625,783.6996459960938,797.8021850585938
1055,794.1758422851562,796.5933837890625,785.3113403320312,791.3552856445312
1056,787.7289428710938,798.6080322265625,782.4908447265625,788.937744140625
1057,787.3259887695312,796.5933837890625,785.3113403320312,788.5347900390625
1058,783.2966918945312,791.3552856445312,790.5494384765625,780.4761962890625
1059,788.1318969726562,790.952392578125,791.3552856445312,784.5054931640625
1060,784.908447265625,790.1465454101562,793.3699340820312,788.5347900390625
1061,780.879150390625,790.952392578125,793.7728881835938,789.3406372070312
1062,777.2527465820312,786.923095703125,796.5933837890625,792.967041015625
1063,778.4615478515625,781.2820434570312,800.6226806640625,790.952392578125
1064,778.4615478515625,780.0732421875,801.025634765625,787.3259887695312
1065,773.2234497070312,779.2673950195312,800.2197875976562,790.952392578125
1066,780.4761962890625,782.893798828125,803.4432373046875,797.8021850585938
1067,787.7289428710938,787.3259887695312,807.069580078125,794.1758422851562
1068,786.923095703125,793.3699340820312,802.6373901367188,788.5347900390625
1069,782.893798828125,792.967041015625,796.996337890625,790.5494384765625
1070,782.893798828125,794.981689453125,799.010986328125,793.7728881835938
1071,786.5201416015625,801.025634765625,801.4285888671875,790.5494384765625
1072,791.3552856445312,796.996337890625,797.8021850585938,790.5494384765625
1073,797.3992919921875,797.8021850585938,801.4285888671875,794.981689453125
1074,801.8314819335938,801.4285888671875,808.6813354492188,792.1611938476562
1075,800.2197875976562,807.4725341796875,807.4725341796875,785.3113403320312
1076,796.5933837890625,807.87548828125,804.6520385742188,783.6996459960938
1077,797.8021850585938,801.4285888671875,800.6226806640625,785.3113403320312
1078,802.6373901367188,803.040283203125,796.996337890625,785.3113403320312
1079,803.040283203125,804.6520385742188,796.996337890625,782.893798828125
1080,797.8021850585938,805.4578857421875,799.010986328125,785.3113403320312
1081,797.3992919921875,808.2783813476562,800.2197875976562,786.5201416015625
1082,791.7582397460938,801.4285888671875,796.996337890625,781.6849975585938
1083,784.5054931640625,796.5933837890625,795.3846435546875,782.893798828125
1084,780.4761962890625,800.6226806640625,791.7582397460938,780.0732421875
1085,784.1025390625,798.2051391601562,792.1611938476562,775.2380981445312
1086,778.05859375,794.981689453125,794.981689453125,770.8058471679688
1087,772.0146484375,792.1611938476562,797.8021850585938,774.4322509765625
1088,777.6557006835938,787.7289428710938,800.2197875976562,782.4908447265625
1089,777.6557006835938,794.1758422851562,798.2051391601562,784.908447265625
1090,774.029296875,793.7728881835938,796.5933837890625,785.7142944335938
1091,770.4029541015625,787.3259887695312,796.996337890625,784.5054931640625
1092,774.029296875,787.3259887695312,796.5933837890625,788.5347900390625
1093,781.6849975585938,786.5201416015625,796.5933837890625,791.7582397460938
1094,786.5201416015625,789.3406372070312,801.025634765625,791.3552856445312
1095,793.7728881835938,792.967041015625,803.040283203125,800.6226806640625
1096,800.2197875976562,794.981689453125,799.8168334960938,799.4139404296875
1097,797.8021850585938,796.1904907226562,798.2051391601562,794.5787353515625
1098,801.025634765625,791.3552856445312,797.3992919921875,795.7875366210938
1099,801.8314819335938,792.1611938476562,793.7728881835938,796.5933837890625
1100,799.4139404296875,793.3699340820312,793.7728881835938,792.1611938476562
1101,799.010986328125,792.967041015625,795.3846435546875,782.893798828125
1102,796.1904907226562,801.025634765625,796.1904907226562,786.923095703125
1103,792.5640869140625,801.025634765625,798.2051391601562,792.1611938476562
1104,791.7582397460938,796.996337890625,794.981689453125,790.952392578125
1105,792.1611938476562,798.6080322265625,790.952392578125,787.3259887695312
1106,795.7875366210938,799.010986328125,791.7582397460938,786.5201416015625
1107,800.2197875976562,801.025634765625,793.3699340820312,788.5347900390625
1108,797.8021850585938,798.6080322265625,796.996337890625,790.1465454101562
1109,793.3699340820312,799.4139404296875,797.3992919921875,787.7289428710938
1110,785.7142944335938,800.2197875976562,791.7582397460938,780.879150390625
1111,778.4615478515625,798.2051391601562,789.3406372070312,778.8644409179688
1112,772.4176025390625,794.5787353515625,786.923095703125,773.6264038085938
1113,772.4176025390625,791.7582397460938,787.3259887695312,770.0
1114,781.2820434570312,796.996337890625,792.967041015625,774.029296875
1115,784.1025390625,799.010986328125,788.937744140625,778.8644409179688
1116,778.4615478515625,799.010986328125,783.6996459960938,783.6996459960938
1117,776.4468994140625,795.7875366210938,786.5201416015625,784.1025390625
1118,780.4761962890625,789.7435913085938,790.5494384765625,786.923095703125
1119,784.908447265625,791.3552856445312,791.3552856445312,784.1025390625
1120,786.5201416015625,799.010986328125,790.952392578125,777.2527465820312
1121,784.1025390625,803.040283203125,788.937744140625,775.6410522460938
1122,784.1025390625,799.8168334960938,788.5347900390625,774.8351440429688
1123,789.7435913085938,794.981689453125,792.5640869140625,780.0732421875
1124,792.5640869140625,799.8168334960938,794.981689453125,781.6849975585938
1125,797.3992919921875,804.2490844726562,791.3552856445312,777.2527465820312
1126,804.6520385742188,802.2344360351562,790.952392578125,780.4761962890625
1127,797.3992919921875,800.2197875976562,790.952392578125,785.3113403320312
1128,784.908447265625,794.5787353515625,784.908447265625,779.6703491210938
1129,789.3406372070312,790.952392578125,781.6849975585938,779.6703491210938
1130,792.967041015625,792.5640869140625,779.6703491210938,784.5054931640625
1131,792.967041015625,794.981689453125,779.6703491210938,785.3113403320312
1132,794.1758422851562,794.1758422851562,783.2966918945312,781.2820434570312
1133,791.7582397460938,794.5787353515625,786.5201416015625,785.7142944335938
1134,793.7728881835938,795.3846435546875,788.1318969726562,794.5787353515625
1135,789.3406372070312,792.5640869140625,790.952392578125,789.7435913085938
1136,786.5201416015625,795.7875366210938,793.3699340820312,790.1465454101562
1137,789.3406372070312,795.3846435546875,792.1611938476562,792.5640869140625
1138,798.2051391601562,789.7435913085938,791.3552856445312,801.8314819335938
1139,803.8461303710938,788.5347900390625,791.7582397460938,803.040283203125
1140,801.4285888671875,789.3406372070312,789.7435913085938,792.967041015625
1141,788.5347900390625,790.952392578125,788.5347900390625,791.7582397460938
1142,776.0439453125,790.952392578125,788.937744140625,788.937744140625
1143,778.05859375,792.5640869140625,790.1465454101562,791.7582397460938
1144,786.5201416015625,794.981689453125,795.7875366210938,797.8021850585938
1145,790.5494384765625,793.3699340820312,802.2344360351562,803.040283203125
1146,790.1465454101562,792.967041015625,801.8314819335938,799.4139404296875
1147,791.3552856445312,797.3992919921875,805.4578857421875,792.5640869140625
1148,791.7582397460938,796.5933837890625,804.2490844726562,790.1465454101562
1149,802.2344360351562,795.7875366210938,799.010986328125,800.2197875976562
1150,805.8607788085938,798.6080322265625,800.2197875976562,808.2783813476562
1151,801.025634765625,800.6226806640625,804.2490844726562,799.4139404296875
1152,800.6226806640625,799.8168334960938,802.2344360351562,796.1904907226562
1153,797.8021850585938,796.1904907226562,797.8021850585938,796.996337890625
1154,792.5640869140625,794.1758422851562,796.5933837890625,794.5787353515625
1155,792.967041015625,794.981689453125,799.8168334960938,797.8021850585938
1156,793.3699340820312,796.996337890625,799.010986328125,798.6080322265625
1157,786.923095703125,795.7875366210938,795.3846435546875,792.5640869140625
1158,783.6996459960938,795.3846435546875,797.8021850585938,790.952392578125
1159,789.3406372070312,798.6080322265625,799.010986328125,794.5787353515625
1160,787.3259887695312,796.5933837890625,798.2051391601562,793.3699340820312
1161,788.1318969726562,794.981689453125,800.2197875976562,789.7435913085938
1162,783.6996459960938,794.1758422851562,798.6080322265625,782.087890625
1163,780.879150390625,793.3699340820312,796.996337890625,785.3113403320312
1164,783.6996459960938,791.7582397460938,794.1758422851562,786.923095703125
1165,784.908447265625,792.1611938476562,792.967041015625,783.2966918945312
1166,789.7435913085938,796.5933837890625,798.2051391601562,788.1318969726562
1167,784.908447265625,795.3846435546875,801.025634765625,782.087890625
1168,784.5054931640625,793.3699340820312,797.3992919921875,782.087890625
1169,790.952392578125,796.1904907226562,795.3846435546875,799.010986328125
1170,790.952392578125,797.8021850585938,799.010986328125,798.2051391601562
1171,796.1904907226562,794.981689453125,796.1904907226562,786.1171875
1172,796.1904907226562,787.3259887695312,788.937744140625,783.2966918945312
1173,786.1171875,787.3259887695312,792.967041015625,786.923095703125
1174,783.6996459960938,796.996337890625,801.8314819335938,790.5494384765625
1175,788.1318969726562,797.8021850585938,799.010986328125,791.3552856445312
1176,790.952392578125,797.8021850585938,800.6226806640625,792.5640869140625
1177,788.5347900390625,797.3992919921875,802.6373901367188,787.3259887695312
1178,784.908447265625,792.1611938476562,795.7875366210938,781.6849975585938
1179,784.908447265625,792.967041015625,796.5933837890625,789.3406372070312
1180,790.1465454101562,793.3699340820312,799.8168334960938,799.4139404296875
1181,796.5933837890625,790.1465454101562,799.010986328125,801.8314819335938
1182,796.996337890625,794.981689453125,799.8168334960938,799.010986328125
1183,792.967041015625,797.8021850585938,798.6080322265625,789.7435913085938
1184,793.3699340820312,792.967041015625,795.3846435546875,791.7582397460938
1185,795.7875366210938,794.981689453125,790.952392578125,791.3552856445312
1186,798.2051391601562,795.7875366210938,793.3699340820312,787.7289428710938
1187,793.3699340820312,792.5640869140625,791.7582397460938,788.5347900390625
1188,784.5054931640625,790.5494384765625,786.923095703125,781.6849975585938
1189,792.967041015625,794.1758422851562,792.1611938476562,788.937744140625
1190,794.5787353515625,794.5787353515625,798.2051391601562,795.7875366210938
1191,791.3552856445312,791.7582397460938,797.3992919921875,799.010986328125
1192,791.7582397460938,794.981689453125,796.1904907226562,802.2344360351562
1193,795.7875366210938,795.3846435546875,801.8314819335938,800.2197875976562
1194,796.996337890625,794.1758422851562,801.025634765625,792.1611938476562
1195,796.5933837890625,792.5640869140625,795.3846435546875,791.7582397460938
1196,799.010986328125,795.7875366210938,795.3846435546875,799.010986328125
1197,795.3846435546875,800.6226806640625,793.3699340820312,794.1758422851562
1198,789.7435913085938,798.6080322265625,794.1758422851562,786.1171875
1199,790.5494384765625,798.6080322265625,801.025634765625,789.7435913085938
1200,794.981689453125,795.3846435546875,804.6520385742188,796.996337890625
1201,792.967041015625,800.2197875976562,805.4578857421875,802.2344360351562
1202,789.7435913085938,799.010986328125,803.8461303710938,803.040283203125
1203,786.923095703125,795.3846435546875,804.2490844726562,797.8021850585938
1204,788.937744140625,800.6226806640625,804.2490844726562,793.3699340820312
1205,796.996337890625,803.040283203125,802.2344360351562,793.3699340820312
1206,795.7875366210938,801.025634765625,799.8168334960938,794.5787353515625
1207,796.5933837890625,801.025634765625,796.996337890625,800.2197875976562
1208,792.5640869140625,798.6080322265625,795.7875366210938,795.3846435546875
1209,789.3406372070312,795.3846435546875,796.1904907226562,788.5347900390625
1210,799.010986328125,799.8168334960938,801.4285888671875,792.1611938476562
1211,798.6080322265625,804.6520385742188,801.025634765625,790.5494384765625
1212,793.3699340820312,799.010986328125,799.4139404296875,785.3113403320312
1213,796.996337890625,798.6080322265625,799.8168334960938,785.3113403320312
1214,801.025634765625,802.6373901367188,801.025634765625,793.7728881835938
1215,799.4139404296875,803.4432373046875,804.2490844726562,795.3846435546875
1216,791.3552856445312,807.87548828125,805.054931640625,796.5933837890625
1217,791.3552856445312,806.2637329101562,805.4578857421875,805.054931640625
1218,796.1904907226562,801.025634765625,802.2344360351562,803.8461303710938
1219,800.2197875976562,802.2344360351562,799.010986328125,802.2344360351562
1220,798.6080322265625,802.6373901367188,798.2051391601562,800.6226806640625
1221,797.3992919921875,798.2051391601562,794.5787353515625,791.3552856445312
1222,803.4432373046875,801.025634765625,796.1904907226562,797.8021850585938
1223,803.8461303710938,802.2344360351562,799.4139404296875,804.6520385742188
1224,798.6080322265625,801.025634765625,798.6080322265625,796.1904907226562
1225,799.010986328125,801.025634765625,796.5933837890625,789.3406372070312
1226,798.6080322265625,800.2197875976562,790.952392578125,788.5347900390625
1227,794.981689453125,798.2051391601562,793.7728881835938,787.7289428710938
1228,790.1465454101562,797.3992919921875,799.4139404296875,788.5347900390625
1229,788.1318969726562,798.6080322265625,799.4139404296875,791.3552856445312
1230,789.7435913085938,794.5787353515625,793.7728881835938,783.2966918945312
1231,789.7435913085938,790.952392578125,787.3259887695312,778.05859375
1232,787.7289428710938,788.937744140625,784.1025390625,780.879150390625
1233,784.1025390625,786.1171875,786.5201416015625,777.6557006835938
1234,783.6996459960938,788.5347900390625,790.5494384765625,778.05859375
1235,783.2966918945312,788.1318969726562,790.5494384765625,775.6410522460938
1236,784.1025390625,787.3259887695312,789.3406372070312,776.0439453125
1237,793.7728881835938,792.967041015625,793.3699340820312,788.937744140625
1238,798.2051391601562,796.996337890625,794.981689453125,787.7289428710938
1239,792.1611938476562,799.8168334960938,794.5787353515625,782.4908447265625
1240,792.5640869140625,801.8314819335938,793.3699340820312,782.4908447265625
1241,797.8021850585938,799.8168334960938,792.967041015625,780.879150390625
1242,796.1904907226562,796.1904907226562,792.967041015625,782.087890625
1243,792.1611938476562,796.5933837890625,790.952392578125,784.1025390625
1244,790.5494384765625,794.1758422851562,791.3552856445312,785.7142944335938
1245,791.7582397460938,790.952392578125,790.1465454101562,791.7582397460938
1246,798.6080322265625,796.996337890625,792.5640869140625,796.1904907226562
1247,803.040283203125,793.7728881835938,795.7875366210938,793.7728881835938
1248,798.6080322265625,791.3552856445312,797.3992919921875,796.996337890625
1249,790.952392578125,794.981689453125,796.996337890625,796.1904907226562
1250,791.3552856445312,794.1758422851562,794.5787353515625,792.5640869140625
1251,792.1611938476562,789.7435913085938,792.5640869140625,790.1465454101562
1252,799.010986328125,786.5201416015625,792.967041015625,794.1758422851562
1253,797.8021850585938,788.1318969726562,794.5787353515625,796.1904907226562
1254,789.7435913085938,793.3699340820312,791.3552856445312,793.7728881835938
1255,785.3113403320312,790.5494384765625,789.7435913085938,790.952392578125
1256,785.3113403320312,787.7289428710938,791.3552856445312,790.1465454101562
1257,785.3113403320312,787.7289428710938,790.952392578125,793.7728881835938
1258,786.923095703125,788.1318969726562,790.952392578125,790.952392578125
1259,794.1758422851562,792.5640869140625,792.967041015625,791.3552856445312
1260,790.5494384765625,788.937744140625,795.3846435546875,792.967041015625
1261,787.7289428710938,791.3552856445312,796.996337890625,795.3846435546875
1262,796.996337890625,794.981689453125,797.3992919921875,800.6226806640625
1263,797.8021850585938,792.1611938476562,796.5933837890625,796.5933837890625
1264,788.1318969726562,788.1318969726562,794.5787353515625,793.3699340820312
1265,777.2527465820312,786.923095703125,787.7289428710938,785.3113403320312
1266,775.6410522460938,792.5640869140625,785.3113403320312,778.8644409179688
1267,782.893798828125,795.7875366210938,784.908447265625,776.4468994140625
1268,789.3406372070312,794.1758422851562,786.1171875,776.8497924804688
1269,788.1318969726562,792.967041015625,789.7435913085938,782.893798828125
1270,789.7435913085938,797.3992919921875,790.952392578125,781.2820434570312
1271,790.5494384765625,799.4139404296875,790.1465454101562,778.8644409179688
1272,791.7582397460938,801.4285888671875,786.923095703125,782.087890625
1273,794.981689453125,803.040283203125,788.1318969726562,786.923095703125
1274,795.7875366210938,800.6226806640625,791.3552856445312,785.3113403320312
1275,797.3992919921875,799.8168334960938,791.7582397460938,784.1025390625
1276,792.967041015625,802.2344360351562,790.1465454101562,782.893798828125
1277,787.7289428710938,802.2344360351562,789.3406372070312,784.908447265625
1278,789.3406372070312,802.6373901367188,790.952392578125,786.1171875
1279,789.3406372070312,803.040283203125,789.7435913085938,780.879150390625
1280,782.893798828125,801.025634765625,785.7142944335938,786.1171875
1281,784.1025390625,803.040283203125,788.1318969726562,794.981689453125
1282,791.7582397460938,801.8314819335938,790.5494384765625,790.952392578125
1283,790.952392578125,794.981689453125,790.5494384765625,790.1465454101562
1284,785.3113403320312,792.1611938476562,788.5347900390625,790.5494384765625
1285,783.6996459960938,791.3552856445312,787.3259887695312,785.7142944335938
1286,786.5201416015625,796.5933837890625,789.3406372070312,787.7289428710938
1287,783.6996459960938,796.1904907226562,786.5201416015625,786.923095703125
1288,781.6849975585938,789.3406372070312,784.5054931640625,784.908447265625
1289,782.087890625,790.952392578125,787.7289428710938,786.1171875
1290,783.2966918945312,792.1611938476562,790.1465454101562,783.6996459960938
1291,786.5201416015625,790.1465454101562,786.1171875,787.3259887695312
1292,789.3406372070312,788.5347900390625,785.7142944335938,792.967041015625
1293,792.1611938476562,788.5347900390625,787.7289428710938,787.3259887695312
1294,794.1758422851562,790.952392578125,789.3406372070312,786.1171875
1295,794.1758422851562,796.996337890625,788.1318969726562,784.908447265625
1296,790.5494384765625,801.4285888671875,788.5347900390625,781.2820434570312
1297,791.7582397460938,799.010986328125,793.7728881835938,786.923095703125
1298,793.3699340820312,797.3992919921875,797.3992919921875,788.937744140625
1299,792.5640869140625,796.996337890625,801.8314819335938,789.3406372070312
1300,792.1611938476562,799.4139404296875,799.8168334960938,790.5494384765625
1301,785.3113403320312,797.8021850585938,799.4139404296875,785.7142944335938
1302,782.893798828125,792.967041015625,801.8314819335938,786.5201416015625
1303,792.5640869140625,792.1611938476562,797.3992919921875,801.4285888671875
1304,787.3259887695312,791.7582397460938,798.6080322265625,798.6080322265625
1305,778.8644409179688,786.1171875,798.2051391601562,789.3406372070312
1306,782.893798828125,784.5054931640625,793.7728881835938,792.1611938476562
1307,783.2966918945312,786.5201416015625,797.3992919921875,786.923095703125
1308,782.4908447265625,788.937744140625,797.3992919921875,780.4761962890625
1309,780.879150390625,786.5201416015625,792.5640869140625,782.893798828125
1310,782.893798828125,783.6996459960938,790.5494384765625,782.893798828125
1311,780.4761962890625,788.1318969726562,790.1465454101562,778.8644409179688
1312,779.6703491210938,787.7289428710938,791.7582397460938,780.0732421875
1313,785.3113403320312,788.5347900390625,791.7582397460938,786.5201416015625
1314,787.7289428710938,792.1611938476562,792.1611938476562,793.7728881835938
1315,785.7142944335938,793.7728881835938,796.5933837890625,799.8168334960938
1316,781.6849975585938,792.1611938476562,801.4285888671875,795.7875366210938
1317,783.6996459960938,790.952392578125,796.5933837890625,793.7728881835938
1318,788.1318969726562,788.5347900390625,795.7875366210938,794.5787353515625
1319,784.1025390625,790.5494384765625,797.8021850585938,791.7582397460938
1320,786.1171875,795.7875366210938,797.3992919921875,794.5787353515625
1321,787.3259887695312,799.4139404296875,796.5933837890625,797.3992919921875
1322,785.7142944335938,801.4285888671875,792.1611938476562,794.5787353515625
1323,790.1465454101562,801.025634765625,794.1758422851562,794.5787353515625
1324,797.3992919921875,802.6373901367188,799.010986328125,795.3846435546875
1325,796.996337890625,797.8021850585938,799.4139404296875,788.937744140625
1326,792.5640869140625,794.1758422851562,795.3846435546875,785.7142944335938
1327,793.7728881835938,799.010986328125,793.3699340820312,783.2966918945312
1328,790.1465454101562,801.025634765625,792.5640869140625,783.2966918945312
1329,784.5054931640625,798.2051391601562,795.3846435546875,788.1318969726562
1330,781.6849975585938,794.981689453125,796.1904907226562,786.923095703125
1331,776.4468994140625,791.7582397460938,794.5787353515625,781.6849975585938
1332,781.6849975585938,791.7582397460938,795.3846435546875,786.923095703125
1333,785.7142944335938,793.7728881835938,794.5787353515625,787.3259887695312
1334,786.1171875,792.967041015625,797.3992919921875,786.1171875
1335,787.3259887695312,789.3406372070312,795.7875366210938,782.4908447265625
1336,786.5201416015625,786.923095703125,792.1611938476562,780.0732421875
1337,784.1025390625,788.1318969726562,794.5787353515625,784.1025390625
1338,784.5054931640625,791.3552856445312,797.3992919921875,786.5201416015625
1339,791.3552856445312,792.5640869140625,796.996337890625,788.5347900390625
1340,787.7289428710938,787.7289428710938,791.7582397460938,780.879150390625
1341,786.5201416015625,785.7142944335938,791.7582397460938,784.5054931640625
1342,790.952392578125,792.1611938476562,794.5787353515625,793.7728881835938
1343,796.996337890625,800.2197875976562,799.010986328125,796.1904907226562
1344,799.8168334960938,794.981689453125,799.010986328125,798.2051391601562
1345,799.8168334960938,792.5640869140625,796.1904907226562,797.3992919921875
1346,796.5933837890625,792.967041015625,795.3846435546875,799.010986328125
1347,785.7142944335938,790.1465454101562,796.996337890625,791.7582397460938
1348,784.908447265625,790.1465454101562,798.2051391601562,788.1318969726562
1349,794.5787353515625,791.3552856445312,794.1758422851562,790.5494384765625
1350,796.5933837890625,790.5494384765625,789.3406372070312,788.937744140625
1351,794.1758422851562,790.5494384765625,792.967041015625,788.937744140625
1352,794.5787353515625,795.7875366210938,798.6080322265625,790.952392578125
1353,795.7875366210938,800.2197875976562,798.2051391601562,795.3846435546875
1354,789.7435913085938,798.6080322265625,794.981689453125,792.5640869140625
1355,783.6996459960938,792.967041015625,792.5640869140625,784.5054931640625
1356,783.6996459960938,792.1611938476562,791.7582397460938,784.5054931640625
1357,786.923095703125,793.3699340820312,796.1904907226562,787.3259887695312
1358,797.3992919921875,795.3846435546875,801.8314819335938,789.7435913085938
1359,801.025634765625,794.5787353515625,800.6226806640625,793.3699340820312
1360,799.4139404296875,794.981689453125,797.3992919921875,799.4139404296875
1361,802.2344360351562,797.8021850585938,798.2051391601562,796.1904907226562
1362,804.6520385742188,801.4285888671875,799.4139404296875,792.967041015625
1363,807.87548828125,804.6520385742188,797.8021850585938,794.1758422851562
1364,806.2637329101562,804.6520385742188,799.4139404296875,795.7875366210938
1365,805.054931640625,807.87548828125,799.010986328125,798.2051391601562
1366,803.040283203125,813.5164794921875,798.2051391601562,796.996337890625
1367,798.6080322265625,813.91943359375,799.8168334960938,794.981689453125
1368,795.3846435546875,813.91943359375,800.6226806640625,794.1758422851562
1369,799.8168334960938,814.7252807617188,802.2344360351562,794.1758422851562
1370,807.4725341796875,806.2637329101562,801.8314819335938,794.1758422851562
1371,807.4725341796875,802.2344360351562,800.2197875976562,796.5933837890625
1372,802.2344360351562,801.4285888671875,792.1611938476562,793.7728881835938
1373,790.5494384765625,799.8168334960938,789.7435913085938,790.1465454101562
1374,783.2966918945312,796.996337890625,795.7875366210938,788.5347900390625
1375,788.1318969726562,800.2197875976562,794.1758422851562,788.5347900390625
1376,788.937744140625,799.010986328125,791.7582397460938,791.3552856445312
1377,782.893798828125,793.3699340820312,790.1465454101562,791.3552856445312
1378,778.05859375,792.967041015625,792.1611938476562,787.7289428710938
1379,786.1171875,786.923095703125,792.5640869140625,788.1318969726562
1380,787.7289428710938,786.923095703125,790.952392578125,786.923095703125
1381,783.2966918945312,789.7435913085938,792.1611938476562,782.087890625
1382,781.2820434570312,786.5201416015625,792.967041015625,780.0732421875
1383,779.2673950195312,781.6849975585938,792.5640869140625,785.3113403320312
1384,789.3406372070312,788.5347900390625,794.5787353515625,791.7582397460938
1385,788.937744140625,791.7582397460938,794.1758422851562,792.967041015625
1386,781.2820434570312,788.5347900390625,791.3552856445312,790.5494384765625
1387,787.3259887695312,787.3259887695312,794.5787353515625,794.981689453125
1388,786.923095703125,786.923095703125,794.5787353515625,799.010986328125
1389,783.6996459960938,788.1318969726562,793.3699340820312,796.1904907226562
1390,788.1318969726562,788.1318969726562,795.7875366210938,792.5640869140625
1391,795.7875366210938,791.7582397460938,797.8021850585938,794.981689453125
1392,797.8021850585938,793.3699340820312,798.2051391601562,796.996337890625
1393,797.8021850585938,794.1758422851562,796.996337890625,794.981689453125
1394,795.3846435546875,793.7728881835938,794.1758422851562,793.7728881835938
1395,794.981689453125,790.5494384765625,793.7728881835938,794.981689453125
1396,792.967041015625,787.7289428710938,794.5787353515625,793.3699340820312
1397,786.5201416015625,790.1465454101562,791.7582397460938,791.3552856445312
1398,787.3259887695312,786.5201416015625,794.981689453125,790.952392578125
1399,782.087890625,778.05859375,796.5933837890625,790.952392578125
1400,778.05859375,785.3113403320312,794.5787353515625,789.7435913085938
1401,781.2820434570312,789.7435913085938,793.3699340820312,786.1171875
1402,784.908447265625,787.7289428710938,791.3552856445312,787.3259887695312
1403,786.923095703125,791.3552856445312,792.967041015625,786.5201416015625
1404,789.3406372070312,794.1758422851562,800.6226806640625,789.3406372070312
1405,791.7582397460938,793.3699340820312,801.8314819335938,793.3699340820312
1406,790.5494384765625,788.5347900390625,798.2051391601562,793.7728881835938
1407,790.1465454101562,784.5054931640625,799.010986328125,795.7875366210938
1408,792.5640869140625,788.5347900390625,799.8168334960938,795.3846435546875
1409,790.5494384765625,791.3552856445312,794.1758422851562,785.3113403320312
1410,796.5933837890625,791.3552856445312,794.5787353515625,788.937744140625
1411,797.8021850585938,789.7435913085938,796.5933837890625,796.5933837890625
1412,794.981689453125,788.1318969726562,791.7582397460938,793.7728881835938
1413,794.5787353515625,788.937744140625,789.3406372070312,792.5640869140625
1414,794.1758422851562,789.3406372070312,794.1758422851562,791.3552856445312
1415,801.4285888671875,791.3552856445312,801.025634765625,796.5933837890625
1416,804.6520385742188,791.3552856445312,805.4578857421875,798.6080322265625
1417,796.996337890625,785.7142944335938,800.2197875976562,794.5787353515625
1418,790.5494384765625,789.7435913085938,797.8021850585938,795.3846435546875
1419,789.3406372070312,787.3259887695312,799.010986328125,794.981689453125
1420,788.1318969726562,785.7142944335938,799.010986328125,792.1611938476562
1421,794.1758422851562,790.1465454101562,804.2490844726562,794.1758422851562
1422,796.5933837890625,788.5347900390625,803.8461303710938,796.5933837890625
1423,793.3699340820312,791.3552856445312,802.2344360351562,791.3552856445312
1424,796.996337890625,794.1758422851562,799.4139404296875,790.1465454101562
1425,798.2051391601562,791.7582397460938,800.2197875976562,796.5933837890625
1426,795.7875366210938,789.3406372070312,801.8314819335938,797.3992919921875
1427,789.7435913085938,788.937744140625,801.4285888671875,794.1758422851562
1428,780.879150390625,787.7289428710938,795.3846435546875,784.5054931640625
1429,781.6849975585938,790.1465454101562,794.1758422851562,788.937744140625
1430,786.1171875,794.5787353515625,801.4285888671875,800.6226806640625
1431,786.923095703125,798.2051391601562,798.6080322265625,798.6080322265625
1432,790.5494384765625,799.010986328125,795.3846435546875,792.5640869140625
1433,798.2051391601562,794.5787353515625,792.967041015625,788.5347900390625
1434,796.1904907226562,792.1611938476562,789.3406372070312,788.5347900390625
1435,792.967041015625,794.981689453125,788.937744140625,785.7142944335938
1436,794.981689453125,792.1611938476562,786.923095703125,784.5054931640625
1437,799.4139404296875,789.3406372070312,787.3259887695312,792.967041015625
1438,806.2637329101562,794.981689453125,788.937744140625,794.1758422851562
1439,802.6373901367188,796.996337890625,788.5347900390625,788.937744140625
1440,790.5494384765625,795.3846435546875,788.5347900390625,788.1318969726562
1441,786.5201416015625,796.1904907226562,791.3552856445312,786.1171875
1442,794.981689453125,793.3699340820312,790.952392578125,787.7289428710938
1443,793.3699340820312,794.1758422851562,790.1465454101562,788.1318969726562
1444,785.7142944335938,796.1904907226562,789.7435913085938,784.5054931640625
1445,786.1171875,794.5787353515625,790.5494384765625,783.6996459960938
1446,786.923095703125,800.2197875976562,787.3259887695312,782.4908447265625
1447,792.5640869140625,804.2490844726562,786.923095703125,787.3259887695312
1448,796.996337890625,803.4432373046875,789.7435913085938,787.7289428710938
1449,792.5640869140625,801.025634765625,792.1611938476562,785.3113403320312
1450,789.3406372070312,794.1758422851562,792.1611938476562,787.3259887695312
1451,791.3552856445312,794.1758422851562,794.981689453125,785.7142944335938
1452,792.5640869140625,797.3992919921875,805.054931640625,796.5933837890625
1453,786.1171875,792.967041015625,802.6373901367188,800.2197875976562
1454,782.4908447265625,788.1318969726562,795.3846435546875,793.7728881835938
1455,783.2966918945312,786.5201416015625,792.5640869140625,787.3259887695312
1456,788.1318969726562,791.3552856445312,792.5640869140625,786.923095703125
1457,796.1904907226562,798.2051391601562,794.1758422851562,787.3259887695312
1458,798.6080322265625,796.1904907226562,790.1465454101562,782.4908447265625
1459,796.1904907226562,794.5787353515625,792.1611938476562,781.6849975585938
1460,790.952392578125,794.981689453125,794.5787353515625,783.6996459960938
1461,788.937744140625,790.1465454101562,795.7875366210938,793.3699340820312
1462,791.3552856445312,793.3699340820312,798.2051391601562,793.7728881835938
1463,791.3552856445312,795.3846435546875,794.981689453125,791.3552856445312
1464,788.1318969726562,793.7728881835938,795.3846435546875,793.7728881835938
1465,786.1171875,795.3846435546875,800.6226806640625,787.7289428710938
1466,792.5640869140625,795.7875366210938,800.2197875976562,786.1171875
1467,797.3992919921875,799.010986328125,799.010986328125,789.3406372070312
1468,792.5640869140625,795.3846435546875,799.010986328125,786.1171875
1469,788.5347900390625,792.967041015625,796.1904907226562,781.2820434570312
1470,787.3259887695312,794.1758422851562,793.3699340820312,780.4761962890625
1471,785.7142944335938,790.952392578125,791.7582397460938,776.4468994140625
1472,789.3406372070312,794.5787353515625,793.7728881835938,786.1171875
1473,791.7582397460938,795.3846435546875,794.5787353515625,788.5347900390625
1474,792.1611938476562,787.7289428710938,798.6080322265625,782.087890625
1475,789.7435913085938,791.3552856445312,798.6080322265625,781.6849975585938
1476,789.7435913085938,796.1904907226562,792.967041015625,781.6849975585938
1477,790.952392578125,792.1611938476562,794.5787353515625,784.1025390625
1478,782.893798828125,792.1611938476562,795.7875366210938,787.7289428710938
1479,776.0439453125,795.3846435546875,790.5494384765625,792.967041015625
1480,782.087890625,798.2051391601562,790.952392578125,791.7582397460938
1481,790.1465454101562,798.2051391601562,794.981689453125,786.1171875
1482,783.6996459960938,798.2051391601562,793.3699340820312,782.087890625
1483,781.2820434570312,801.4285888671875,796.1904907226562,786.923095703125
1484,784.5054931640625,803.040283203125,795.7875366210938,789.3406372070312
1485,784.908447265625,803.8461303710938,796.1904907226562,784.5054931640625
1486,788.5347900390625,802.6373901367188,797.8021850585938,784.908447265625
1487,787.7289428710938,797.8021850585938,795.3846435546875,789.3406372070312
1488,780.879150390625,796.996337890625,794.981689453125,790.5494384765625
1489,784.5054931640625,805.4578857421875,798.6080322265625,788.937744140625
1490,787.7289428710938,802.2344360351562,800.6226806640625,790.5494384765625
1491,783.2966918945312,795.7875366210938,792.967041015625,789.3406372070312
1492,785.7142944335938,797.8021850585938,790.5494384765625,786.5201416015625
1493,790.5494384765625,799.010986328125,789.3406372070312,784.1025390625
1494,793.3699340820312,800.6226806640625,788.937744140625,785.3113403320312
1495,794.1758422851562,800.2197875976562,790.952392578125,791.3552856445312
1496,783.6996459960938,796.996337890625,793.3699340820312,790.952392578125
1497,776.8497924804688,795.3846435546875,796.5933837890625,787.3259887695312
1498,777.2527465820312,795.3846435546875,797.8021850585938,789.7435913085938
1499,780.4761962890625,794.5787353515625,801.025634765625,785.7142944335938
1500,779.6703491210938,790.5494384765625,800.2197875976562,780.0732421875
1501,780.0732421875,789.3406372070312,799.010986328125,784.908447265625
1502,788.937744140625,793.7728881835938,804.2490844726562,790.1465454101562
1503,798.6080322265625,799.8168334960938,806.2637329101562,790.952392578125
1504,801.4285888671875,805.4578857421875,805.054931640625,788.937744140625
1505,794.1758422851562,799.010986328125,804.2490844726562,787.3259887695312
1506,791.3552856445312,796.1904907226562,799.8168334960938,788.1318969726562
1507,797.3992919921875,794.1758422851562,794.5787353515625,794.5787353515625
1508,794.981689453125,787.3259887695312,796.5933837890625,789.3406372070312
1509,789.3406372070312,787.7289428710938,797.8021850585938,781.2820434570312
1510,791.3552856445312,789.7435913085938,793.7728881835938,786.5201416015625
1511,783.6996459960938,788.937744140625,793.7728881835938,786.923095703125
1512,790.5494384765625,788.937744140625,795.7875366210938,790.1465454101562
1513,794.981689453125,790.952392578125,795.7875366210938,791.7582397460938
1514,792.1611938476562,790.1465454101562,795.7875366210938,792.967041015625
1515,792.967041015625,790.1465454101562,794.981689453125,792.1611938476562
1516,792.5640869140625,789.7435913085938,796.5933837890625,787.7289428710938
1517,795.3846435546875,788.937744140625,799.8168334960938,797.8021850585938
1518,794.981689453125,790.952392578125,801.4285888671875,802.2344360351562
1519,798.2051391601562,790.952392578125,799.010986328125,798.6080322265625
1520,795.3846435546875,794.5787353515625,795.3846435546875,795.3846435546875
1521,781.6849975585938,794.5787353515625,795.3846435546875,785.7142944335938
1522,780.4761962890625,790.5494384765625,795.3846435546875,784.908447265625
1523,791.3552856445312,794.981689453125,796.996337890625,789.3406372070312
1524,799.010986328125,795.7875366210938,797.3992919921875,782.4908447265625
1525,802.6373901367188,792.5640869140625,794.1758422851562,784.1025390625
1526,795.3846435546875,790.952392578125,793.7728881835938,784.908447265625
1527,790.1465454101562,796.5933837890625,794.5787353515625,784.1025390625
1528,790.952392578125,795.7875366210938,796.5933837890625,790.5494384765625
1529,795.7875366210938,790.952392578125,794.981689453125,789.7435913085938
1530,799.010986328125,796.5933837890625,793.3699340820312,787.7289428710938
1531,789.7435913085938,799.4139404296875,794.5787353515625,783.6996459960938
1532,789.3406372070312,796.996337890625,793.7728881835938,782.4908447265625
1533,795.3846435546875,794.1758422851562,793.3699340820312,786.5201416015625
1534,796.996337890625,792.5640869140625,793.7728881835938,794.981689453125
1535,793.7728881835938,786.923095703125,795.7875366210938,799.8168334960938
1536,789.3406372070312,787.7289428710938,792.967041015625,791.7582397460938
1537,787.7289428710938,789.3406372070312,793.3699340820312,781.2820434570312
1538,784.1025390625,785.7142944335938,793.3699340820312,774.4322509765625
1539,789.7435913085938,786.923095703125,791.7582397460938,784.908447265625
1540,798.6080322265625,790.952392578125,797.8021850585938,792.1611938476562
1541,797.8021850585938,789.3406372070312,802.6373901367188,788.5347900390625
1542,792.5640869140625,790.1465454101562,799.010986328125,786.1171875
1543,793.7728881835938,794.5787353515625,797.8021850585938,787.7289428710938
1544,799.4139404296875,797.3992919921875,797.8021850585938,794.5787353515625
1545,801.8314819335938,793.7728881835938,797.3992919921875,792.967041015625
1546,800.6226806640625,792.1611938476562,800.2197875976562,794.1758422851562
1547,797.3992919921875,796.996337890625,800.2197875976562,797.3992919921875
1548,799.010986328125,801.4285888671875,803.040283203125,795.7875366210938
1549,802.6373901367188,803.4432373046875,803.4432373046875,793.3699340820312
1550,803.040283203125,801.8314819335938,798.6080322265625,788.5347900390625
1551,802.6373901367188,797.3992919921875,799.4139404296875,792.1611938476562
1552,799.010986328125,793.3699340820312,799.4139404296875,794.5787353515625
1553,793.7728881835938,793.3699340820312,803.040283203125,801.025634765625
1554,794.5787353515625,792.1611938476562,810.2930297851562,808.6813354492188
1555,792.1611938476562,796.1904907226562,808.2783813476562,797.8021850585938
1556,792.967041015625,792.5640869140625,807.87548828125,794.5787353515625
1557,798.6080322265625,790.5494384765625,812.3076782226562,799.4139404296875
1558,795.7875366210938,792.1611938476562,806.2637329101562,789.7435913085938
1559,793.3699340820312,791.7582397460938,799.010986328125,788.1318969726562
1560,795.3846435546875,790.952392578125,800.6226806640625,793.7728881835938
1561,785.7142944335938,788.5347900390625,802.6373901367188,788.5347900390625
1562,779.2673950195312,792.5640869140625,797.8021850585938,785.3113403320312
1563,781.6849975585938,797.3992919921875,798.6080322265625,788.5347900390625
1564,782.893798828125,800.6226806640625,799.4139404296875,793.7728881835938
1565,787.3259887695312,799.010986328125,797.8021850585938,793.3699340820312
1566,784.908447265625,793.7728881835938,798.6080322265625,782.893798828125
1567,779.6703491210938,791.3552856445312,793.3699340820312,782.893798828125
1568,784.5054931640625,792.1611938476562,791.7582397460938,796.5933837890625
1569,792.1611938476562,794.5787353515625,792.967041015625,799.010986328125
1570,790.5494384765625,789.7435913085938,790.5494384765625,790.5494384765625
1571,788.1318969726562,789.3406372070312,790.1465454101562,792.1611938476562
1572,786.5201416015625,795.7875366210938,787.7289428710938,789.7435913085938
1573,782.087890625,793.7728881835938,790.1465454101562,794.1758422851562
1574,783.6996459960938,790.5494384765625,796.1904907226562,795.3846435546875
1575,790.5494384765625,786.5201416015625,793.3699340820312,784.5054931640625
1576,784.5054931640625,788.1318969726562,789.3406372070312,784.5054931640625
1577,776.4468994140625,789.3406372070312,790.5494384765625,783.6996459960938
1578,782.893798828125,792.1611938476562,794.1758422851562,785.7142944335938
1579,790.5494384765625,794.5787353515625,794.5787353515625,788.937744140625
1580,792.967041015625,792.1611938476562,792.967041015625,789.7435913085938
1581,793.3699340820312,794.981689453125,793.3699340820312,787.7289428710938
1582,793.7728881835938,790.1465454101562,794.5787353515625,786.1171875
1583,791.3552856445312,787.3259887695312,796.996337890625,787.7289428710938
1584,792.5640869140625,795.7875366210938,796.996337890625,787.7289428710938
