timestamp,RAW_TP9,RAW_AF7,RAW_AF8,RAW_TP10
1,811.90478515625,800.6226806640625,792.967041015625,797.3992919921875
2,808.2783813476562,797.8021850585938,791.7582397460938,796.996337890625
3,813.113525390625,797.3992919921875,788.5347900390625,803.4432373046875
4,808.2783813476562,796.996337890625,786.1171875,801.025634765625
5,803.040283203125,797.3992919921875,784.1025390625,795.7875366210938
6,800.6226806640625,794.981689453125,784.5054931640625,794.981689453125
7,803.8461303710938,790.1465454101562,784.908447265625,797.8021850585938
8,801.8314819335938,791.3552856445312,785.3113403320312,802.2344360351562
9,801.025634765625,791.3552856445312,788.5347900390625,800.2197875976562
10,801.025634765625,790.952392578125,788.1318969726562,796.996337890625
11,795.3846435546875,791.7582397460938,788.1318969726562,792.5640869140625
12,797.8021850585938,790.952392578125,790.5494384765625,792.1611938476562
13,789.7435913085938,789.7435913085938,787.7289428710938,792.967041015625
14,790.1465454101562,794.1758422851562,790.5494384765625,794.981689453125
15,801.4285888671875,799.010986328125,793.7728881835938,798.6080322265625
16,805.054931640625,799.4139404296875,789.7435913085938,799.4139404296875
17,796.996337890625,800.2197875976562,790.952392578125,795.3846435546875
18,792.5640869140625,801.4285888671875,796.1904907226562,789.3406372070312
19,811.098876953125,802.6373901367188,800.2197875976562,801.8314819335938
20,812.7106323242188,805.4578857421875,797.8021850585938,809.4871826171875
21,794.5787353515625,803.040283203125,794.5787353515625,796.996337890625
22,792.5640869140625,803.4432373046875,793.7728881835938,797.8021850585938
23,791.3552856445312,801.025634765625,795.3846435546875,803.4432373046875
24,800.2197875976562,798.6080322265625,791.3552856445312,801.4285888671875
25,809.084228515625,796.996337890625,789.7435913085938,804.6520385742188
26,803.4432373046875,797.3992919921875,788.937744140625,805.054931640625
27,792.967041015625,798.2051391601562,791.3552856445312,786.1171875
28,790.5494384765625,797.3992919921875,791.3552856445312,775.6410522460938
29,797.8021850585938,799.4139404296875,786.923095703125,780.0732421875
30,802.2344360351562,801.4285888671875,786.5201416015625,783.2966918945312
31,812.7106323242188,802.2344360351562,781.2820434570312,791.7582397460938
32,807.069580078125,798.6080322265625,782.4908447265625,789.3406372070312
33,780.4761962890625,797.8021850585938,785.7142944335938,778.8644409179688
34,775.2380981445312,797.3992919921875,787.7289428710938,782.4908447265625
35,782.4908447265625,799.4139404296875,795.3846435546875,786.923095703125
36,780.4761962890625,800.6226806640625,796.1904907226562,789.7435913085938
37,779.6703491210938,793.3699340820312,789.7435913085938,788.937744140625
38,786.923095703125,793.7728881835938,787.7289428710938,794.5787353515625
39,791.3552856445312,791.7582397460938,796.5933837890625,797.8021850585938
40,796.996337890625,790.1465454101562,799.010986328125,789.3406372070312
41,797.3992919921875,796.1904907226562,794.5787353515625,788.937744140625
42,789.3406372070312,792.1611938476562,799.010986328125,794.1758422851562
43,793.7728881835938,790.5494384765625,801.025634765625,793.7728881835938
44,803.040283203125,801.025634765625,801.8314819335938,793.3699340820312
45,800.2197875976562,802.6373901367188,801.4285888671875,791.3552856445312
46,793.3699340820312,801.8314819335938,801.8314819335938,793.7728881835938
47,786.1171875,802.2344360351562,804.2490844726562,792.967041015625
48,779.6703491210938,799.8168334960938,803.040283203125,790.952392578125
49,783.2966918945312,796.996337890625,799.010986328125,786.5201416015625
50,787.3259887695312,794.1758422851562,793.7728881835938,792.1611938476562
51,786.1171875,793.3699340820312,793.3699340820312,801.4285888671875
52,788.937744140625,797.8021850585938,794.981689453125,796.5933837890625
53,788.5347900390625,798.6080322265625,797.3992919921875,795.7875366210938
54,792.5640869140625,796.1904907226562,792.5640869140625,802.6373901367188
55,793.3699340820312,795.7875366210938,791.7582397460938,799.010986328125
56,790.952392578125,798.2051391601562,794.5787353515625,794.5787353515625
57,790.952392578125,798.6080322265625,790.5494384765625,805.4578857421875
58,794.981689453125,796.1904907226562,792.5640869140625,807.87548828125
59,799.010986328125,799.4139404296875,795.7875366210938,793.3699340820312
60,799.4139404296875,799.8168334960938,794.1758422851562,789.3406372070312
61,792.1611938476562,792.967041015625,795.3846435546875,782.087890625
62,788.5347900390625,789.7435913085938,792.5640869140625,775.2380981445312
63,787.3259887695312,789.7435913085938,792.967041015625,778.4615478515625
64,784.5054931640625,791.3552856445312,798.6080322265625,786.5201416015625
65,788.1318969726562,791.3552856445312,795.7875366210938,789.7435913085938
66,793.3699340820312,790.5494384765625,792.967041015625,790.1465454101562
67,794.981689453125,794.1758422851562,796.996337890625,792.5640869140625
68,786.5201416015625,792.5640869140625,796.5933837890625,792.5640869140625
69,782.893798828125,789.7435913085938,796.1904907226562,799.010986328125
70,789.7435913085938,788.937744140625,799.8168334960938,803.4432373046875
71,799.4139404296875,792.5640869140625,796.5933837890625,800.6226806640625
72,806.2637329101562,797.3992919921875,797.3992919921875,804.6520385742188
73,805.054931640625,796.996337890625,802.2344360351562,805.8607788085938
74,804.6520385742188,799.8168334960938,802.6373901367188,803.8461303710938
75,804.6520385742188,796.1904907226562,799.4139404296875,801.8314819335938
76,803.040283203125,788.1318969726562,795.3846435546875,796.1904907226562
77,801.4285888671875,784.908447265625,797.3992919921875,797.8021850585938
78,802.6373901367188,790.1465454101562,805.4578857421875,803.4432373046875
79,810.6959838867188,799.010986328125,806.2637329101562,811.5018310546875
80,806.2637329101562,799.010986328125,803.8461303710938,814.3223266601562
81,798.6080322265625,796.5933837890625,803.8461303710938,810.2930297851562
82,795.7875366210938,801.8314819335938,797.8021850585938,796.1904907226562
83,799.4139404296875,800.2197875976562,794.981689453125,787.7289428710938
84,796.5933837890625,796.5933837890625,797.8021850585938,793.3699340820312
85,783.2966918945312,799.4139404296875,799.8168334960938,795.7875366210938
86,790.1465454101562,801.8314819335938,801.025634765625,787.3259887695312
87,798.2051391601562,801.025634765625,797.8021850585938,789.3406372070312
88,791.7582397460938,796.1904907226562,793.3699340820312,789.3406372070312
89,786.1171875,794.5787353515625,790.1465454101562,781.2820434570312
90,788.1318969726562,800.2197875976562,787.3259887695312,784.1025390625
91,796.996337890625,794.981689453125,788.5347900390625,784.1025390625
92,802.6373901367188,790.1465454101562,791.3552856445312,791.7582397460938
93,794.1758422851562,795.3846435546875,799.010986328125,799.010986328125
94,788.937744140625,797.8021850585938,801.025634765625,787.7289428710938
95,796.1904907226562,792.967041015625,798.6080322265625,790.952392578125
96,792.1611938476562,789.7435913085938,799.4139404296875,801.025634765625
97,786.1171875,794.5787353515625,797.3992919921875,798.6080322265625
98,794.5787353515625,794.981689453125,799.010986328125,791.7582397460938
99,799.8168334960938,794.1758422851562,801.025634765625,794.5787353515625
100,788.1318969726562,795.3846435546875,795.7875366210938,798.6080322265625
101,790.5494384765625,793.3699340820312,799.010986328125,796.5933837890625
102,796.5933837890625,791.3552856445312,801.025634765625,794.1758422851562
103,800.2197875976562,794.1758422851562,798.6080322265625,796.996337890625
104,804.6520385742188,789.7435913085938,797.3992919921875,797.8021850585938
105,794.981689453125,787.7289428710938,792.1611938476562,794.1758422851562
106,782.4908447265625,784.5054931640625,790.952392578125,790.5494384765625
107,788.1318969726562,780.879150390625,793.7728881835938,784.1025390625
108,796.1904907226562,784.1025390625,795.3846435546875,778.8644409179688
109,793.7728881835938,786.1171875,790.1465454101562,781.2820434570312
110,796.1904907226562,792.1611938476562,792.5640869140625,786.5201416015625
111,805.054931640625,792.5640869140625,796.996337890625,787.7289428710938
112,813.113525390625,792.1611938476562,795.3846435546875,790.952392578125
113,810.2930297851562,796.996337890625,795.3846435546875,793.3699340820312
114,807.069580078125,798.6080322265625,793.3699340820312,788.937744140625
115,805.8607788085938,797.8021850585938,788.937744140625,788.937744140625
116,791.3552856445312,797.8021850585938,788.937744140625,793.3699340820312
117,782.893798828125,796.1904907226562,790.1465454101562,785.7142944335938
118,796.1904907226562,797.3992919921875,792.967041015625,783.6996459960938
119,802.2344360351562,801.4285888671875,792.5640869140625,784.1025390625
120,795.7875366210938,806.2637329101562,790.952392578125,783.6996459960938
121,795.3846435546875,805.054931640625,795.7875366210938,787.3259887695312
122,799.8168334960938,804.2490844726562,794.981689453125,787.3259887695312
123,800.2197875976562,804.6520385742188,794.1758422851562,786.5201416015625
124,787.7289428710938,802.6373901367188,796.1904907226562,787.3259887695312
125,780.879150390625,801.4285888671875,795.7875366210938,786.923095703125
126,792.967041015625,799.010986328125,795.3846435546875,786.5201416015625
127,792.5640869140625,794.981689453125,793.7728881835938,787.7289428710938
128,794.5787353515625,795.7875366210938,796.1904907226562,786.923095703125
129,799.8168334960938,793.3699340820312,796.1904907226562,782.4908447265625
130,793.3699340820312,791.3552856445312,796.1904907226562,786.1171875
131,792.967041015625,793.3699340820312,799.010986328125,790.952392578125
132,790.952392578125,794.5787353515625,801.025634765625,789.7435913085938
133,782.4908447265625,791.3552856445312,801.8314819335938,790.1465454101562
134,782.4908447265625,788.5347900390625,800.6226806640625,789.3406372070312
135,782.4908447265625,785.3113403320312,799.8168334960938,784.5054931640625
136,778.8644409179688,783.2966918945312,794.981689453125,782.893798828125
137,786.5201416015625,780.879150390625,794.1758422851562,786.5201416015625
138,781.6849975585938,776.8497924804688,798.2051391601562,789.7435913085938
139,771.6116943359375,776.8497924804688,796.1904907226562,792.967041015625
140,773.6264038085938,779.2673950195312,792.1611938476562,781.6849975585938
141,783.2966918945312,785.7142944335938,796.1904907226562,778.8644409179688
142,801.8314819335938,786.923095703125,801.4285888671875,790.952392578125
143,796.5933837890625,789.7435913085938,801.4285888671875,790.952392578125
144,795.7875366210938,796.5933837890625,803.040283203125,787.7289428710938
145,798.2051391601562,793.7728881835938,801.025634765625,791.3552856445312
146,794.1758422851562,794.981689453125,803.040283203125,793.3699340820312
147,792.5640869140625,800.2197875976562,803.040283203125,794.5787353515625
148,789.3406372070312,794.981689453125,799.8168334960938,794.981689453125
149,792.1611938476562,794.5787353515625,801.025634765625,790.952392578125
150,785.7142944335938,799.010986328125,802.2344360351562,791.3552856445312
151,781.6849975585938,799.4139404296875,805.8607788085938,795.3846435546875
152,791.3552856445312,800.6226806640625,803.4432373046875,788.5347900390625
153,801.4285888671875,805.054931640625,804.2490844726562,789.3406372070312
154,798.2051391601562,803.040283203125,804.6520385742188,792.1611938476562
155,790.952392578125,799.4139404296875,797.8021850585938,782.893798828125
156,782.087890625,796.5933837890625,797.8021850585938,783.2966918945312
157,778.05859375,795.7875366210938,796.5933837890625,788.5347900390625
158,779.2673950195312,794.5787353515625,799.010986328125,789.7435913085938
159,780.4761962890625,789.7435913085938,801.025634765625,790.952392578125
160,786.923095703125,788.1318969726562,798.6080322265625,788.5347900390625
161,788.5347900390625,790.952392578125,796.5933837890625,785.3113403320312
162,787.3259887695312,790.1465454101562,792.5640869140625,788.5347900390625
163,783.2966918945312,788.1318969726562,787.7289428710938,782.087890625
164,778.05859375,790.5494384765625,789.7435913085938,779.6703491210938
165,775.2380981445312,791.7582397460938,792.1611938476562,784.5054931640625
166,770.4029541015625,795.7875366210938,791.3552856445312,781.6849975585938
167,783.6996459960938,798.6080322265625,794.1758422851562,780.0732421875
168,793.7728881835938,792.967041015625,794.981689453125,780.879150390625
169,776.8497924804688,788.1318969726562,792.967041015625,779.6703491210938
170,774.8351440429688,785.7142944335938,791.7582397460938,779.6703491210938
171,780.0732421875,789.3406372070312,794.981689453125,778.8644409179688
172,781.2820434570312,791.3552856445312,797.3992919921875,779.6703491210938
173,788.1318969726562,794.1758422851562,792.967041015625,790.952392578125
174,793.7728881835938,795.7875366210938,790.952392578125,790.952392578125
175,791.7582397460938,795.3846435546875,790.952392578125,782.087890625
176,789.3406372070312,797.8021850585938,787.7289428710938,788.5347900390625
177,787.3259887695312,792.1611938476562,782.4908447265625,794.5787353515625
178,785.7142944335938,792.1611938476562,784.1025390625,786.5201416015625
179,787.3259887695312,794.1758422851562,787.7289428710938,785.3113403320312
180,786.5201416015625,791.7582397460938,791.7582397460938,788.937744140625
181,787.3259887695312,795.3846435546875,796.1904907226562,789.7435913085938
182,792.967041015625,798.2051391601562,793.7728881835938,787.7289428710938
183,795.7875366210938,795.7875366210938,792.967041015625,785.7142944335938
184,793.7728881835938,792.967041015625,797.8021850585938,793.7728881835938
185,786.923095703125,790.5494384765625,797.3992919921875,794.981689453125
186,777.6557006835938,791.3552856445312,795.7875366210938,789.7435913085938
187,782.893798828125,793.3699340820312,796.1904907226562,794.1758422851562
188,796.1904907226562,793.3699340820312,793.3699340820312,798.6080322265625
189,797.8021850585938,796.996337890625,794.5787353515625,795.3846435546875
190,792.967041015625,797.8021850585938,792.5640869140625,781.6849975585938
191,792.5640869140625,793.7728881835938,790.952392578125,772.4176025390625
192,785.7142944335938,794.5787353515625,794.1758422851562,773.6264038085938
193,784.5054931640625,791.7582397460938,793.7728881835938,779.6703491210938
194,792.1611938476562,790.952392578125,791.3552856445312,778.4615478515625
195,786.5201416015625,790.1465454101562,790.1465454101562,777.6557006835938
196,778.4615478515625,788.937744140625,791.3552856445312,782.893798828125
197,781.6849975585938,788.937744140625,792.5640869140625,788.937744140625
198,793.3699340820312,791.7582397460938,794.5787353515625,796.1904907226562
199,796.1904907226562,794.981689453125,798.6080322265625,795.3846435546875
200,797.8021850585938,792.967041015625,794.5787353515625,799.4139404296875
201,796.996337890625,795.7875366210938,788.1318969726562,794.1758422851562
202,792.967041015625,794.5787353515625,788.1318969726562,781.6849975585938
203,795.7875366210938,795.7875366210938,789.7435913085938,785.3113403320312
204,796.1904907226562,801.8314819335938,792.1611938476562,791.3552856445312
205,800.6226806640625,799.4139404296875,792.1611938476562,791.7582397460938
206,801.4285888671875,793.3699340820312,791.7582397460938,790.5494384765625
207,792.5640869140625,796.996337890625,794.1758422851562,790.5494384765625
208,789.7435913085938,801.8314819335938,796.5933837890625,793.3699340820312
209,793.7728881835938,800.6226806640625,799.010986328125,792.967041015625
210,791.3552856445312,800.6226806640625,801.025634765625,793.3699340820312
211,784.908447265625,797.3992919921875,798.6080322265625,789.7435913085938
212,785.3113403320312,794.981689453125,794.981689453125,782.893798828125
213,788.5347900390625,792.1611938476562,798.2051391601562,785.3113403320312
214,784.5054931640625,784.5054931640625,798.2051391601562,785.7142944335938
215,781.6849975585938,782.087890625,790.952392578125,783.6996459960938
216,786.923095703125,790.1465454101562,790.5494384765625,786.5201416015625
217,789.7435913085938,791.7582397460938,794.981689453125,784.908447265625
218,789.7435913085938,788.937744140625,797.3992919921875,780.4761962890625
219,794.1758422851562,785.7142944335938,795.3846435546875,787.3259887695312
220,787.7289428710938,785.7142944335938,799.010986328125,788.1318969726562
221,774.029296875,788.1318969726562,800.6226806640625,778.05859375
222,772.4176025390625,788.1318969726562,801.8314819335938,775.2380981445312
223,778.4615478515625,787.7289428710938,805.8607788085938,784.5054931640625
224,779.2673950195312,784.908447265625,801.8314819335938,784.5054931640625
225,776.8497924804688,783.2966918945312,801.4285888671875,777.2527465820312
226,785.7142944335938,786.1171875,803.040283203125,785.7142944335938
227,797.8021850585938,792.1611938476562,801.4285888671875,793.3699340820312
228,790.1465454101562,794.1758422851562,802.2344360351562,786.923095703125
229,779.2673950195312,791.3552856445312,803.4432373046875,780.879150390625
230,790.1465454101562,794.981689453125,802.6373901367188,785.7142944335938
231,801.4285888671875,803.8461303710938,800.6226806640625,788.5347900390625
232,784.1025390625,801.025634765625,796.1904907226562,774.8351440429688
233,762.7472534179688,793.3699340820312,793.3699340820312,765.1648559570312
234,767.1795043945312,794.5787353515625,797.8021850585938,771.6116943359375
235,772.0146484375,801.4285888671875,789.7435913085938,772.0146484375
236,771.6116943359375,801.8314819335938,792.967041015625,759.5238037109375
237,767.1795043945312,812.3076782226562,801.4285888671875,751.4652099609375
238,759.120849609375,816.7399291992188,794.1758422851562,752.6740112304688
239,753.8828125,817.94873046875,787.3259887695312,749.4505615234375
240,744.6153564453125,827.6190185546875,777.6557006835938,734.5421142578125
241,742.6007080078125,833.6630249023438,780.0732421875,730.915771484375
242,728.901123046875,843.7362670898438,790.952392578125,727.6923217773438
243,708.3516235351562,844.1392211914062,789.7435913085938,710.3662719726562
244,703.91943359375,842.930419921875,787.3259887695312,698.6813354492188
245,691.025634765625,845.7509155273438,789.7435913085938,685.7875366210938
246,672.087890625,849.7802124023438,788.5347900390625,674.1025390625
247,673.6996459960938,851.3919677734375,787.7289428710938,669.6703491210938
248,676.1171875,850.5860595703125,786.923095703125,663.2234497070312
249,669.6703491210938,854.2124633789062,784.908447265625,658.7911987304688
250,660.8058471679688,854.6153564453125,790.952392578125,658.7911987304688
251,650.3296508789062,852.1978149414062,796.1904907226562,656.3735961914062
252,653.5531005859375,848.1685180664062,798.2051391601562,655.5677490234375
253,670.0732421875,849.3773193359375,793.7728881835938,668.8644409179688
254,676.5201416015625,852.1978149414062,790.952392578125,673.2966918945312
255,672.087890625,848.1685180664062,793.3699340820312,666.4468994140625
256,685.3846435546875,850.989013671875,794.5787353515625,683.3699340820312
257,701.098876953125,852.1978149414062,796.5933837890625,703.5164794921875
258,705.1282348632812,844.1392211914062,797.3992919921875,702.7106323242188
259,708.7545776367188,841.3186645507812,795.7875366210938,705.5311279296875
260,720.8424682617188,844.945068359375,793.3699340820312,720.03662109375
261,735.7509155273438,839.3040161132812,794.981689453125,732.930419921875
262,747.4359130859375,830.03662109375,791.7582397460938,738.974365234375
263,763.1502075195312,829.2307739257812,788.5347900390625,743.003662109375
264,770.4029541015625,825.2014770507812,790.5494384765625,767.1795043945312
265,773.2234497070312,820.3662719726562,789.3406372070312,784.5054931640625
266,774.8351440429688,811.098876953125,789.3406372070312,782.087890625
267,778.05859375,804.2490844726562,792.1611938476562,790.952392578125
268,787.7289428710938,803.8461303710938,790.952392578125,801.4285888671875
269,790.952392578125,793.7728881835938,789.7435913085938,805.4578857421875
270,793.3699340820312,787.7289428710938,793.7728881835938,805.4578857421875
271,803.040283203125,784.5054931640625,793.7728881835938,804.6520385742188
272,812.7106323242188,783.2966918945312,786.5201416015625,812.3076782226562
273,814.7252807617188,780.4761962890625,782.087890625,819.96337890625
274,818.3516235351562,776.4468994140625,783.6996459960938,824.7985229492188
275,832.8571166992188,774.029296875,787.3259887695312,832.8571166992188
276,840.5128173828125,772.8204956054688,792.967041015625,828.02197265625
277,846.1538696289062,768.3883056640625,794.981689453125,834.4688720703125
278,839.7069702148438,764.7619018554688,792.1611938476562,835.2747192382812
279,830.8424682617188,763.5531005859375,794.1758422851562,829.2307739257812
280,844.1392211914062,765.5677490234375,797.8021850585938,835.6776733398438
281,846.5567626953125,765.1648559570312,795.7875366210938,833.2600708007812
282,840.10986328125,762.7472534179688,796.996337890625,836.886474609375
283,836.886474609375,762.7472534179688,800.6226806640625,840.5128173828125
284,832.05126953125,762.3442993164062,797.3992919921875,840.5128173828125
285,834.06591796875,764.7619018554688,795.3846435546875,846.959716796875
286,835.6776733398438,765.970703125,797.3992919921875,847.7655639648438
287,847.7655639648438,764.3589477539062,798.2051391601562,848.5714111328125
288,849.3773193359375,765.5677490234375,797.8021850585938,845.7509155273438
289,840.10986328125,769.1941528320312,798.2051391601562,845.3479614257812
290,836.4835205078125,772.4176025390625,797.8021850585938,845.3479614257812
291,840.5128173828125,772.8204956054688,794.981689453125,844.1392211914062
292,844.945068359375,775.2380981445312,792.5640869140625,845.7509155273438
293,840.5128173828125,776.0439453125,790.5494384765625,839.3040161132812
294,840.5128173828125,774.4322509765625,788.937744140625,831.6483764648438
295,835.2747192382812,772.4176025390625,784.908447265625,832.4542236328125
296,832.8571166992188,770.0,784.5054931640625,837.6923217773438
297,834.4688720703125,767.9853515625,788.5347900390625,832.05126953125
298,838.09521484375,768.3883056640625,792.5640869140625,826.8131713867188
299,831.6483764648438,767.1795043945312,790.5494384765625,834.8717651367188
300,823.1868286132812,764.7619018554688,788.1318969726562,836.4835205078125
301,819.96337890625,763.5531005859375,786.923095703125,817.94873046875
302,810.6959838867188,763.9560546875,784.5054931640625,808.6813354492188
303,815.5311279296875,769.1941528320312,789.3406372070312,813.91943359375
304,814.7252807617188,771.2088012695312,788.937744140625,812.7106323242188
305,809.89013671875,770.8058471679688,790.952392578125,811.90478515625
306,807.87548828125,771.6116943359375,796.1904907226562,813.5164794921875
307,809.89013671875,770.0,792.967041015625,817.94873046875
308,809.084228515625,769.5970458984375,794.1758422851562,822.7838745117188
309,816.3369750976562,776.8497924804688,794.1758422851562,822.7838745117188
310,819.1575317382812,780.879150390625,795.7875366210938,826.4102783203125
311,819.5604248046875,780.0732421875,804.2490844726562,830.8424682617188
312,828.8278198242188,781.2820434570312,806.2637329101562,830.4395751953125
313,820.3662719726562,780.4761962890625,797.8021850585938,825.6043701171875
314,815.93408203125,778.4615478515625,798.2051391601562,822.3809814453125
315,818.7545776367188,779.2673950195312,802.6373901367188,819.1575317382812
316,816.7399291992188,783.6996459960938,797.3992919921875,822.3809814453125
317,817.5457763671875,783.6996459960938,797.3992919921875,826.00732421875
318,822.3809814453125,784.5054931640625,799.8168334960938,828.02197265625
319,824.3956298828125,788.5347900390625,799.4139404296875,826.8131713867188
320,824.7985229492188,787.7289428710938,800.6226806640625,818.3516235351562
321,821.97802734375,786.923095703125,803.8461303710938,817.94873046875
322,821.97802734375,790.952392578125,805.054931640625,820.3662719726562
323,818.7545776367188,789.7435913085938,803.4432373046875,815.5311279296875
324,810.6959838867188,785.7142944335938,800.2197875976562,807.87548828125
325,805.4578857421875,785.3113403320312,795.7875366210938,805.4578857421875
326,806.2637329101562,788.5347900390625,795.3846435546875,811.90478515625
327,809.084228515625,788.937744140625,799.010986328125,815.5311279296875
328,808.6813354492188,784.5054931640625,797.3992919921875,805.4578857421875
329,801.025634765625,785.7142944335938,794.5787353515625,799.010986328125
330,799.4139404296875,789.3406372070312,798.2051391601562,805.4578857421875
331,802.6373901367188,790.5494384765625,796.996337890625,809.89013671875
332,805.4578857421875,789.3406372070312,794.5787353515625,809.084228515625
333,804.6520385742188,782.893798828125,794.981689453125,801.4285888671875
334,800.2197875976562,781.6849975585938,794.5787353515625,798.6080322265625
335,802.2344360351562,781.2820434570312,795.3846435546875,805.8607788085938
336,804.2490844726562,782.893798828125,796.996337890625,803.040283203125
337,805.4578857421875,786.1171875,795.7875366210938,799.010986328125
338,803.4432373046875,782.4908447265625,798.2051391601562,800.6226806640625
339,799.010986328125,782.893798828125,801.025634765625,802.6373901367188
340,800.2197875976562,790.5494384765625,805.4578857421875,803.8461303710938
341,803.4432373046875,794.1758422851562,804.6520385742188,796.1904907226562
342,806.6666870117188,790.952392578125,799.4139404296875,805.8607788085938
343,800.6226806640625,786.1171875,797.8021850585938,805.8607788085938
344,800.2197875976562,787.3259887695312,797.8021850585938,794.981689453125
345,803.4432373046875,787.7289428710938,796.5933837890625,798.6080322265625
346,794.981689453125,784.908447265625,799.4139404296875,797.3992919921875
347,791.7582397460938,790.1465454101562,801.4285888671875,795.7875366210938
348,793.7728881835938,794.1758422851562,797.8021850585938,797.3992919921875
349,794.5787353515625,789.3406372070312,798.6080322265625,794.981689453125
350,790.952392578125,788.5347900390625,794.5787353515625,791.7582397460938
351,789.3406372070312,788.1318969726562,796.1904907226562,791.3552856445312
352,796.5933837890625,789.7435913085938,798.6080322265625,788.5347900390625
353,805.054931640625,792.5640869140625,794.5787353515625,791.7582397460938
354,805.4578857421875,794.1758422851562,797.3992919921875,796.1904907226562
355,796.1904907226562,796.996337890625,802.2344360351562,792.967041015625
356,789.7435913085938,793.7728881835938,800.2197875976562,788.1318969726562
357,791.7582397460938,787.7289428710938,797.3992919921875,793.7728881835938
358,799.4139404296875,790.952392578125,797.3992919921875,802.6373901367188
359,793.7728881835938,795.7875366210938,797.8021850585938,792.5640869140625
360,792.5640869140625,794.1758422851562,793.7728881835938,788.1318969726562
361,793.3699340820312,789.7435913085938,788.937744140625,788.5347900390625
362,789.3406372070312,786.923095703125,788.937744140625,788.937744140625
363,794.981689453125,788.1318969726562,795.3846435546875,792.5640869140625
364,794.1758422851562,789.7435913085938,796.1904907226562,785.7142944335938
365,791.7582397460938,785.3113403320312,792.1611938476562,780.4761962890625
366,793.7728881835938,787.3259887695312,792.5640869140625,777.2527465820312
367,798.6080322265625,790.5494384765625,795.3846435546875,772.8204956054688
368,803.040283203125,786.1171875,797.8021850585938,774.4322509765625
369,799.4139404296875,787.3259887695312,796.5933837890625,789.3406372070312
370,795.3846435546875,790.1465454101562,798.2051391601562,792.5640869140625
371,791.3552856445312,792.5640869140625,795.3846435546875,778.4615478515625
372,790.952392578125,792.1611938476562,796.1904907226562,776.8497924804688
373,798.6080322265625,793.7728881835938,796.996337890625,780.4761962890625
374,796.5933837890625,795.7875366210938,798.2051391601562,778.4615478515625
375,787.3259887695312,795.3846435546875,800.6226806640625,781.6849975585938
376,785.3113403320312,795.3846435546875,801.4285888671875,786.923095703125
377,788.5347900390625,790.952392578125,798.6080322265625,786.923095703125
378,791.3552856445312,787.7289428710938,794.981689453125,788.937744140625
379,796.5933837890625,787.3259887695312,792.5640869140625,786.1171875
380,793.7728881835938,788.1318969726562,788.1318969726562,786.923095703125
381,789.3406372070312,786.923095703125,782.893798828125,785.7142944335938
382,790.1465454101562,780.4761962890625,785.7142944335938,784.1025390625
383,790.5494384765625,778.8644409179688,787.3259887695312,786.923095703125
384,791.7582397460938,785.7142944335938,787.3259887695312,789.3406372070312
385,793.7728881835938,789.3406372070312,789.7435913085938,787.3259887695312
386,795.3846435546875,789.3406372070312,795.3846435546875,788.5347900390625
387,790.5494384765625,788.937744140625,796.1904907226562,790.952392578125
388,791.3552856445312,788.1318969726562,794.5787353515625,788.5347900390625
389,797.8021850585938,787.7289428710938,799.010986328125,787.3259887695312
390,801.8314819335938,791.7582397460938,795.7875366210938,785.3113403320312
391,808.6813354492188,794.5787353515625,789.3406372070312,784.1025390625
392,803.040283203125,792.1611938476562,791.3552856445312,799.4139404296875
393,797.8021850585938,792.1611938476562,796.5933837890625,803.8461303710938
394,800.6226806640625,796.996337890625,799.8168334960938,794.5787353515625
395,792.5640869140625,795.7875366210938,799.4139404296875,790.1465454101562
396,785.3113403320312,788.1318969726562,797.3992919921875,786.5201416015625
397,786.923095703125,785.7142944335938,802.6373901367188,788.937744140625
398,788.1318969726562,784.1025390625,801.4285888671875,785.7142944335938
399,789.7435913085938,784.1025390625,794.5787353515625,786.5201416015625
400,789.7435913085938,787.7289428710938,796.1904907226562,793.7728881835938
401,791.7582397460938,786.923095703125,797.3992919921875,793.3699340820312
402,792.5640869140625,788.5347900390625,797.3992919921875,794.5787353515625
403,793.3699340820312,792.967041015625,799.010986328125,798.2051391601562
404,794.981689453125,789.3406372070312,798.6080322265625,801.4285888671875
405,796.1904907226562,790.952392578125,799.010986328125,799.4139404296875
406,793.3699340820312,794.1758422851562,800.6226806640625,792.1611938476562
407,790.5494384765625,790.952392578125,803.8461303710938,791.7582397460938
408,796.1904907226562,796.5933837890625,807.069580078125,793.3699340820312
409,797.3992919921875,800.6226806640625,806.2637329101562,792.967041015625
410,790.1465454101562,794.981689453125,801.8314819335938,790.1465454101562
411,784.5054931640625,790.5494384765625,801.025634765625,789.7435913085938
412,780.879150390625,790.952392578125,801.8314819335938,788.5347900390625
413,786.5201416015625,795.3846435546875,801.8314819335938,792.967041015625
414,798.6080322265625,792.5640869140625,801.8314819335938,795.3846435546875
415,798.2051391601562,792.1611938476562,798.6080322265625,791.7582397460938
416,792.967041015625,795.7875366210938,801.4285888671875,791.3552856445312
417,789.7435913085938,792.5640869140625,803.040283203125,789.7435913085938
418,788.937744140625,792.5640869140625,802.2344360351562,790.5494384765625
419,791.7582397460938,789.7435913085938,803.040283203125,790.952392578125
420,794.981689453125,786.923095703125,803.040283203125,788.1318969726562
421,791.7582397460938,787.7289428710938,803.040283203125,782.893798828125
422,787.3259887695312,787.7289428710938,802.2344360351562,784.5054931640625
423,786.923095703125,791.7582397460938,799.8168334960938,791.7582397460938
424,780.879150390625,793.7728881835938,797.3992919921875,784.908447265625
425,784.5054931640625,790.5494384765625,803.4432373046875,785.7142944335938
426,792.967041015625,788.937744140625,805.054931640625,796.1904907226562
427,794.1758422851562,787.7289428710938,798.2051391601562,797.8021850585938
428,794.1758422851562,791.7582397460938,800.6226806640625,796.996337890625
429,792.967041015625,794.1758422851562,802.2344360351562,800.2197875976562
430,787.7289428710938,794.1758422851562,804.6520385742188,798.6080322265625
431,788.5347900390625,792.967041015625,803.4432373046875,795.3846435546875
432,794.981689453125,790.1465454101562,801.025634765625,796.5933837890625
433,800.2197875976562,793.3699340820312,801.8314819335938,801.4285888671875
434,798.6080322265625,794.981689453125,797.8021850585938,796.5933837890625
435,793.7728881835938,797.8021850585938,795.7875366210938,789.3406372070312
436,799.4139404296875,798.6080322265625,796.996337890625,792.1611938476562
437,800.6226806640625,792.5640869140625,799.4139404296875,790.1465454101562
438,784.5054931640625,790.5494384765625,796.996337890625,785.7142944335938
439,785.7142944335938,794.1758422851562,792.967041015625,786.5201416015625
440,790.5494384765625,793.3699340820312,792.1611938476562,781.2820434570312
441,785.7142944335938,788.5347900390625,790.1465454101562,779.6703491210938
442,790.1465454101562,791.7582397460938,789.7435913085938,791.3552856445312
443,788.1318969726562,799.010986328125,787.3259887695312,788.5347900390625
444,788.937744140625,796.996337890625,786.923095703125,786.1171875
445,800.6226806640625,794.1758422851562,792.5640869140625,790.5494384765625
446,805.4578857421875,793.3699340820312,793.3699340820312,788.5347900390625
447,799.4139404296875,790.952392578125,792.5640869140625,785.7142944335938
448,786.5201416015625,791.3552856445312,792.5640869140625,786.5201416015625
449,785.3113403320312,789.3406372070312,795.7875366210938,795.3846435546875
450,792.1611938476562,791.7582397460938,792.1611938476562,792.5640869140625
451,789.3406372070312,796.1904907226562,786.923095703125,788.937744140625
452,782.893798828125,796.996337890625,788.1318969726562,791.3552856445312
453,782.087890625,792.5640869140625,786.923095703125,792.1611938476562
454,786.923095703125,792.967041015625,791.7582397460938,795.3846435546875
455,792.5640869140625,790.952392578125,791.7582397460938,797.8021850585938
456,796.5933837890625,787.3259887695312,786.5201416015625,795.7875366210938
457,797.8021850585938,788.1318969726562,786.923095703125,791.7582397460938
458,790.5494384765625,788.1318969726562,788.1318969726562,790.952392578125
459,790.1465454101562,789.7435913085938,788.1318969726562,789.3406372070312
460,797.3992919921875,790.5494384765625,792.967041015625,793.7728881835938
461,798.2051391601562,788.937744140625,797.8021850585938,798.6080322265625
462,801.025634765625,792.967041015625,796.996337890625,796.1904907226562
463,801.8314819335938,792.5640869140625,793.7728881835938,797.8021850585938
464,791.3552856445312,792.5640869140625,792.967041015625,809.084228515625
465,789.7435913085938,793.7728881835938,794.1758422851562,815.5311279296875
466,796.1904907226562,791.3552856445312,793.3699340820312,805.4578857421875
467,785.7142944335938,788.937744140625,797.8021850585938,800.6226806640625
468,779.6703491210938,788.937744140625,800.2197875976562,798.6080322265625
469,790.5494384765625,794.981689453125,796.5933837890625,798.2051391601562
470,796.5933837890625,795.7875366210938,796.1904907226562,798.6080322265625
471,807.069580078125,795.7875366210938,793.7728881835938,797.8021850585938
472,800.6226806640625,796.1904907226562,796.996337890625,798.2051391601562
473,784.1025390625,794.5787353515625,801.025634765625,791.7582397460938
474,792.1611938476562,794.5787353515625,807.069580078125,797.8021850585938
475,793.3699340820312,794.981689453125,809.89013671875,804.2490844726562
476,787.7289428710938,789.3406372070312,802.6373901367188,799.010986328125
477,786.5201416015625,784.908447265625,802.2344360351562,802.2344360351562
478,788.937744140625,786.5201416015625,802.2344360351562,797.3992919921875
479,784.5054931640625,788.1318969726562,800.2197875976562,790.5494384765625
480,773.2234497070312,792.1611938476562,801.025634765625,789.7435913085938
481,777.6557006835938,789.3406372070312,802.6373901367188,790.1465454101562
482,784.5054931640625,785.3113403320312,798.6080322265625,787.7289428710938
483,782.087890625,789.7435913085938,796.1904907226562,790.1465454101562
484,781.6849975585938,790.952392578125,793.3699340820312,781.6849975585938
485,784.5054931640625,785.3113403320312,793.7728881835938,774.4322509765625
486,780.879150390625,785.3113403320312,798.6080322265625,779.6703491210938
487,776.4468994140625,788.5347900390625,795.7875366210938,782.087890625
488,782.893798828125,789.3406372070312,795.3846435546875,788.5347900390625
489,786.1171875,791.7582397460938,798.2051391601562,784.5054931640625
490,783.2966918945312,794.1758422851562,799.8168334960938,786.923095703125
491,788.5347900390625,792.1611938476562,801.8314819335938,795.3846435546875
492,790.952392578125,789.3406372070312,801.025634765625,796.1904907226562
493,787.7289428710938,792.967041015625,801.4285888671875,797.8021850585938
494,786.923095703125,794.981689453125,802.2344360351562,798.6080322265625
495,790.952392578125,796.996337890625,803.4432373046875,799.4139404296875
496,790.1465454101562,799.4139404296875,803.8461303710938,802.6373901367188
497,793.3699340820312,793.7728881835938,800.2197875976562,797.3992919921875
498,794.1758422851562,792.967041015625,799.010986328125,790.5494384765625
499,792.967041015625,792.967041015625,800.6226806640625,801.4285888671875
500,789.7435913085938,791.7582397460938,795.3846435546875,802.2344360351562
501,790.1465454101562,792.967041015625,795.3846435546875,788.937744140625
502,796.996337890625,792.967041015625,797.3992919921875,799.8168334960938
503,800.2197875976562,795.7875366210938,797.3992919921875,799.4139404296875
504,798.6080322265625,795.7875366210938,792.5640869140625,790.5494384765625
505,795.3846435546875,791.7582397460938,791.7582397460938,791.3552856445312
506,790.1465454101562,786.923095703125,799.010986328125,786.1171875
507,791.7582397460938,786.923095703125,795.3846435546875,784.5054931640625
508,797.3992919921875,787.7289428710938,792.5640869140625,790.952392578125
509,792.5640869140625,785.7142944335938,791.3552856445312,788.937744140625
510,797.3992919921875,790.5494384765625,790.1465454101562,788.5347900390625
511,802.6373901367188,791.7582397460938,797.8021850585938,801.8314819335938
512,795.3846435546875,788.1318969726562,797.8021850585938,799.4139404296875
513,788.937744140625,789.3406372070312,798.2051391601562,790.5494384765625
514,788.5347900390625,789.7435913085938,804.6520385742188,805.054931640625
515,791.7582397460938,790.5494384765625,805.054931640625,810.2930297851562
516,798.6080322265625,794.1758422851562,801.8314819335938,798.6080322265625
517,804.2490844726562,794.981689453125,801.4285888671875,798.2051391601562
518,796.5933837890625,792.5640869140625,794.981689453125,790.1465454101562
519,788.5347900390625,793.7728881835938,793.3699340820312,782.893798828125
520,791.7582397460938,796.996337890625,799.010986328125,786.1171875
521,792.967041015625,800.6226806640625,800.6226806640625,784.5054931640625
522,794.1758422851562,800.2197875976562,795.3846435546875,788.1318969726562
523,793.7728881835938,799.010986328125,795.3846435546875,790.5494384765625
524,790.1465454101562,800.6226806640625,803.8461303710938,784.5054931640625
525,790.5494384765625,799.4139404296875,803.040283203125,785.3113403320312
526,789.3406372070312,796.1904907226562,796.996337890625,783.2966918945312
527,795.3846435546875,792.1611938476562,798.2051391601562,777.2527465820312
528,794.1758422851562,791.3552856445312,796.1904907226562,785.3113403320312
529,779.6703491210938,792.5640869140625,794.5787353515625,783.2966918945312
530,779.2673950195312,797.8021850585938,798.6080322265625,781.6849975585938
531,783.2966918945312,800.6226806640625,799.010986328125,789.7435913085938
532,786.1171875,797.3992919921875,799.010986328125,786.923095703125
533,791.3552856445312,794.5787353515625,799.8168334960938,790.952392578125
534,786.5201416015625,792.967041015625,798.2051391601562,792.967041015625
535,780.0732421875,788.937744140625,796.996337890625,782.893798828125
536,782.4908447265625,790.1465454101562,796.5933837890625,783.2966918945312
537,783.6996459960938,792.1611938476562,796.1904907226562,791.3552856445312
538,787.3259887695312,785.3113403320312,793.3699340820312,791.7582397460938
539,778.8644409179688,780.4761962890625,791.3552856445312,784.1025390625
540,772.8204956054688,786.923095703125,795.7875366210938,781.2820434570312
541,781.2820434570312,792.5640869140625,796.996337890625,790.952392578125
542,782.4908447265625,788.937744140625,795.7875366210938,801.025634765625
543,780.0732421875,790.1465454101562,792.967041015625,791.3552856445312
544,780.0732421875,789.3406372070312,789.3406372070312,782.087890625
545,778.8644409179688,786.1171875,790.5494384765625,782.893798828125
546,782.087890625,788.5347900390625,792.5640869140625,782.087890625
547,793.3699340820312,788.937744140625,791.7582397460938,776.0439453125
548,796.996337890625,788.5347900390625,793.7728881835938,780.0732421875
549,784.908447265625,784.908447265625,792.1611938476562,789.3406372070312
550,782.087890625,785.3113403320312,792.5640869140625,790.1465454101562
551,781.2820434570312,787.3259887695312,792.967041015625,786.923095703125
552,780.4761962890625,784.5054931640625,794.5787353515625,788.5347900390625
553,785.3113403320312,786.923095703125,794.5787353515625,790.1465454101562
554,786.923095703125,786.923095703125,794.1758422851562,779.6703491210938
555,789.3406372070312,789.3406372070312,799.010986328125,780.0732421875
556,791.7582397460938,788.5347900390625,801.025634765625,788.5347900390625
557,789.3406372070312,788.5347900390625,799.8168334960938,796.5933837890625
558,791.7582397460938,790.1465454101562,799.8168334960938,797.8021850585938
559,790.1465454101562,789.3406372070312,800.6226806640625,794.981689453125
560,788.5347900390625,790.5494384765625,803.8461303710938,791.7582397460938
561,793.3699340820312,788.937744140625,803.4432373046875,789.3406372070312
562,798.2051391601562,789.3406372070312,802.6373901367188,792.5640869140625
563,797.8021850585938,794.1758422851562,803.4432373046875,792.5640869140625
564,796.5933837890625,796.996337890625,800.6226806640625,793.7728881835938
565,795.3846435546875,796.996337890625,795.7875366210938,794.1758422851562
566,789.3406372070312,794.1758422851562,799.4139404296875,789.7435913085938
567,789.3406372070312,788.5347900390625,797.8021850585938,788.937744140625
568,798.6080322265625,792.967041015625,794.1758422851562,793.7728881835938
569,798.6080322265625,794.5787353515625,798.2051391601562,792.967041015625
570,788.5347900390625,791.7582397460938,796.996337890625,785.3113403320312
571,786.923095703125,792.967041015625,792.967041015625,782.087890625
572,794.5787353515625,796.5933837890625,791.7582397460938,791.3552856445312
573,794.981689453125,797.8021850585938,794.1758422851562,801.025634765625
574,792.1611938476562,796.1904907226562,795.7875366210938,791.7582397460938
575,788.937744140625,795.3846435546875,791.3552856445312,787.3259887695312
576,788.937744140625,796.1904907226562,789.7435913085938,792.5640869140625
577,790.952392578125,796.996337890625,791.3552856445312,787.3259887695312
578,790.5494384765625,798.6080322265625,789.3406372070312,788.5347900390625
579,795.3846435546875,803.4432373046875,792.5640869140625,794.981689453125
580,786.923095703125,801.4285888671875,792.1611938476562,790.1465454101562
581,778.4615478515625,795.3846435546875,789.3406372070312,788.937744140625
582,782.893798828125,799.4139404296875,794.981689453125,796.1904907226562
583,788.1318969726562,801.4285888671875,799.010986328125,797.3992919921875
584,793.7728881835938,796.5933837890625,798.6080322265625,798.6080322265625
585,789.3406372070312,791.7582397460938,797.3992919921875,797.8021850585938
586,792.5640869140625,792.5640869140625,797.8021850585938,793.3699340820312
587,792.967041015625,792.1611938476562,799.010986328125,789.7435913085938
588,787.3259887695312,793.7728881835938,796.1904907226562,790.952392578125
589,782.087890625,788.1318969726562,794.1758422851562,792.967041015625
590,780.4761962890625,787.7289428710938,792.1611938476562,792.967041015625
591,782.4908447265625,790.1465454101562,789.7435913085938,791.3552856445312
592,780.879150390625,789.7435913085938,788.937744140625,792.5640869140625
593,779.2673950195312,790.1465454101562,791.7582397460938,789.7435913085938
594,781.6849975585938,791.7582397460938,794.5787353515625,781.2820434570312
595,779.2673950195312,792.967041015625,789.7435913085938,777.6557006835938
596,781.2820434570312,792.967041015625,792.1611938476562,779.2673950195312
597,788.1318969726562,792.1611938476562,800.2197875976562,784.1025390625
598,789.3406372070312,790.5494384765625,803.040283203125,786.1171875
599,792.1611938476562,794.5787353515625,803.040283203125,792.967041015625
600,793.3699340820312,797.8021850585938,801.4285888671875,792.1611938476562
601,794.1758422851562,800.2197875976562,799.8168334960938,789.3406372070312
602,797.3992919921875,799.8168334960938,795.3846435546875,791.7582397460938
603,793.3699340820312,795.7875366210938,790.952392578125,789.3406372070312
604,780.0732421875,794.5787353515625,789.7435913085938,783.2966918945312
605,782.087890625,792.967041015625,790.1465454101562,786.1171875
606,789.3406372070312,790.1465454101562,791.7582397460938,785.3113403320312
607,789.7435913085938,789.7435913085938,790.952392578125,786.5201416015625
608,789.7435913085938,792.5640869140625,788.937744140625,786.1171875
609,790.952392578125,791.7582397460938,790.952392578125,783.6996459960938
610,798.2051391601562,792.967041015625,792.5640869140625,786.923095703125
611,804.6520385742188,794.5787353515625,790.952392578125,786.923095703125
612,803.8461303710938,795.3846435546875,789.7435913085938,790.5494384765625
613,796.996337890625,794.1758422851562,786.1171875,787.7289428710938
614,795.3846435546875,792.5640869140625,786.5201416015625,780.879150390625
615,796.5933837890625,788.1318969726562,789.7435913085938,781.2820434570312
616,797.8021850585938,788.937744140625,792.5640869140625,787.3259887695312
617,794.981689453125,792.5640869140625,794.5787353515625,788.5347900390625
618,790.952392578125,793.3699340820312,788.5347900390625,788.5347900390625
619,788.937744140625,795.7875366210938,786.5201416015625,793.3699340820312
620,784.5054931640625,790.952392578125,795.7875366210938,792.967041015625
621,784.5054931640625,791.7582397460938,792.5640869140625,785.7142944335938
622,787.3259887695312,799.010986328125,787.7289428710938,785.7142944335938
623,782.4908447265625,795.7875366210938,790.1465454101562,786.1171875
624,784.908447265625,796.1904907226562,794.1758422851562,786.5201416015625
625,792.967041015625,801.8314819335938,798.6080322265625,789.7435913085938
626,791.3552856445312,803.040283203125,800.2197875976562,787.3259887695312
627,774.8351440429688,796.1904907226562,801.4285888671875,798.6080322265625
628,778.05859375,793.3699340820312,801.025634765625,801.8314819335938
629,781.2820434570312,793.3699340820312,800.6226806640625,794.981689453125
630,782.4908447265625,801.025634765625,799.4139404296875,790.5494384765625
631,790.1465454101562,802.2344360351562,797.8021850585938,796.5933837890625
632,790.952392578125,798.6080322265625,799.010986328125,792.1611938476562
633,787.7289428710938,795.7875366210938,805.054931640625,793.3699340820312
634,786.5201416015625,798.6080322265625,805.4578857421875,789.3406372070312
635,790.1465454101562,798.2051391601562,800.6226806640625,781.2820434570312
636,794.1758422851562,793.7728881835938,799.010986328125,783.2966918945312
637,797.8021850585938,794.5787353515625,801.8314819335938,790.952392578125
638,793.3699340820312,796.5933837890625,800.6226806640625,789.3406372070312
639,786.5201416015625,796.5933837890625,796.996337890625,788.1318969726562
640,790.5494384765625,798.2051391601562,796.5933837890625,784.5054931640625
641,790.1465454101562,796.5933837890625,796.5933837890625,780.879150390625
642,786.923095703125,790.5494384765625,799.010986328125,786.923095703125
643,789.3406372070312,792.5640869140625,796.5933837890625,784.1025390625
644,792.967041015625,795.3846435546875,800.2197875976562,782.4908447265625
645,794.1758422851562,790.952392578125,800.6226806640625,786.1171875
646,790.1465454101562,790.1465454101562,794.981689453125,784.908447265625
647,789.3406372070312,796.5933837890625,796.996337890625,782.087890625
648,790.952392578125,798.6080322265625,792.5640869140625,785.7142944335938
649,787.7289428710938,799.010986328125,790.5494384765625,788.1318969726562
650,784.1025390625,799.010986328125,792.5640869140625,781.2820434570312
651,791.7582397460938,797.3992919921875,795.3846435546875,788.5347900390625
652,790.1465454101562,795.3846435546875,795.3846435546875,787.7289428710938
653,784.5054931640625,793.3699340820312,793.7728881835938,780.0732421875
654,793.3699340820312,794.5787353515625,798.2051391601562,786.5201416015625
655,790.5494384765625,794.981689453125,794.981689453125,790.952392578125
656,788.5347900390625,791.7582397460938,792.1611938476562,795.3846435546875
657,793.3699340820312,793.3699340820312,794.5787353515625,792.967041015625
658,794.5787353515625,799.010986328125,792.5640869140625,784.5054931640625
659,785.3113403320312,796.996337890625,792.1611938476562,783.2966918945312
660,777.6557006835938,793.7728881835938,792.5640869140625,790.1465454101562
661,782.893798828125,794.981689453125,795.3846435546875,789.7435913085938
662,786.1171875,796.5933837890625,796.996337890625,787.7289428710938
663,784.5054931640625,794.981689453125,797.3992919921875,784.5054931640625
664,788.5347900390625,790.952392578125,795.3846435546875,784.908447265625
665,784.5054931640625,794.5787353515625,792.967041015625,788.937744140625
666,780.0732421875,798.2051391601562,796.1904907226562,786.923095703125
667,784.908447265625,793.3699340820312,796.996337890625,787.7289428710938
668,788.1318969726562,792.967041015625,794.1758422851562,790.5494384765625
669,786.923095703125,794.5787353515625,794.981689453125,788.1318969726562
670,791.3552856445312,794.5787353515625,803.040283203125,788.937744140625
671,790.5494384765625,793.3699340820312,804.2490844726562,797.3992919921875
672,792.967041015625,793.7728881835938,806.6666870117188,795.3846435546875
673,796.1904907226562,796.996337890625,810.2930297851562,798.6080322265625
674,791.3552856445312,794.1758422851562,803.4432373046875,805.8607788085938
675,791.7582397460938,794.5787353515625,800.6226806640625,802.2344360351562
676,795.7875366210938,798.2051391601562,803.040283203125,794.981689453125
677,800.2197875976562,797.8021850585938,802.6373901367188,793.3699340820312
678,792.1611938476562,796.1904907226562,799.8168334960938,792.1611938476562
679,784.1025390625,792.5640869140625,800.2197875976562,789.3406372070312
680,790.952392578125,792.1611938476562,796.996337890625,788.5347900390625
681,790.5494384765625,792.1611938476562,795.3846435546875,792.5640869140625
682,784.908447265625,787.7289428710938,794.5787353515625,796.1904907226562
683,783.6996459960938,785.7142944335938,790.952392578125,790.5494384765625
684,784.1025390625,790.5494384765625,790.5494384765625,780.0732421875
685,786.923095703125,789.3406372070312,790.952392578125,776.8497924804688
686,784.5054931640625,787.7289428710938,793.3699340820312,778.05859375
687,783.6996459960938,789.7435913085938,791.7582397460938,778.8644409179688
688,784.908447265625,787.3259887695312,786.923095703125,777.6557006835938
689,786.5201416015625,788.5347900390625,788.937744140625,781.2820434570312
690,786.1171875,787.7289428710938,792.5640869140625,782.4908447265625
691,784.908447265625,784.1025390625,796.5933837890625,783.6996459960938
692,782.893798828125,786.923095703125,798.6080322265625,789.7435913085938
693,783.6996459960938,795.3846435546875,797.8021850585938,790.952392578125
694,784.1025390625,792.1611938476562,800.6226806640625,797.3992919921875
695,783.6996459960938,787.7289428710938,798.2051391601562,793.7728881835938
696,787.3259887695312,788.937744140625,796.996337890625,784.908447265625
697,797.3992919921875,787.3259887695312,801.025634765625,786.923095703125
698,789.7435913085938,786.5201416015625,801.025634765625,782.4908447265625
699,778.4615478515625,785.7142944335938,801.025634765625,785.3113403320312
700,783.2966918945312,786.5201416015625,801.4285888671875,790.952392578125
701,789.3406372070312,787.7289428710938,799.010986328125,800.2197875976562
702,788.937744140625,790.952392578125,799.010986328125,804.6520385742188
703,781.6849975585938,794.1758422851562,801.4285888671875,793.3699340820312
704,782.087890625,796.1904907226562,801.8314819335938,790.5494384765625
705,784.908447265625,793.7728881835938,799.010986328125,794.981689453125
706,782.893798828125,788.1318969726562,796.5933837890625,801.025634765625
707,790.5494384765625,788.937744140625,802.2344360351562,795.7875366210938
708,799.010986328125,792.1611938476562,806.6666870117188,794.1758422851562
709,790.952392578125,792.967041015625,803.4432373046875,794.981689453125
710,788.5347900390625,792.5640869140625,797.8021850585938,793.7728881835938
711,782.893798828125,791.7582397460938,793.7728881835938,787.7289428710938
712,779.6703491210938,793.3699340820312,798.2051391601562,788.1318969726562
713,785.3113403320312,792.967041015625,802.6373901367188,797.3992919921875
714,790.1465454101562,797.8021850585938,801.8314819335938,798.2051391601562
715,797.3992919921875,795.7875366210938,804.6520385742188,795.7875366210938
716,794.5787353515625,791.7582397460938,799.010986328125,792.967041015625
717,796.5933837890625,793.3699340820312,796.996337890625,798.6080322265625
718,797.3992919921875,794.1758422851562,803.8461303710938,805.054931640625
719,787.3259887695312,796.1904907226562,800.2197875976562,798.6080322265625
720,786.5201416015625,795.3846435546875,796.1904907226562,794.981689453125
721,782.893798828125,795.3846435546875,795.7875366210938,790.5494384765625
722,781.6849975585938,793.7728881835938,792.967041015625,783.2966918945312
723,783.2966918945312,790.1465454101562,789.3406372070312,779.2673950195312
724,781.2820434570312,788.1318969726562,789.3406372070312,780.879150390625
725,782.893798828125,791.7582397460938,792.967041015625,780.879150390625
726,781.6849975585938,796.1904907226562,792.5640869140625,784.1025390625
727,786.1171875,794.981689453125,790.5494384765625,787.3259887695312
728,791.7582397460938,789.3406372070312,790.1465454101562,787.3259887695312
729,794.1758422851562,788.937744140625,786.923095703125,790.952392578125
730,791.3552856445312,790.5494384765625,788.5347900390625,790.1465454101562
731,786.923095703125,790.952392578125,789.3406372070312,782.893798828125
732,786.1171875,788.5347900390625,786.5201416015625,791.3552856445312
733,783.2966918945312,788.937744140625,786.5201416015625,800.2197875976562
734,784.5054931640625,790.5494384765625,787.3259887695312,788.5347900390625
735,785.7142944335938,788.937744140625,784.5054931640625,781.6849975585938
736,790.1465454101562,789.7435913085938,787.7289428710938,784.5054931640625
737,789.7435913085938,786.5201416015625,792.5640869140625,785.7142944335938
738,795.3846435546875,790.5494384765625,792.967041015625,788.1318969726562
739,798.6080322265625,790.5494384765625,790.952392578125,788.937744140625
740,793.3699340820312,793.3699340820312,792.5640869140625,792.967041015625
741,788.5347900390625,796.996337890625,797.8021850585938,786.923095703125
742,792.967041015625,790.952392578125,794.5787353515625,780.879150390625
743,799.4139404296875,793.7728881835938,793.7728881835938,786.923095703125
744,797.8021850585938,792.5640869140625,794.981689453125,791.7582397460938
745,801.025634765625,791.3552856445312,792.5640869140625,785.3113403320312
746,794.1758422851562,793.3699340820312,795.3846435546875,780.0732421875
747,785.3113403320312,793.3699340820312,796.996337890625,788.5347900390625
748,784.5054931640625,792.967041015625,794.981689453125,793.3699340820312
749,790.1465454101562,792.5640869140625,792.1611938476562,788.5347900390625
750,799.8168334960938,792.1611938476562,791.3552856445312,783.2966918945312
751,791.7582397460938,789.7435913085938,792.1611938476562,782.893798828125
752,774.029296875,788.1318969726562,791.3552856445312,782.087890625
753,781.6849975585938,794.5787353515625,790.5494384765625,788.5347900390625
754,792.1611938476562,796.5933837890625,786.923095703125,794.1758422851562
755,797.3992919921875,794.5787353515625,788.937744140625,808.2783813476562
756,786.5201416015625,790.5494384765625,795.7875366210938,806.6666870117188
757,774.029296875,790.952392578125,801.025634765625,786.5201416015625
758,781.6849975585938,786.5201416015625,802.2344360351562,785.3113403320312
759,786.1171875,782.4908447265625,799.010986328125,785.7142944335938
760,786.5201416015625,786.923095703125,798.2051391601562,780.879150390625
761,780.879150390625,789.3406372070312,795.7875366210938,772.0146484375
762,778.8644409179688,788.5347900390625,795.7875366210938,771.6116943359375
763,785.7142944335938,788.937744140625,796.5933837890625,780.0732421875
764,784.1025390625,788.5347900390625,794.1758422851562,783.2966918945312
765,777.2527465820312,788.5347900390625,793.7728881835938,782.893798828125
766,770.4029541015625,790.1465454101562,794.981689453125,788.1318969726562
767,768.7911987304688,792.1611938476562,796.5933837890625,791.3552856445312
768,776.4468994140625,793.3699340820312,797.8021850585938,788.5347900390625
769,786.1171875,790.952392578125,799.4139404296875,788.937744140625
770,788.5347900390625,786.1171875,801.8314819335938,793.3699340820312
771,791.7582397460938,790.952392578125,796.996337890625,793.7728881835938
772,794.1758422851562,797.3992919921875,794.5787353515625,786.1171875
773,796.1904907226562,792.5640869140625,795.3846435546875,776.8497924804688
774,793.3699340820312,786.5201416015625,795.3846435546875,783.2966918945312
775,787.3259887695312,788.1318969726562,795.3846435546875,788.5347900390625
776,782.4908447265625,788.5347900390625,791.3552856445312,775.2380981445312
777,777.6557006835938,790.952392578125,789.3406372070312,769.1941528320312
778,779.2673950195312,793.3699340820312,792.967041015625,775.6410522460938
779,785.7142944335938,794.1758422851562,790.952392578125,776.4468994140625
780,788.5347900390625,796.5933837890625,791.3552856445312,772.8204956054688
781,781.6849975585938,792.1611938476562,789.3406372070312,769.5970458984375
782,772.4176025390625,788.5347900390625,786.1171875,767.9853515625
783,773.2234497070312,786.1171875,787.7289428710938,776.4468994140625
784,788.5347900390625,786.1171875,789.7435913085938,782.4908447265625
785,792.967041015625,785.7142944335938,789.7435913085938,781.2820434570312
786,792.1611938476562,786.923095703125,789.3406372070312,783.2966918945312
787,803.4432373046875,791.3552856445312,790.5494384765625,785.7142944335938
788,800.2197875976562,792.5640869140625,792.1611938476562,790.1465454101562
789,796.996337890625,788.937744140625,791.7582397460938,794.1758422851562
790,801.025634765625,786.1171875,791.7582397460938,796.5933837890625
791,796.1904907226562,790.1465454101562,792.5640869140625,794.5787353515625
792,795.7875366210938,794.5787353515625,797.3992919921875,790.1465454101562
793,796.1904907226562,795.7875366210938,800.6226806640625,791.3552856445312
794,796.1904907226562,790.1465454101562,794.981689453125,792.967041015625
795,790.5494384765625,787.3259887695312,789.3406372070312,788.5347900390625
796,788.937744140625,792.5640869140625,790.5494384765625,785.3113403320312
797,806.2637329101562,793.3699340820312,795.7875366210938,787.3259887695312
798,803.040283203125,796.996337890625,799.4139404296875,788.937744140625
799,789.3406372070312,798.6080322265625,799.010986328125,789.3406372070312
800,789.3406372070312,794.1758422851562,794.981689453125,786.1171875
801,790.5494384765625,795.3846435546875,795.3846435546875,783.2966918945312
802,791.3552856445312,798.2051391601562,799.010986328125,781.6849975585938
803,791.3552856445312,799.010986328125,796.1904907226562,782.4908447265625
804,794.5787353515625,803.8461303710938,796.5933837890625,788.937744140625
805,801.4285888671875,805.4578857421875,801.025634765625,788.5347900390625
806,804.2490844726562,803.040283203125,796.1904907226562,788.1318969726562
807,805.8607788085938,806.6666870117188,796.1904907226562,792.5640869140625
808,796.5933837890625,804.2490844726562,792.967041015625,783.6996459960938
809,786.923095703125,800.2197875976562,786.923095703125,784.5054931640625
810,790.952392578125,799.8168334960938,790.1465454101562,795.7875366210938
811,793.7728881835938,798.6080322265625,793.3699340820312,791.7582397460938
812,790.952392578125,799.4139404296875,792.967041015625,786.923095703125
813,791.7582397460938,797.8021850585938,796.1904907226562,794.1758422851562
814,794.1758422851562,799.010986328125,796.996337890625,794.981689453125
815,790.5494384765625,796.5933837890625,794.981689453125,788.5347900390625
816,791.3552856445312,793.3699340820312,799.010986328125,792.1611938476562
817,790.1465454101562,796.1904907226562,795.7875366210938,794.981689453125
818,782.893798828125,796.1904907226562,796.1904907226562,790.5494384765625
819,791.3552856445312,797.8021850585938,803.040283203125,790.952392578125
820,801.025634765625,799.010986328125,803.4432373046875,798.2051391601562
821,792.1611938476562,796.996337890625,801.025634765625,798.6080322265625
822,788.1318969726562,796.996337890625,799.4139404296875,796.1904907226562
823,784.908447265625,794.981689453125,797.3992919921875,786.5201416015625
824,785.7142944335938,797.3992919921875,796.5933837890625,789.7435913085938
825,794.981689453125,798.6080322265625,799.4139404296875,796.996337890625
826,802.6373901367188,791.7582397460938,801.8314819335938,791.7582397460938
827,805.054931640625,792.1611938476562,799.4139404296875,791.7582397460938
828,801.025634765625,794.1758422851562,796.1904907226562,795.3846435546875
829,804.6520385742188,794.1758422851562,796.1904907226562,801.4285888671875
830,806.2637329101562,797.3992919921875,799.4139404296875,801.8314819335938
831,804.6520385742188,796.5933837890625,799.010986328125,796.996337890625
832,807.4725341796875,798.6080322265625,798.2051391601562,799.8168334960938
833,792.1611938476562,793.3699340820312,794.981689453125,800.6226806640625
834,783.6996459960938,787.3259887695312,792.5640869140625,795.7875366210938
835,790.5494384765625,785.3113403320312,790.952392578125,796.1904907226562
836,786.923095703125,781.6849975585938,789.3406372070312,796.5933837890625
837,790.952392578125,786.5201416015625,788.937744140625,800.2197875976562
838,797.3992919921875,787.3259887695312,789.3406372070312,799.010986328125
839,802.2344360351562,785.3113403320312,790.1465454101562,791.3552856445312
840,803.040283203125,790.1465454101562,790.952392578125,796.996337890625
841,793.7728881835938,797.3992919921875,792.5640869140625,800.2197875976562
842,793.3699340820312,796.996337890625,795.7875366210938,794.1758422851562
843,792.5640869140625,790.5494384765625,792.967041015625,787.7289428710938
844,787.7289428710938,790.1465454101562,796.996337890625,785.3113403320312
845,790.1465454101562,795.3846435546875,800.2197875976562,782.4908447265625
846,791.3552856445312,796.5933837890625,795.3846435546875,780.4761962890625
847,791.3552856445312,794.1758422851562,792.967041015625,783.6996459960938
848,791.3552856445312,797.8021850585938,790.1465454101562,790.5494384765625
849,790.1465454101562,796.996337890625,793.7728881835938,788.937744140625
850,788.5347900390625,798.2051391601562,795.7875366210938,783.6996459960938
851,789.7435913085938,798.2051391601562,792.1611938476562,793.7728881835938
852,796.1904907226562,800.2197875976562,789.7435913085938,804.2490844726562
853,796.5933837890625,801.4285888671875,790.1465454101562,799.8168334960938
854,792.5640869140625,794.981689453125,785.7142944335938,791.3552856445312
855,795.3846435546875,794.1758422851562,782.4908447265625,789.7435913085938
856,805.054931640625,798.6080322265625,788.937744140625,793.3699340820312
857,800.2197875976562,798.2051391601562,790.1465454101562,785.3113403320312
858,791.3552856445312,795.7875366210938,786.5201416015625,775.6410522460938
859,796.1904907226562,798.2051391601562,789.7435913085938,783.6996459960938
860,798.6080322265625,798.2051391601562,792.967041015625,792.967041015625
861,798.6080322265625,799.4139404296875,788.1318969726562,795.7875366210938
862,802.2344360351562,797.3992919921875,788.937744140625,795.7875366210938
863,803.040283203125,796.1904907226562,791.3552856445312,800.6226806640625
864,789.7435913085938,797.3992919921875,791.3552856445312,794.981689453125
865,786.1171875,795.7875366210938,794.1758422851562,787.7289428710938
866,787.3259887695312,794.981689453125,792.5640869140625,790.1465454101562
867,784.1025390625,788.937744140625,786.1171875,787.7289428710938
868,787.7289428710938,786.5201416015625,784.908447265625,788.937744140625
869,787.3259887695312,790.1465454101562,784.908447265625,788.1318969726562
870,784.908447265625,788.5347900390625,786.5201416015625,784.908447265625
871,791.7582397460938,794.1758422851562,792.5640869140625,786.5201416015625
872,793.3699340820312,792.5640869140625,794.1758422851562,785.7142944335938
873,784.5054931640625,784.1025390625,794.1758422851562,786.5201416015625
874,784.1025390625,781.6849975585938,793.7728881835938,790.952392578125
875,784.5054931640625,779.6703491210938,792.967041015625,790.1465454101562
876,786.1171875,784.1025390625,792.967041015625,784.1025390625
877,792.5640869140625,786.923095703125,792.1611938476562,786.5201416015625
878,792.967041015625,788.1318969726562,790.5494384765625,787.3259887695312
879,793.3699340820312,790.5494384765625,790.952392578125,786.1171875
880,788.937744140625,792.967041015625,794.1758422851562,790.5494384765625
881,792.1611938476562,792.967041015625,796.5933837890625,794.981689453125
882,796.996337890625,790.952392578125,793.3699340820312,796.996337890625
883,800.6226806640625,790.952392578125,794.5787353515625,795.7875366210938
884,801.8314819335938,791.3552856445312,796.1904907226562,795.3846435546875
885,798.2051391601562,797.8021850585938,794.5787353515625,793.7728881835938
886,796.5933837890625,796.1904907226562,799.4139404296875,796.5933837890625
887,789.7435913085938,791.7582397460938,799.010986328125,797.8021850585938
888,788.5347900390625,795.3846435546875,796.5933837890625,788.937744140625
889,788.5347900390625,794.981689453125,799.010986328125,788.937744140625
890,785.3113403320312,793.3699340820312,798.2051391601562,793.3699340820312
891,786.5201416015625,789.3406372070312,797.3992919921875,786.923095703125
892,799.010986328125,789.7435913085938,795.3846435546875,788.1318969726562
893,797.8021850585938,792.1611938476562,792.5640869140625,792.967041015625
894,784.1025390625,791.7582397460938,792.1611938476562,788.5347900390625
895,779.2673950195312,790.952392578125,792.5640869140625,789.7435913085938
896,776.4468994140625,791.3552856445312,792.1611938476562,785.3113403320312
897,776.8497924804688,785.7142944335938,792.967041015625,787.3259887695312
898,785.3113403320312,788.5347900390625,795.7875366210938,797.3992919921875
899,786.5201416015625,794.981689453125,792.1611938476562,792.1611938476562
900,786.5201416015625,793.3699340820312,785.7142944335938,787.7289428710938
901,790.5494384765625,794.1758422851562,782.893798828125,790.952392578125
902,795.3846435546875,794.5787353515625,787.3259887695312,792.1611938476562
903,801.8314819335938,792.1611938476562,794.1758422851562,790.952392578125
904,797.3992919921875,790.952392578125,794.981689453125,788.5347900390625
905,792.1611938476562,792.967041015625,795.3846435546875,784.908447265625
906,796.996337890625,792.5640869140625,796.1904907226562,787.3259887695312
907,800.2197875976562,792.1611938476562,796.5933837890625,790.1465454101562
908,801.8314819335938,794.1758422851562,795.7875366210938,790.1465454101562
909,799.010986328125,792.5640869140625,793.3699340820312,791.3552856445312
910,786.923095703125,790.5494384765625,793.3699340820312,787.7289428710938
911,784.908447265625,795.7875366210938,794.981689453125,786.923095703125
912,793.3699340820312,797.3992919921875,796.5933837890625,790.1465454101562
913,797.8021850585938,791.7582397460938,791.7582397460938,792.5640869140625
914,788.1318969726562,792.5640869140625,789.3406372070312,790.5494384765625
915,778.4615478515625,790.952392578125,790.5494384765625,785.3113403320312
916,781.6849975585938,787.3259887695312,794.1758422851562,787.3259887695312
917,779.6703491210938,789.3406372070312,798.2051391601562,791.3552856445312
918,786.5201416015625,796.5933837890625,796.996337890625,797.8021850585938
919,793.7728881835938,798.2051391601562,795.3846435546875,801.8314819335938
920,790.952392578125,790.5494384765625,792.1611938476562,801.4285888671875
921,791.3552856445312,791.3552856445312,793.3699340820312,796.1904907226562
922,793.7728881835938,796.5933837890625,794.5787353515625,794.5787353515625
923,794.5787353515625,797.3992919921875,792.1611938476562,796.5933837890625
924,794.1758422851562,797.8021850585938,792.5640869140625,801.4285888671875
925,786.923095703125,796.5933837890625,792.967041015625,801.025634765625
926,787.7289428710938,799.010986328125,792.967041015625,801.4285888671875
927,792.967041015625,800.2197875976562,792.1611938476562,801.8314819335938
928,790.1465454101562,794.1758422851562,788.5347900390625,800.2197875976562
929,790.1465454101562,794.5787353515625,788.937744140625,803.040283203125
930,796.5933837890625,795.7875366210938,794.1758422851562,799.010986328125
931,794.981689453125,792.5640869140625,791.3552856445312,794.5787353515625
932,786.5201416015625,793.3699340820312,790.952392578125,794.1758422851562
933,785.3113403320312,796.1904907226562,790.5494384765625,790.952392578125
934,789.3406372070312,798.2051391601562,792.1611938476562,786.5201416015625
935,790.952392578125,799.4139404296875,792.5640869140625,789.3406372070312
936,792.5640869140625,795.7875366210938,790.5494384765625,801.4285888671875
937,794.1758422851562,795.3846435546875,789.7435913085938,801.025634765625
938,796.5933837890625,799.8168334960938,791.3552856445312,791.3552856445312
939,799.4139404296875,799.010986328125,796.1904907226562,789.7435913085938
940,796.996337890625,795.3846435546875,795.3846435546875,789.7435913085938
941,792.1611938476562,796.1904907226562,790.952392578125,784.5054931640625
942,790.5494384765625,792.5640869140625,790.5494384765625,781.6849975585938
943,792.5640869140625,788.1318969726562,792.5640869140625,790.5494384765625
944,789.7435913085938,793.3699340820312,790.1465454101562,789.7435913085938
945,784.5054931640625,796.5933837890625,790.952392578125,784.908447265625
946,787.7289428710938,791.3552856445312,792.5640869140625,787.3259887695312
947,799.4139404296875,788.1318969726562,796.5933837890625,794.981689453125
948,801.4285888671875,791.3552856445312,803.8461303710938,800.2197875976562
949,792.967041015625,793.3699340820312,801.025634765625,794.981689453125
950,793.3699340820312,791.7582397460938,797.8021850585938,790.5494384765625
951,789.7435913085938,792.1611938476562,799.4139404296875,788.5347900390625
952,776.8497924804688,792.5640869140625,801.8314819335938,789.3406372070312
953,777.2527465820312,792.1611938476562,799.010986328125,786.5201416015625
954,785.3113403320312,791.3552856445312,796.996337890625,783.6996459960938
955,784.5054931640625,788.1318969726562,798.2051391601562,782.087890625
956,780.4761962890625,787.7289428710938,800.6226806640625,783.6996459960938
957,783.2966918945312,787.7289428710938,805.054931640625,785.7142944335938
958,788.937744140625,787.7289428710938,807.4725341796875,784.5054931640625
959,788.937744140625,788.5347900390625,808.2783813476562,796.1904907226562
960,786.1171875,796.1904907226562,807.069580078125,803.040283203125
961,782.087890625,796.1904907226562,799.8168334960938,789.3406372070312
962,787.7289428710938,790.952392578125,800.2197875976562,790.952392578125
963,794.981689453125,790.5494384765625,802.2344360351562,791.3552856445312
964,795.3846435546875,787.3259887695312,798.2051391601562,783.6996459960938
965,793.3699340820312,783.6996459960938,798.6080322265625,786.5201416015625
966,791.3552856445312,784.1025390625,800.6226806640625,790.5494384765625
967,787.3259887695312,784.5054931640625,803.8461303710938,786.923095703125
968,787.3259887695312,785.7142944335938,807.4725341796875,789.7435913085938
969,791.3552856445312,786.5201416015625,803.4432373046875,788.5347900390625
970,794.981689453125,786.923095703125,802.2344360351562,787.7289428710938
971,785.3113403320312,786.923095703125,797.3992919921875,782.087890625
972,778.05859375,789.3406372070312,788.937744140625,779.2673950195312
973,778.4615478515625,787.7289428710938,789.7435913085938,785.7142944335938
974,785.3113403320312,780.879150390625,790.952392578125,787.3259887695312
975,790.5494384765625,782.893798828125,794.5787353515625,791.3552856445312
976,788.937744140625,789.3406372070312,796.5933837890625,790.952392578125
977,783.2966918945312,791.3552856445312,795.3846435546875,783.2966918945312
978,785.7142944335938,787.7289428710938,791.7582397460938,785.7142944335938
979,792.5640869140625,789.7435913085938,792.5640869140625,793.3699340820312
980,788.937744140625,791.7582397460938,791.3552856445312,789.3406372070312
981,789.3406372070312,792.5640869140625,788.5347900390625,787.7289428710938
982,784.1025390625,788.1318969726562,793.7728881835938,788.1318969726562
983,778.4615478515625,784.1025390625,792.5640869140625,780.4761962890625
984,775.2380981445312,784.1025390625,788.1318969726562,772.0146484375
985,778.4615478515625,786.5201416015625,786.5201416015625,773.6264038085938
986,786.923095703125,788.1318969726562,786.923095703125,777.6557006835938
987,780.4761962890625,787.3259887695312,789.3406372070312,775.2380981445312
988,776.8497924804688,789.3406372070312,791.7582397460938,780.879150390625
989,781.2820434570312,786.5201416015625,790.952392578125,786.923095703125
990,790.1465454101562,788.937744140625,789.7435913085938,789.7435913085938
991,790.952392578125,792.967041015625,789.7435913085938,785.7142944335938
992,784.908447265625,793.3699340820312,789.7435913085938,784.1025390625
993,783.6996459960938,788.1318969726562,789.3406372070312,786.5201416015625
994,787.7289428710938,784.908447265625,789.3406372070312,786.5201416015625
995,791.7582397460938,786.923095703125,791.7582397460938,784.908447265625
996,790.952392578125,784.1025390625,795.7875366210938,786.1171875
997,785.7142944335938,785.7142944335938,796.996337890625,790.1465454101562
998,779.2673950195312,793.3699340820312,794.5787353515625,791.7582397460938
999,780.4761962890625,793.7728881835938,794.981689453125,792.967041015625
1000,784.908447265625,792.5640869140625,790.5494384765625,791.3552856445312
1001,787.7289428710938,795.7875366210938,790.5494384765625,790.5494384765625
1002,794.981689453125,798.6080322265625,794.1758422851562,794.981689453125
1003,797.8021850585938,796.1904907226562,791.7582397460938,791.7582397460938
1004,795.3846435546875,788.937744140625,794.981689453125,787.7289428710938
1005,797.3992919921875,786.5201416015625,795.3846435546875,792.967041015625
1006,799.010986328125,790.1465454101562,794.981689453125,791.3552856445312
1007,799.8168334960938,791.3552856445312,795.7875366210938,783.6996459960938
1008,791.3552856445312,788.5347900390625,792.967041015625,780.4761962890625
1009,780.879150390625,787.3259887695312,792.1611938476562,780.4761962890625
1010,782.893798828125,786.923095703125,793.7728881835938,781.6849975585938
1011,785.3113403320312,788.937744140625,795.7875366210938,783.6996459960938
1012,776.8497924804688,790.952392578125,794.1758422851562,787.7289428710938
1013,773.2234497070312,792.967041015625,794.981689453125,790.1465454101562
1014,780.4761962890625,792.1611938476562,795.7875366210938,786.1171875
1015,791.7582397460938,789.7435913085938,796.996337890625,786.1171875
1016,808.6813354492188,793.3699340820312,798.2051391601562,794.5787353515625
1017,815.93408203125,796.996337890625,801.025634765625,799.4139404296875
1018,809.4871826171875,797.3992919921875,803.4432373046875,794.1758422851562
1019,801.025634765625,797.8021850585938,802.2344360351562,793.7728881835938
1020,798.2051391601562,796.996337890625,803.8461303710938,801.025634765625
1021,793.7728881835938,795.3846435546875,800.6226806640625,803.8461303710938
1022,784.5054931640625,793.3699340820312,796.5933837890625,799.4139404296875
1023,776.8497924804688,790.1465454101562,794.981689453125,799.4139404296875
1024,779.6703491210938,792.1611938476562,796.996337890625,796.1904907226562
1025,786.1171875,796.5933837890625,801.4285888671875,794.5787353515625
1026,783.2966918945312,795.7875366210938,800.6226806640625,798.6080322265625
1027,785.7142944335938,795.3846435546875,799.8168334960938,798.2051391601562
1028,790.5494384765625,797.3992919921875,799.4139404296875,797.3992919921875
1029,784.1025390625,792.967041015625,801.4285888671875,793.7728881835938
1030,785.3113403320312,791.7582397460938,797.8021850585938,790.5494384765625
1031,790.952392578125,796.5933837890625,794.981689453125,796.1904907226562
1032,790.5494384765625,794.981689453125,796.5933837890625,799.010986328125
1033,791.3552856445312,793.7728881835938,796.5933837890625,792.967041015625
1034,792.5640869140625,791.7582397460938,796.5933837890625,786.1171875
1035,795.7875366210938,795.7875366210938,795.7875366210938,793.3699340820312
1036,797.3992919921875,799.4139404296875,794.5787353515625,794.981689453125
1037,794.1758422851562,792.967041015625,795.3846435546875,786.5201416015625
1038,798.2051391601562,794.5787353515625,795.3846435546875,787.7289428710938
1039,804.2490844726562,797.3992919921875,794.1758422851562,789.7435913085938
1040,802.6373901367188,794.5787353515625,793.7728881835938,788.1318969726562
1041,803.4432373046875,798.6080322265625,795.7875366210938,794.1758422851562
1042,801.4285888671875,800.6226806640625,794.5787353515625,792.967041015625
1043,803.4432373046875,794.981689453125,792.5640869140625,793.7728881835938
1044,801.4285888671875,792.967041015625,794.981689453125,799.8168334960938
1045,800.6226806640625,797.8021850585938,799.8168334960938,792.967041015625
1046,802.6373901367188,797.3992919921875,799.4139404296875,790.1465454101562
1047,792.5640869140625,792.5640869140625,796.996337890625,793.3699340820312
1048,785.3113403320312,787.7289428710938,799.4139404296875,791.7582397460938
1049,778.4615478515625,788.5347900390625,798.6080322265625,790.952392578125
1050,779.2673950195312,786.1171875,795.7875366210938,792.5640869140625
1051,780.4761962890625,781.2820434570312,794.981689453125,788.1318969726562
1052,775.2380981445312,787.3259887695312,794.1758422851562,786.923095703125
1053,777.2527465820312,790.5494384765625,795.3846435546875,782.893798828125
1054,780.879150390625,787.7289428710938,797.3992919921875,783.2966918945312
1055,783.2966918945312,787.7289428710938,795.3846435546875,796.996337890625
1056,790.1465454101562,794.1758422851562,798.6080322265625,797.8021850585938
1057,790.5494384765625,799.4139404296875,800.2197875976562,786.1171875
1058,788.937744140625,792.967041015625,798.2051391601562,781.2820434570312
1059,796.1904907226562,789.7435913085938,791.7582397460938,776.8497924804688
1060,794.5787353515625,791.3552856445312,783.2966918945312,774.8351440429688
1061,781.2820434570312,793.7728881835938,784.5054931640625,779.2673950195312
1062,788.5347900390625,794.5787353515625,790.1465454101562,781.2820434570312
1063,794.981689453125,795.3846435546875,794.1758422851562,782.4908447265625
1064,793.3699340820312,796.5933837890625,794.1758422851562,786.923095703125
1065,791.7582397460938,794.981689453125,789.7435913085938,788.5347900390625
1066,790.1465454101562,794.981689453125,786.5201416015625,794.981689453125
1067,789.3406372070312,793.7728881835938,787.7289428710938,801.025634765625
1068,789.7435913085938,790.5494384765625,787.3259887695312,791.7582397460938
1069,790.1465454101562,790.952392578125,787.3259887695312,788.1318969726562
1070,794.981689453125,795.3846435546875,791.7582397460938,793.7728881835938
1071,797.8021850585938,792.1611938476562,790.1465454101562,791.3552856445312
1072,790.952392578125,787.3259887695312,792.5640869140625,785.3113403320312
1073,784.908447265625,787.7289428710938,791.7582397460938,785.7142944335938
1074,779.2673950195312,785.3113403320312,785.7142944335938,782.087890625
1075,774.8351440429688,784.1025390625,789.3406372070312,778.05859375
1076,777.6557006835938,786.1171875,790.952392578125,782.4908447265625
1077,783.6996459960938,782.087890625,790.1465454101562,787.3259887695312
1078,788.5347900390625,781.6849975585938,792.5640869140625,795.7875366210938
1079,786.923095703125,788.5347900390625,790.952392578125,793.3699340820312
1080,782.893798828125,786.923095703125,790.952392578125,784.5054931640625
1081,783.2966918945312,786.923095703125,789.3406372070312,792.1611938476562
1082,786.5201416015625,788.937744140625,791.7582397460938,799.010986328125
1083,791.7582397460938,787.7289428710938,795.7875366210938,800.6226806640625
1084,788.937744140625,792.5640869140625,796.996337890625,795.3846435546875
1085,789.7435913085938,798.2051391601562,799.4139404296875,795.7875366210938
1086,793.3699340820312,799.4139404296875,799.010986328125,796.5933837890625
1087,794.1758422851562,801.025634765625,796.1904907226562,794.1758422851562
1088,799.010986328125,801.025634765625,795.3846435546875,790.952392578125
1089,799.4139404296875,796.996337890625,790.5494384765625,789.3406372070312
1090,799.010986328125,797.3992919921875,792.967041015625,794.1758422851562
1091,806.6666870117188,794.981689453125,794.5787353515625,794.981689453125
1092,809.084228515625,791.3552856445312,791.3552856445312,796.1904907226562
1093,806.2637329101562,787.7289428710938,791.7582397460938,801.025634765625
1094,806.2637329101562,789.7435913085938,794.981689453125,801.4285888671875
1095,802.2344360351562,797.8021850585938,796.1904907226562,801.025634765625
1096,799.4139404296875,791.7582397460938,793.3699340820312,802.2344360351562
1097,794.981689453125,786.1171875,794.1758422851562,801.025634765625
1098,784.1025390625,784.908447265625,797.3992919921875,797.8021850585938
1099,785.3113403320312,787.7289428710938,794.981689453125,796.1904907226562
1100,789.3406372070312,791.3552856445312,795.7875366210938,797.8021850585938
1101,787.3259887695312,786.1171875,801.025634765625,803.4432373046875
1102,783.2966918945312,780.4761962890625,800.6226806640625,803.4432373046875
1103,778.05859375,780.0732421875,796.996337890625,799.8168334960938
1104,778.05859375,782.087890625,792.5640869140625,797.3992919921875
1105,777.6557006835938,781.2820434570312,790.952392578125,788.1318969726562
1106,785.7142944335938,782.4908447265625,792.5640869140625,787.7289428710938
1107,792.1611938476562,782.893798828125,794.5787353515625,792.5640869140625
1108,794.981689453125,782.893798828125,801.8314819335938,802.2344360351562
1109,796.996337890625,781.2820434570312,804.6520385742188,805.8607788085938
1110,796.5933837890625,779.2673950195312,800.2197875976562,802.6373901367188
1111,794.5787353515625,776.8497924804688,798.2051391601562,799.4139404296875
1112,791.3552856445312,779.6703491210938,796.996337890625,797.3992919921875
1113,790.952392578125,784.908447265625,794.1758422851562,791.3552856445312
1114,789.7435913085938,788.1318969726562,790.952392578125,779.2673950195312
1115,789.3406372070312,791.3552856445312,786.5201416015625,771.6116943359375
1116,787.3259887695312,793.7728881835938,786.923095703125,769.5970458984375
1117,789.3406372070312,798.6080322265625,789.3406372070312,778.05859375
1118,792.1611938476562,799.4139404296875,787.3259887695312,778.4615478515625
1119,793.7728881835938,793.3699340820312,784.5054931640625,774.4322509765625
1120,787.3259887695312,790.5494384765625,784.908447265625,776.0439453125
1121,776.8497924804688,794.1758422851562,784.908447265625,777.6557006835938
1122,779.6703491210938,795.7875366210938,784.908447265625,780.879150390625
1123,786.1171875,793.7728881835938,785.7142944335938,789.7435913085938
1124,781.6849975585938,790.1465454101562,782.4908447265625,788.1318969726562
1125,775.2380981445312,788.1318969726562,781.6849975585938,786.1171875
1126,776.0439453125,794.1758422851562,783.2966918945312,784.908447265625
1127,776.0439453125,792.1611938476562,785.7142944335938,779.2673950195312
1128,778.8644409179688,788.937744140625,791.7582397460938,794.5787353515625
1129,782.893798828125,790.952392578125,795.7875366210938,798.2051391601562
1130,792.967041015625,791.3552856445312,803.4432373046875,796.5933837890625
1131,794.981689453125,789.7435913085938,803.040283203125,803.040283203125
1132,782.893798828125,788.937744140625,796.996337890625,799.010986328125
1133,787.7289428710938,787.7289428710938,796.996337890625,799.4139404296875
1134,793.3699340820312,786.923095703125,796.5933837890625,797.3992919921875
1135,792.1611938476562,785.7142944335938,801.4285888671875,792.5640869140625
1136,794.981689453125,785.3113403320312,804.2490844726562,794.1758422851562
1137,796.996337890625,788.1318969726562,800.2197875976562,794.1758422851562
1138,794.1758422851562,791.3552856445312,799.010986328125,793.3699340820312
1139,791.3552856445312,788.5347900390625,800.6226806640625,794.981689453125
1140,787.7289428710938,788.5347900390625,799.8168334960938,794.1758422851562
1141,783.2966918945312,793.7728881835938,795.7875366210938,782.4908447265625
1142,788.5347900390625,795.7875366210938,793.7728881835938,782.4908447265625
1143,797.8021850585938,799.010986328125,793.3699340820312,786.1171875
1144,782.087890625,788.937744140625,788.5347900390625,800.6226806640625
1145,783.6996459960938,789.3406372070312,788.5347900390625,791.7582397460938
1146,777.6557006835938,788.1318969726562,790.952392578125,787.3259887695312
1147,774.4322509765625,781.2820434570312,791.7582397460938,788.937744140625
1148,780.4761962890625,779.6703491210938,791.3552856445312,784.908447265625
1149,775.6410522460938,782.087890625,794.981689453125,782.087890625
1150,770.4029541015625,787.7289428710938,795.7875366210938,779.2673950195312
1151,777.2527465820312,788.937744140625,795.3846435546875,785.7142944335938
1152,782.893798828125,785.3113403320312,793.7728881835938,790.1465454101562
1153,788.1318969726562,789.3406372070312,791.7582397460938,782.893798828125
1154,790.952392578125,790.1465454101562,792.5640869140625,777.2527465820312
1155,787.3259887695312,792.967041015625,793.3699340820312,781.2820434570312
1156,787.7289428710938,794.5787353515625,788.937744140625,783.2966918945312
1157,796.1904907226562,795.7875366210938,789.7435913085938,782.4908447265625
1158,805.054931640625,798.2051391601562,794.5787353515625,787.7289428710938
1159,804.2490844726562,797.8021850585938,791.3552856445312,790.5494384765625
1160,797.8021850585938,802.2344360351562,791.3552856445312,786.5201416015625
1161,793.3699340820312,806.2637329101562,792.5640869140625,782.4908447265625
1162,799.010986328125,803.040283203125,796.5933837890625,785.7142944335938
1163,801.8314819335938,799.8168334960938,795.3846435546875,788.5347900390625
1164,796.5933837890625,803.040283203125,790.5494384765625,783.2966918945312
1165,792.5640869140625,799.8168334960938,792.1611938476562,784.908447265625
1166,789.3406372070312,792.967041015625,791.3552856445312,789.3406372070312
1167,780.879150390625,788.5347900390625,794.5787353515625,792.967041015625
1168,770.8058471679688,790.952392578125,797.3992919921875,793.7728881835938
1169,775.6410522460938,788.937744140625,795.3846435546875,792.5640869140625
1170,780.0732421875,786.5201416015625,790.1465454101562,797.3992919921875
1171,778.4615478515625,786.1171875,791.3552856445312,799.4139404296875
1172,779.6703491210938,787.7289428710938,796.1904907226562,799.8168334960938
1173,783.6996459960938,786.5201416015625,795.7875366210938,798.2051391601562
1174,785.7142944335938,780.879150390625,794.5787353515625,793.3699340820312
1175,787.7289428710938,782.893798828125,793.3699340820312,788.1318969726562
1176,778.8644409179688,785.7142944335938,790.1465454101562,782.893798828125
1177,776.4468994140625,779.2673950195312,786.923095703125,780.879150390625
1178,786.1171875,782.4908447265625,785.3113403320312,784.5054931640625
1179,784.908447265625,790.5494384765625,786.923095703125,782.893798828125
1180,790.952392578125,793.3699340820312,790.5494384765625,788.937744140625
1181,796.1904907226562,796.996337890625,788.937744140625,792.5640869140625
1182,794.981689453125,797.8021850585938,791.3552856445312,791.7582397460938
1183,797.3992919921875,796.5933837890625,794.5787353515625,797.3992919921875
1184,799.4139404296875,801.025634765625,790.952392578125,789.3406372070312
1185,804.2490844726562,802.2344360351562,788.5347900390625,778.05859375
1186,805.8607788085938,801.025634765625,787.7289428710938,778.05859375
1187,803.040283203125,805.054931640625,785.3113403320312,783.2966918945312
1188,794.981689453125,802.6373901367188,782.087890625,786.1171875
1189,792.967041015625,800.2197875976562,782.087890625,786.5201416015625
1190,794.981689453125,807.069580078125,781.6849975585938,790.952392578125
1191,789.3406372070312,809.4871826171875,783.6996459960938,792.967041015625
1192,783.6996459960938,804.6520385742188,788.937744140625,794.981689453125
1193,787.7289428710938,801.025634765625,790.1465454101562,801.025634765625
1194,790.1465454101562,798.2051391601562,792.5640869140625,799.8168334960938
1195,784.5054931640625,797.8021850585938,796.1904907226562,801.4285888671875
1196,780.4761962890625,795.7875366210938,799.010986328125,798.6080322265625
1197,784.1025390625,789.7435913085938,803.040283203125,803.4432373046875
1198,779.6703491210938,786.1171875,806.2637329101562,808.2783813476562
1199,771.2088012695312,786.923095703125,803.8461303710938,802.6373901367188
1200,777.2527465820312,789.3406372070312,805.8607788085938,808.6813354492188
1201,780.879150390625,789.3406372070312,808.6813354492188,809.084228515625
1202,774.4322509765625,787.3259887695312,804.6520385742188,807.87548828125
1203,774.8351440429688,787.3259887695312,807.069580078125,807.87548828125
1204,778.8644409179688,785.7142944335938,809.89013671875,796.5933837890625
1205,778.4615478515625,781.6849975585938,809.4871826171875,794.5787353515625
1206,779.2673950195312,785.7142944335938,807.4725341796875,800.2197875976562
1207,785.7142944335938,793.7728881835938,802.6373901367188,797.8021850585938
1208,789.7435913085938,790.1465454101562,800.2197875976562,794.5787353515625
1209,791.3552856445312,788.1318969726562,799.010986328125,794.981689453125
1210,794.1758422851562,789.7435913085938,800.6226806640625,798.2051391601562
1211,795.7875366210938,791.7582397460938,807.4725341796875,803.8461303710938
1212,804.2490844726562,795.3846435546875,803.4432373046875,806.2637329101562
1213,808.6813354492188,794.981689453125,799.4139404296875,804.6520385742188
1214,809.084228515625,799.4139404296875,802.2344360351562,803.040283203125
1215,813.5164794921875,800.6226806640625,796.996337890625,797.8021850585938
1216,800.6226806640625,793.3699340820312,788.1318969726562,789.7435913085938
1217,793.7728881835938,792.1611938476562,786.1171875,786.1171875
1218,799.010986328125,796.5933837890625,789.3406372070312,781.2820434570312
1219,797.8021850585938,799.010986328125,786.923095703125,774.8351440429688
1220,791.7582397460938,793.7728881835938,787.3259887695312,773.2234497070312
1221,794.1758422851562,794.5787353515625,786.923095703125,779.2673950195312
1222,795.3846435546875,798.2051391601562,783.6996459960938,778.8644409179688
1223,788.1318969726562,796.1904907226562,784.908447265625,774.4322509765625
1224,793.7728881835938,797.8021850585938,782.893798828125,782.893798828125
1225,798.2051391601562,797.8021850585938,780.4761962890625,792.5640869140625
1226,789.7435913085938,795.3846435546875,785.3113403320312,784.1025390625
1227,784.908447265625,795.7875366210938,790.1465454101562,782.893798828125
1228,789.7435913085938,796.5933837890625,792.5640869140625,788.937744140625
1229,786.1171875,793.3699340820312,791.7582397460938,790.5494384765625
1230,785.7142944335938,788.937744140625,791.3552856445312,791.7582397460938
1231,799.010986328125,791.3552856445312,798.2051391601562,793.3699340820312
1232,795.7875366210938,795.3846435546875,799.010986328125,793.3699340820312
1233,787.3259887695312,795.3846435546875,792.5640869140625,794.1758422851562
1234,797.3992919921875,799.010986328125,793.3699340820312,796.1904907226562
1235,811.90478515625,801.8314819335938,793.7728881835938,795.7875366210938
1236,812.7106323242188,797.8021850585938,791.7582397460938,801.8314819335938
1237,803.040283203125,799.4139404296875,792.5640869140625,805.4578857421875
1238,803.040283203125,801.8314819335938,789.7435913085938,803.8461303710938
1239,811.5018310546875,796.996337890625,788.937744140625,805.054931640625
1240,807.87548828125,796.1904907226562,788.1318969726562,802.6373901367188
1241,804.6520385742188,800.2197875976562,785.3113403320312,801.025634765625
1242,805.8607788085938,798.6080322265625,787.7289428710938,805.8607788085938
1243,801.8314819335938,802.2344360351562,786.923095703125,804.2490844726562
1244,792.5640869140625,803.8461303710938,781.6849975585938,791.3552856445312
1245,793.3699340820312,803.8461303710938,777.2527465820312,784.1025390625
1246,796.996337890625,806.2637329101562,777.2527465820312,782.4908447265625
1247,790.5494384765625,806.6666870117188,779.2673950195312,784.5054931640625
1248,783.2966918945312,806.2637329101562,782.087890625,780.879150390625
1249,777.2527465820312,803.040283203125,788.1318969726562,768.7911987304688
1250,782.4908447265625,800.6226806640625,792.1611938476562,765.970703125
1251,784.1025390625,802.6373901367188,792.1611938476562,765.5677490234375
1252,778.8644409179688,798.2051391601562,786.923095703125,761.94140625
1253,784.5054931640625,795.3846435546875,784.1025390625,765.1648559570312
1254,789.7435913085938,799.4139404296875,789.3406372070312,771.2088012695312
1255,785.7142944335938,800.6226806640625,800.6226806640625,775.6410522460938
1256,784.908447265625,801.4285888671875,804.2490844726562,782.893798828125
1257,783.2966918945312,798.2051391601562,799.4139404296875,785.3113403320312
1258,777.6557006835938,796.5933837890625,795.7875366210938,785.7142944335938
1259,779.2673950195312,795.3846435546875,794.5787353515625,794.5787353515625
1260,789.3406372070312,792.967041015625,798.2051391601562,803.040283203125
1261,797.8021850585938,790.5494384765625,804.2490844726562,803.8461303710938
1262,792.5640869140625,786.923095703125,803.4432373046875,804.2490844726562
1263,784.908447265625,788.1318969726562,801.4285888671875,807.4725341796875
1264,786.1171875,787.7289428710938,805.054931640625,807.069580078125
1265,791.3552856445312,787.3259887695312,809.4871826171875,799.8168334960938
1266,794.981689453125,788.5347900390625,808.6813354492188,796.5933837890625
1267,795.3846435546875,791.7582397460938,805.054931640625,799.010986328125
1268,794.981689453125,793.7728881835938,805.8607788085938,804.6520385742188
1269,799.010986328125,795.7875366210938,803.8461303710938,799.010986328125
1270,798.2051391601562,799.4139404296875,798.2051391601562,788.937744140625
1271,791.7582397460938,800.6226806640625,796.5933837890625,787.3259887695312
1272,784.5054931640625,803.4432373046875,799.8168334960938,782.087890625
1273,785.3113403320312,806.2637329101562,794.981689453125,776.4468994140625
1274,791.7582397460938,804.6520385742188,792.1611938476562,776.4468994140625
1275,794.1758422851562,803.8461303710938,795.3846435546875,779.2673950195312
1276,794.1758422851562,807.4725341796875,797.3992919921875,780.0732421875
1277,798.2051391601562,806.2637329101562,794.981689453125,782.087890625
1278,797.3992919921875,808.6813354492188,791.3552856445312,777.6557006835938
1279,792.967041015625,811.90478515625,793.7728881835938,772.0146484375
1280,790.5494384765625,804.2490844726562,794.5787353515625,776.8497924804688
1281,784.1025390625,801.4285888671875,796.5933837890625,777.2527465820312
1282,780.4761962890625,805.4578857421875,801.025634765625,782.087890625
1283,782.087890625,800.2197875976562,798.6080322265625,786.5201416015625
1284,781.6849975585938,794.5787353515625,800.2197875976562,779.6703491210938
1285,779.2673950195312,801.4285888671875,796.5933837890625,782.087890625
1286,779.6703491210938,799.4139404296875,789.7435913085938,782.4908447265625
1287,786.923095703125,794.5787353515625,793.7728881835938,780.879150390625
1288,790.952392578125,794.981689453125,797.3992919921875,788.1318969726562
1289,782.893798828125,795.7875366210938,796.1904907226562,793.7728881835938
1290,782.087890625,798.6080322265625,797.3992919921875,792.1611938476562
1291,786.1171875,794.5787353515625,799.4139404296875,789.7435913085938
1292,791.3552856445312,789.3406372070312,797.8021850585938,794.1758422851562
1293,795.7875366210938,789.7435913085938,792.5640869140625,800.2197875976562
1294,793.3699340820312,789.7435913085938,789.3406372070312,792.967041015625
1295,791.3552856445312,788.937744140625,786.1171875,778.8644409179688
1296,800.2197875976562,789.3406372070312,789.7435913085938,784.1025390625
1297,806.2637329101562,792.1611938476562,792.5640869140625,789.7435913085938
1298,802.6373901367188,794.1758422851562,789.7435913085938,785.3113403320312
1299,803.4432373046875,792.967041015625,789.3406372070312,779.2673950195312
1300,807.87548828125,792.5640869140625,789.7435913085938,783.6996459960938
1301,803.4432373046875,793.3699340820312,790.952392578125,790.5494384765625
1302,799.8168334960938,794.5787353515625,790.952392578125,786.1171875
1303,794.981689453125,791.7582397460938,789.3406372070312,778.4615478515625
1304,784.908447265625,788.1318969726562,788.1318969726562,778.05859375
1305,777.6557006835938,790.952392578125,786.923095703125,778.05859375
1306,778.8644409179688,789.3406372070312,784.5054931640625,775.6410522460938
1307,778.05859375,788.5347900390625,782.4908447265625,778.05859375
1308,770.0,787.3259887695312,786.1171875,777.2527465820312
1309,772.0146484375,787.3259887695312,786.5201416015625,778.4615478515625
1310,770.4029541015625,786.1171875,787.3259887695312,779.2673950195312
1311,770.4029541015625,784.5054931640625,792.5640869140625,777.6557006835938
1312,776.8497924804688,787.3259887695312,790.5494384765625,787.3259887695312
1313,781.2820434570312,786.1171875,791.7582397460938,794.1758422851562
1314,782.893798828125,785.3113403320312,790.952392578125,787.3259887695312
1315,786.5201416015625,786.1171875,790.1465454101562,785.3113403320312
1316,784.1025390625,788.5347900390625,786.923095703125,788.5347900390625
1317,791.7582397460938,789.3406372070312,787.3259887695312,792.967041015625
1318,794.981689453125,787.7289428710938,784.908447265625,786.923095703125
1319,786.5201416015625,791.3552856445312,780.4761962890625,781.2820434570312
1320,794.981689453125,795.7875366210938,787.3259887695312,788.937744140625
1321,795.3846435546875,790.1465454101562,784.5054931640625,779.2673950195312
1322,792.967041015625,787.7289428710938,781.6849975585938,774.4322509765625
1323,795.3846435546875,797.3992919921875,788.5347900390625,786.1171875
1324,790.952392578125,806.2637329101562,790.1465454101562,783.2966918945312
1325,790.952392578125,800.6226806640625,786.1171875,780.0732421875
1326,789.7435913085938,794.981689453125,788.937744140625,785.3113403320312
1327,794.981689453125,790.952392578125,793.3699340820312,790.952392578125
1328,803.4432373046875,790.5494384765625,791.7582397460938,792.5640869140625
1329,798.2051391601562,788.937744140625,791.3552856445312,791.3552856445312
1330,795.3846435546875,786.5201416015625,795.7875366210938,792.1611938476562
1331,789.3406372070312,788.937744140625,798.2051391601562,790.952392578125
1332,782.4908447265625,790.5494384765625,798.2051391601562,801.8314819335938
1333,783.2966918945312,792.967041015625,796.996337890625,807.4725341796875
1334,781.2820434570312,788.937744140625,800.6226806640625,801.4285888671875
1335,779.2673950195312,784.5054931640625,805.054931640625,800.2197875976562
1336,779.2673950195312,788.5347900390625,803.4432373046875,801.4285888671875
1337,776.8497924804688,784.5054931640625,798.2051391601562,799.4139404296875
1338,782.4908447265625,783.2966918945312,796.996337890625,797.8021850585938
1339,790.952392578125,786.1171875,797.3992919921875,799.010986328125
1340,790.5494384765625,785.7142944335938,799.4139404296875,797.3992919921875
1341,794.5787353515625,791.3552856445312,798.2051391601562,799.010986328125
1342,799.8168334960938,791.3552856445312,796.996337890625,799.010986328125
1343,797.8021850585938,790.952392578125,796.996337890625,796.1904907226562
1344,798.2051391601562,794.981689453125,795.3846435546875,790.952392578125
1345,795.3846435546875,796.5933837890625,799.4139404296875,785.7142944335938
1346,795.7875366210938,801.4285888671875,801.4285888671875,784.908447265625
1347,797.8021850585938,796.5933837890625,792.967041015625,787.7289428710938
1348,800.6226806640625,793.3699340820312,790.5494384765625,791.3552856445312
1349,801.4285888671875,797.8021850585938,790.5494384765625,788.937744140625
1350,802.2344360351562,796.5933837890625,790.952392578125,784.1025390625
1351,812.7106323242188,799.8168334960938,796.996337890625,793.3699340820312
1352,809.084228515625,800.6226806640625,799.010986328125,801.8314819335938
1353,805.054931640625,795.3846435546875,797.8021850585938,799.010986328125
1354,809.89013671875,795.7875366210938,800.6226806640625,796.1904907226562
1355,802.2344360351562,796.996337890625,801.025634765625,797.3992919921875
1356,796.5933837890625,794.5787353515625,798.6080322265625,797.3992919921875
1357,793.7728881835938,795.7875366210938,795.3846435546875,789.3406372070312
1358,788.1318969726562,793.7728881835938,792.1611938476562,787.3259887695312
1359,784.908447265625,792.5640869140625,792.967041015625,786.1171875
1360,788.1318969726562,792.1611938476562,798.2051391601562,784.1025390625
1361,786.1171875,792.967041015625,799.4139404296875,790.5494384765625
1362,787.7289428710938,793.7728881835938,799.010986328125,788.5347900390625
1363,787.3259887695312,794.5787353515625,799.4139404296875,778.8644409179688
1364,785.7142944335938,795.7875366210938,794.981689453125,781.6849975585938
1365,784.1025390625,793.7728881835938,793.7728881835938,789.3406372070312
1366,782.087890625,798.2051391601562,796.1904907226562,790.952392578125
1367,786.1171875,805.054931640625,797.8021850585938,789.7435913085938
1368,791.3552856445312,801.8314819335938,792.1611938476562,786.5201416015625
1369,792.5640869140625,795.3846435546875,785.3113403320312,787.3259887695312
1370,779.2673950195312,797.8021850585938,788.5347900390625,789.3406372070312
1371,776.4468994140625,800.2197875976562,792.1611938476562,784.1025390625
1372,782.087890625,795.3846435546875,789.7435913085938,781.6849975585938
1373,783.6996459960938,792.1611938476562,787.3259887695312,781.2820434570312
1374,783.6996459960938,795.3846435546875,786.923095703125,786.1171875
1375,784.908447265625,798.6080322265625,787.7289428710938,788.5347900390625
1376,785.7142944335938,794.981689453125,791.3552856445312,778.4615478515625
1377,785.7142944335938,790.5494384765625,795.3846435546875,776.0439453125
1378,792.5640869140625,787.7289428710938,792.967041015625,787.3259887695312
1379,794.981689453125,786.5201416015625,791.7582397460938,794.1758422851562
1380,788.5347900390625,790.5494384765625,792.967041015625,796.5933837890625
1381,788.937744140625,792.1611938476562,790.5494384765625,800.6226806640625
1382,795.3846435546875,795.3846435546875,792.1611938476562,805.054931640625
1383,796.1904907226562,789.3406372070312,796.5933837890625,809.084228515625
1384,798.2051391601562,785.7142944335938,798.6080322265625,805.4578857421875
1385,797.3992919921875,791.7582397460938,797.8021850585938,805.8607788085938
1386,790.1465454101562,792.5640869140625,796.1904907226562,801.025634765625
1387,795.3846435546875,789.7435913085938,795.7875366210938,794.981689453125
1388,804.2490844726562,790.1465454101562,794.5787353515625,794.5787353515625
1389,796.996337890625,791.7582397460938,790.952392578125,794.1758422851562
1390,791.3552856445312,791.7582397460938,788.5347900390625,790.5494384765625
1391,793.7728881835938,786.5201416015625,790.5494384765625,783.6996459960938
1392,794.1758422851562,783.6996459960938,796.1904907226562,786.1171875
1393,791.3552856445312,788.1318969726562,800.6226806640625,789.3406372070312
1394,794.981689453125,792.5640869140625,800.6226806640625,782.4908447265625
1395,794.1758422851562,791.7582397460938,798.6080322265625,778.8644409179688
1396,787.7289428710938,790.952392578125,797.3992919921875,782.087890625
1397,790.5494384765625,792.5640869140625,794.981689453125,778.05859375
1398,782.087890625,789.7435913085938,793.7728881835938,770.4029541015625
1399,774.4322509765625,784.1025390625,796.5933837890625,774.029296875
1400,777.6557006835938,781.6849975585938,794.5787353515625,773.6264038085938
1401,782.087890625,782.4908447265625,792.967041015625,770.8058471679688
1402,783.6996459960938,784.5054931640625,789.3406372070312,770.8058471679688
1403,780.0732421875,785.3113403320312,782.893798828125,772.0146484375
1404,774.8351440429688,784.5054931640625,780.879150390625,778.05859375
1405,773.6264038085938,790.1465454101562,778.4615478515625,779.6703491210938
1406,776.0439453125,796.1904907226562,781.2820434570312,784.908447265625
1407,778.05859375,795.7875366210938,785.7142944335938,788.5347900390625
1408,781.2820434570312,789.3406372070312,791.3552856445312,791.3552856445312
1409,786.5201416015625,785.3113403320312,793.3699340820312,795.7875366210938
1410,795.3846435546875,787.3259887695312,789.7435913085938,792.5640869140625
1411,798.6080322265625,788.937744140625,790.5494384765625,790.5494384765625
1412,793.7728881835938,793.3699340820312,792.1611938476562,794.5787353515625
1413,791.3552856445312,793.3699340820312,790.952392578125,798.2051391601562
1414,788.937744140625,792.5640869140625,791.7582397460938,799.8168334960938
1415,790.952392578125,791.7582397460938,792.967041015625,797.3992919921875
1416,792.5640869140625,780.0732421875,789.3406372070312,793.3699340820312
1417,783.2966918945312,778.05859375,788.5347900390625,791.3552856445312
1418,789.3406372070312,786.5201416015625,790.5494384765625,786.923095703125
1419,804.2490844726562,789.7435913085938,794.5787353515625,790.1465454101562
1420,803.040283203125,788.1318969726562,796.5933837890625,794.1758422851562
1421,787.7289428710938,786.5201416015625,792.5640869140625,791.7582397460938
1422,780.0732421875,788.1318969726562,792.1611938476562,791.7582397460938
1423,783.2966918945312,789.3406372070312,794.981689453125,792.967041015625
1424,788.1318969726562,787.7289428710938,792.967041015625,789.7435913085938
1425,791.7582397460938,787.3259887695312,791.7582397460938,784.908447265625
1426,790.952392578125,787.7289428710938,793.7728881835938,786.5201416015625
1427,787.3259887695312,786.5201416015625,796.1904907226562,788.937744140625
1428,783.2966918945312,786.5201416015625,797.8021850585938,796.1904907226562
1429,784.908447265625,794.981689453125,799.010986328125,801.4285888671875
1430,788.5347900390625,800.6226806640625,800.2197875976562,799.010986328125
1431,797.8021850585938,801.025634765625,801.4285888671875,799.010986328125
1432,804.6520385742188,805.4578857421875,798.2051391601562,796.5933837890625
1433,792.967041015625,804.6520385742188,795.3846435546875,794.1758422851562
1434,792.967041015625,797.8021850585938,797.3992919921875,792.1611938476562
1435,800.6226806640625,796.5933837890625,793.3699340820312,790.1465454101562
1436,796.5933837890625,798.6080322265625,790.5494384765625,781.6849975585938
1437,794.1758422851562,796.5933837890625,791.3552856445312,778.8644409179688
1438,791.7582397460938,792.5640869140625,793.7728881835938,776.8497924804688
1439,786.5201416015625,786.923095703125,794.1758422851562,774.029296875
1440,778.8644409179688,789.7435913085938,788.937744140625,779.6703491210938
1441,773.6264038085938,792.967041015625,788.937744140625,783.6996459960938
1442,772.4176025390625,790.1465454101562,789.3406372070312,776.4468994140625
1443,777.6557006835938,783.2966918945312,788.5347900390625,774.029296875
1444,782.087890625,782.893798828125,789.3406372070312,779.2673950195312
1445,782.4908447265625,788.1318969726562,791.7582397460938,782.4908447265625
1446,786.923095703125,788.937744140625,792.967041015625,784.908447265625
1447,786.923095703125,790.5494384765625,794.981689453125,788.5347900390625
1448,780.0732421875,789.7435913085938,792.967041015625,785.7142944335938
1449,781.2820434570312,785.3113403320312,792.5640869140625,784.1025390625
1450,786.923095703125,786.923095703125,797.8021850585938,788.937744140625
1451,785.7142944335938,786.1171875,794.981689453125,792.1611938476562
1452,792.5640869140625,788.5347900390625,795.7875366210938,792.5640869140625
1453,793.3699340820312,794.5787353515625,798.6080322265625,786.1171875
1454,796.1904907226562,793.7728881835938,796.996337890625,786.923095703125
1455,798.2051391601562,792.1611938476562,799.010986328125,790.5494384765625
1456,791.3552856445312,788.937744140625,798.6080322265625,783.2966918945312
1457,793.3699340820312,788.5347900390625,795.3846435546875,779.2673950195312
1458,795.7875366210938,789.3406372070312,794.1758422851562,784.1025390625
1459,787.7289428710938,792.1611938476562,796.5933837890625,786.923095703125
1460,780.4761962890625,789.7435913085938,798.6080322265625,790.1465454101562
1461,785.3113403320312,784.908447265625,793.3699340820312,790.5494384765625
1462,792.967041015625,788.1318969726562,788.937744140625,787.3259887695312
1463,801.8314819335938,792.967041015625,792.967041015625,794.981689453125
1464,803.4432373046875,801.4285888671875,794.5787353515625,793.7728881835938
1465,799.010986328125,796.996337890625,793.7728881835938,792.5640869140625
1466,802.2344360351562,794.5787353515625,795.3846435546875,797.3992919921875
1467,801.4285888671875,798.6080322265625,801.8314819335938,799.8168334960938
1468,793.3699340820312,792.967041015625,802.6373901367188,799.8168334960938
1469,793.7728881835938,795.7875366210938,802.6373901367188,801.025634765625
1470,799.8168334960938,799.8168334960938,806.6666870117188,805.054931640625
1471,796.5933837890625,794.981689453125,805.054931640625,801.4285888671875
1472,797.3992919921875,792.1611938476562,803.8461303710938,798.6080322265625
1473,806.2637329101562,793.3699340820312,805.8607788085938,801.4285888671875
1474,802.2344360351562,796.996337890625,802.2344360351562,810.6959838867188
1475,800.6226806640625,793.3699340820312,803.4432373046875,810.2930297851562
1476,806.6666870117188,796.1904907226562,807.87548828125,798.6080322265625
1477,814.7252807617188,799.8168334960938,807.069580078125,801.4285888671875
1478,821.1721801757812,797.3992919921875,804.6520385742188,807.4725341796875
1479,815.1282348632812,802.2344360351562,801.4285888671875,802.2344360351562
1480,807.069580078125,803.4432373046875,802.6373901367188,802.2344360351562
1481,808.2783813476562,800.6226806640625,800.2197875976562,804.6520385742188
1482,807.069580078125,797.8021850585938,799.010986328125,799.010986328125
1483,794.981689453125,796.996337890625,798.2051391601562,796.996337890625
1484,795.3846435546875,800.2197875976562,798.6080322265625,803.8461303710938
1485,800.6226806640625,803.040283203125,798.6080322265625,805.4578857421875
1486,801.025634765625,804.2490844726562,796.996337890625,807.069580078125
1487,800.6226806640625,803.040283203125,796.5933837890625,796.996337890625
1488,799.8168334960938,798.2051391601562,796.5933837890625,784.1025390625
1489,792.5640869140625,795.3846435546875,794.5787353515625,783.2966918945312
1490,782.087890625,796.5933837890625,790.1465454101562,778.8644409179688
1491,782.893798828125,795.3846435546875,787.7289428710938,769.5970458984375
1492,784.908447265625,792.967041015625,792.1611938476562,768.7911987304688
1493,770.4029541015625,792.1611938476562,797.8021850585938,772.0146484375
1494,764.3589477539062,791.7582397460938,793.7728881835938,770.8058471679688
1495,769.1941528320312,790.5494384765625,792.1611938476562,772.0146484375
1496,773.2234497070312,788.1318969726562,794.1758422851562,777.6557006835938
1497,776.4468994140625,784.5054931640625,795.7875366210938,782.893798828125
1498,784.908447265625,791.7582397460938,800.6226806640625,788.937744140625
1499,796.1904907226562,797.8021850585938,801.025634765625,789.3406372070312
1500,796.5933837890625,790.5494384765625,798.6080322265625,783.6996459960938
1501,794.5787353515625,788.937744140625,797.8021850585938,796.5933837890625
1502,792.5640869140625,792.5640869140625,793.7728881835938,802.2344360351562
1503,787.3259887695312,788.5347900390625,788.937744140625,784.908447265625
1504,780.4761962890625,782.087890625,789.7435913085938,780.879150390625
1505,782.087890625,785.3113403320312,791.7582397460938,788.5347900390625
1506,785.3113403320312,790.5494384765625,792.5640869140625,794.5787353515625
1507,788.5347900390625,788.5347900390625,794.5787353515625,798.6080322265625
1508,790.5494384765625,791.7582397460938,794.1758422851562,802.2344360351562
1509,786.923095703125,798.2051391601562,786.923095703125,792.5640869140625
1510,784.5054931640625,801.025634765625,786.923095703125,788.937744140625
1511,786.923095703125,799.8168334960938,792.967041015625,792.1611938476562
1512,785.7142944335938,799.4139404296875,792.1611938476562,788.1318969726562
1513,786.923095703125,797.8021850585938,787.7289428710938,786.923095703125
1514,794.1758422851562,798.6080322265625,787.3259887695312,789.3406372070312
1515,798.2051391601562,802.6373901367188,788.5347900390625,789.3406372070312
1516,801.025634765625,799.8168334960938,788.5347900390625,789.7435913085938
1517,806.2637329101562,800.2197875976562,788.5347900390625,789.7435913085938
1518,809.084228515625,801.4285888671875,786.923095703125,784.1025390625
1519,801.025634765625,801.8314819335938,789.7435913085938,782.087890625
1520,792.1611938476562,803.040283203125,790.5494384765625,787.7289428710938
1521,792.5640869140625,801.4285888671875,785.7142944335938,795.3846435546875
1522,796.5933837890625,800.2197875976562,788.5347900390625,786.1171875
1523,799.4139404296875,795.3846435546875,788.1318969726562,783.2966918945312
1524,798.2051391601562,794.5787353515625,789.3406372070312,790.952392578125
1525,784.5054931640625,794.1758422851562,791.7582397460938,784.908447265625
1526,781.2820434570312,790.952392578125,792.967041015625,782.893798828125
1527,784.5054931640625,792.5640869140625,792.1611938476562,792.5640869140625
1528,784.1025390625,791.7582397460938,787.7289428710938,792.967041015625
1529,788.1318969726562,788.5347900390625,789.3406372070312,786.5201416015625
1530,782.087890625,790.952392578125,793.3699340820312,789.3406372070312
1531,778.05859375,793.7728881835938,795.3846435546875,790.5494384765625
1532,779.6703491210938,792.5640869140625,793.7728881835938,789.3406372070312
1533,784.5054931640625,790.5494384765625,794.1758422851562,786.923095703125
1534,787.3259887695312,785.3113403320312,790.1465454101562,781.2820434570312
1535,782.4908447265625,784.5054931640625,787.3259887695312,781.6849975585938
1536,785.7142944335938,790.1465454101562,793.3699340820312,789.3406372070312
1537,789.3406372070312,791.3552856445312,791.3552856445312,792.967041015625
1538,795.3846435546875,788.5347900390625,788.937744140625,794.5787353515625
1539,789.7435913085938,784.908447265625,790.952392578125,793.7728881835938
1540,781.2820434570312,786.5201416015625,787.7289428710938,792.5640869140625
1541,794.1758422851562,790.5494384765625,790.1465454101562,797.8021850585938
1542,800.2197875976562,791.3552856445312,792.1611938476562,794.5787353515625
1543,801.4285888671875,790.952392578125,792.5640869140625,797.3992919921875
1544,796.5933837890625,793.7728881835938,793.7728881835938,800.6226806640625
1545,793.7728881835938,795.7875366210938,790.952392578125,795.7875366210938
1546,794.1758422851562,797.8021850585938,794.1758422851562,800.6226806640625
1547,791.3552856445312,798.2051391601562,798.2051391601562,810.2930297851562
1548,801.4285888671875,799.8168334960938,800.6226806640625,815.1282348632812
1549,805.8607788085938,801.025634765625,800.6226806640625,813.91943359375
1550,799.010986328125,795.3846435546875,795.7875366210938,805.4578857421875
1551,793.3699340820312,792.967041015625,795.7875366210938,796.5933837890625
1552,795.7875366210938,790.5494384765625,797.3992919921875,794.981689453125
1553,799.010986328125,789.3406372070312,799.010986328125,789.7435913085938
1554,797.3992919921875,790.952392578125,803.4432373046875,790.1465454101562
1555,788.937744140625,789.3406372070312,803.4432373046875,791.7582397460938
1556,782.087890625,797.3992919921875,801.025634765625,788.937744140625
1557,786.5201416015625,801.8314819335938,801.8314819335938,786.5201416015625
1558,792.1611938476562,798.6080322265625,799.010986328125,784.908447265625
1559,788.1318969726562,798.6080322265625,796.996337890625,778.8644409179688
1560,784.1025390625,794.981689453125,797.8021850585938,768.3883056640625
1561,786.923095703125,793.3699340820312,802.2344360351562,774.029296875
1562,790.1465454101562,795.7875366210938,801.8314819335938,780.879150390625
1563,795.3846435546875,791.3552856445312,798.6080322265625,780.0732421875
1564,791.7582397460938,786.923095703125,797.8021850585938,776.4468994140625
1565,790.1465454101562,791.3552856445312,795.3846435546875,777.6557006835938
1566,793.3699340820312,794.5787353515625,794.981689453125,785.7142944335938
1567,795.3846435546875,794.981689453125,795.7875366210938,787.3259887695312
1568,794.5787353515625,791.3552856445312,795.7875366210938,793.3699340820312
1569,790.5494384765625,786.5201416015625,791.3552856445312,790.952392578125
1570,794.981689453125,785.3113403320312,791.3552856445312,790.1465454101562
1571,793.3699340820312,787.3259887695312,792.5640869140625,792.1611938476562
1572,787.3259887695312,792.1611938476562,791.3552856445312,786.923095703125
1573,794.5787353515625,795.7875366210938,795.3846435546875,790.952392578125
1574,789.3406372070312,797.8021850585938,796.5933837890625,794.1758422851562
1575,782.893798828125,797.8021850585938,795.7875366210938,793.7728881835938
1576,786.923095703125,799.4139404296875,796.5933837890625,792.967041015625
1577,784.908447265625,800.2197875976562,790.5494384765625,791.3552856445312
1578,785.7142944335938,799.4139404296875,789.3406372070312,787.7289428710938
1579,792.1611938476562,800.6226806640625,792.5640869140625,792.967041015625
1580,799.4139404296875,801.4285888671875,794.5787353515625,794.1758422851562
1581,803.040283203125,799.8168334960938,793.7728881835938,791.3552856445312
1582,801.4285888671875,804.2490844726562,792.1611938476562,795.3846435546875
1583,795.7875366210938,808.6813354492188,792.5640869140625,795.7875366210938
1584,801.025634765625,809.89013671875,789.7435913085938,794.981689453125
