timestamp,RAW_TP9,RAW_AF7,RAW_AF8,RAW_TP10
1,779.2673950195312,797.8021850585938,795.3846435546875,787.7289428710938
2,782.893798828125,790.1465454101562,796.1904907226562,790.1465454101562
3,778.8644409179688,786.5201416015625,792.967041015625,785.3113403320312
4,777.2527465820312,792.967041015625,790.1465454101562,778.05859375
5,780.879150390625,799.010986328125,797.3992919921875,783.2966918945312
6,778.4615478515625,791.7582397460938,800.6226806640625,790.5494384765625
7,782.893798828125,786.923095703125,798.2051391601562,792.1611938476562
8,789.3406372070312,796.1904907226562,799.4139404296875,793.3699340820312
9,789.7435913085938,801.8314819335938,799.010986328125,804.6520385742188
10,787.3259887695312,801.4285888671875,799.4139404296875,801.8314819335938
11,784.1025390625,798.2051391601562,799.4139404296875,787.3259887695312
12,786.923095703125,792.1611938476562,796.996337890625,790.5494384765625
13,800.6226806640625,806.6666870117188,806.6666870117188,801.4285888671875
14,796.1904907226562,813.5164794921875,806.2637329101562,794.5787353515625
15,777.6557006835938,799.010986328125,794.5787353515625,781.6849975585938
16,778.05859375,796.1904907226562,787.7289428710938,772.4176025390625
17,779.2673950195312,802.2344360351562,797.8021850585938,782.087890625
18,769.5970458984375,801.4285888671875,796.5933837890625,775.2380981445312
19,758.3150024414062,804.2490844726562,797.8021850585938,752.6740112304688
20,743.8095092773438,805.054931640625,812.7106323242188,745.8241577148438
21,728.09521484375,803.4432373046875,807.069580078125,728.4981689453125
22,716.8131713867188,807.069580078125,807.87548828125,708.7545776367188
23,713.1868286132812,811.5018310546875,820.3662719726562,705.93408203125
24,701.098876953125,821.1721801757812,825.2014770507812,693.8461303710938
25,672.893798828125,827.2161254882812,808.6813354492188,664.4322509765625
26,653.1502075195312,829.6337280273438,805.8607788085938,649.120849609375
27,642.6740112304688,832.05126953125,814.7252807617188,637.8388061523438
28,629.3773193359375,842.12451171875,814.3223266601562,624.1392211914062
29,629.7802124023438,845.7509155273438,806.6666870117188,620.915771484375
30,641.4652099609375,848.974365234375,801.4285888671875,627.7655639648438
31,631.3919677734375,861.062255859375,804.2490844726562,624.5421142578125
32,620.10986328125,864.6886596679688,800.6226806640625,615.2747192382812
33,629.7802124023438,868.3150024414062,788.937744140625,616.08056640625
34,634.2124633789062,873.1502075195312,789.7435913085938,613.6630249023438
35,637.032958984375,879.1941528320312,788.1318969726562,615.2747192382812
36,649.5238037109375,879.5970458984375,782.087890625,624.945068359375
37,656.7765502929688,877.9853515625,780.4761962890625,633.4066162109375
38,666.4468994140625,876.3735961914062,775.2380981445312,637.032958984375
39,670.0732421875,870.3296508789062,767.9853515625,642.2710571289062
40,678.937744140625,880.4029541015625,761.5384521484375,663.6264038085938
41,691.025634765625,891.2820434570312,759.5238037109375,672.087890625
42,702.3076782226562,885.6410522460938,754.2857055664062,675.3113403320312
43,718.4249267578125,882.4176025390625,746.6300659179688,694.6520385742188
44,728.901123046875,884.4322509765625,742.6007080078125,713.1868286132812
45,738.5714111328125,885.6410522460938,739.3773193359375,723.2600708007812
46,751.4652099609375,882.0146484375,734.1392211914062,739.7802124023438
47,762.3442993164062,875.1648559570312,733.3333129882812,750.2564086914062
48,776.8497924804688,870.7326049804688,729.3040161132812,757.5091552734375
49,801.8314819335938,869.5238037109375,726.08056640625,776.0439453125
50,813.5164794921875,867.106201171875,731.3186645507812,789.7435913085938
51,819.96337890625,857.8388061523438,728.901123046875,797.3992919921875
52,831.2454223632812,849.7802124023438,728.4981689453125,806.6666870117188
53,840.915771484375,848.974365234375,732.5274658203125,822.7838745117188
54,848.5714111328125,848.1685180664062,728.4981689453125,833.6630249023438
55,850.989013671875,839.7069702148438,729.7069702148438,844.1392211914062
56,853.003662109375,838.09521484375,730.5128173828125,851.3919677734375
57,857.4359130859375,834.06591796875,735.3479614257812,842.930419921875
58,859.4505615234375,821.1721801757812,739.3773193359375,842.930419921875
59,874.7619018554688,815.1282348632812,736.1538696289062,857.8388061523438
60,884.029296875,815.5311279296875,736.1538696289062,862.6740112304688
61,882.8204956054688,815.5311279296875,736.959716796875,862.6740112304688
62,885.6410522460938,811.5018310546875,738.1685180664062,868.3150024414062
63,886.0439453125,807.4725341796875,737.3626098632812,874.7619018554688
64,890.4761962890625,806.6666870117188,734.5421142578125,873.9560546875
65,897.7289428710938,804.6520385742188,734.5421142578125,863.4798583984375
66,896.923095703125,799.8168334960938,741.3919677734375,871.5384521484375
67,890.0732421875,796.5933837890625,742.6007080078125,873.1502075195312
68,898.937744140625,799.010986328125,740.1831665039062,870.7326049804688
69,891.2820434570312,792.967041015625,743.4066162109375,872.3442993164062
70,886.4468994140625,787.7289428710938,743.4066162109375,877.5823974609375
71,891.2820434570312,789.3406372070312,746.2271118164062,880.8058471679688
72,877.1795043945312,786.923095703125,745.8241577148438,872.3442993164062
73,875.970703125,784.1025390625,751.062255859375,876.7765502929688
74,880.0,787.3259887695312,753.8828125,871.1355590820312
75,882.0146484375,789.7435913085938,752.6740112304688,861.4652099609375
76,882.8204956054688,787.7289428710938,753.8828125,863.076904296875
77,871.94140625,784.5054931640625,750.6593627929688,860.2564086914062
78,870.7326049804688,788.1318969726562,757.106201171875,859.8534545898438
79,874.7619018554688,788.937744140625,760.7326049804688,857.8388061523438
80,872.3442993164062,784.1025390625,761.5384521484375,859.8534545898438
81,860.6593627929688,786.5201416015625,765.5677490234375,859.047607421875
82,847.3626098632812,788.937744140625,764.7619018554688,845.7509155273438
83,845.7509155273438,780.4761962890625,763.9560546875,842.930419921875
84,844.945068359375,775.2380981445312,765.1648559570312,841.3186645507812
85,852.1978149414062,788.5347900390625,768.3883056640625,841.3186645507812
86,860.2564086914062,789.7435913085938,774.8351440429688,851.7948608398438
87,854.6153564453125,787.7289428710938,777.6557006835938,846.5567626953125
88,851.3919677734375,791.3552856445312,776.8497924804688,840.10986328125
89,853.4066162109375,790.1465454101562,774.8351440429688,834.4688720703125
90,860.2564086914062,791.7582397460938,777.6557006835938,830.03662109375
91,859.4505615234375,790.1465454101562,776.0439453125,832.4542236328125
92,847.7655639648438,789.7435913085938,775.6410522460938,831.2454223632812
93,842.12451171875,789.3406372070312,782.4908447265625,837.2893676757812
94,836.4835205078125,786.923095703125,780.4761962890625,838.4981689453125
95,834.4688720703125,789.7435913085938,776.4468994140625,823.1868286132812
96,831.6483764648438,790.1465454101562,774.8351440429688,817.5457763671875
97,829.6337280273438,785.7142944335938,773.2234497070312,815.1282348632812
98,826.8131713867188,787.7289428710938,770.0,810.6959838867188
99,825.2014770507812,787.7289428710938,769.5970458984375,810.6959838867188
100,830.03662109375,783.2966918945312,774.8351440429688,808.6813354492188
101,822.3809814453125,788.1318969726562,777.6557006835938,807.4725341796875
102,815.5311279296875,784.5054931640625,779.2673950195312,806.6666870117188
103,813.5164794921875,781.2820434570312,779.6703491210938,803.8461303710938
104,807.4725341796875,787.3259887695312,780.879150390625,801.025634765625
105,811.90478515625,790.952392578125,783.2966918945312,811.098876953125
106,815.93408203125,792.1611938476562,782.893798828125,812.3076782226562
107,809.084228515625,785.7142944335938,783.2966918945312,799.8168334960938
108,810.2930297851562,782.4908447265625,783.6996459960938,801.025634765625
109,818.7545776367188,790.5494384765625,785.7142944335938,802.6373901367188
110,819.96337890625,792.5640869140625,782.893798828125,800.2197875976562
111,812.7106323242188,783.6996459960938,779.6703491210938,800.2197875976562
112,811.5018310546875,780.0732421875,785.3113403320312,804.2490844726562
113,813.5164794921875,785.3113403320312,792.967041015625,806.2637329101562
114,805.8607788085938,789.3406372070312,788.937744140625,804.2490844726562
115,805.4578857421875,792.1611938476562,787.3259887695312,809.4871826171875
116,810.2930297851562,792.967041015625,793.7728881835938,813.5164794921875
117,812.3076782226562,793.7728881835938,792.1611938476562,805.054931640625
118,804.6520385742188,789.3406372070312,789.7435913085938,790.952392578125
119,792.1611938476562,787.7289428710938,792.5640869140625,785.3113403320312
120,792.1611938476562,787.7289428710938,792.967041015625,787.3259887695312
121,796.996337890625,783.6996459960938,791.7582397460938,785.7142944335938
122,807.069580078125,786.5201416015625,793.3699340820312,799.010986328125
123,805.8607788085938,788.1318969726562,792.1611938476562,802.2344360351562
124,796.1904907226562,791.3552856445312,788.1318969726562,792.967041015625
125,801.4285888671875,796.5933837890625,787.7289428710938,798.6080322265625
126,810.6959838867188,799.010986328125,792.5640869140625,798.2051391601562
127,812.7106323242188,799.4139404296875,795.3846435546875,795.3846435546875
128,814.7252807617188,794.981689453125,792.5640869140625,806.6666870117188
129,813.91943359375,792.1611938476562,793.3699340820312,811.5018310546875
130,811.098876953125,801.8314819335938,791.7582397460938,804.2490844726562
131,813.113525390625,802.6373901367188,792.967041015625,805.054931640625
132,811.90478515625,794.981689453125,795.3846435546875,803.4432373046875
133,808.2783813476562,793.3699340820312,790.952392578125,797.3992919921875
134,813.5164794921875,786.923095703125,790.952392578125,803.4432373046875
135,815.93408203125,780.4761962890625,793.7728881835938,812.7106323242188
136,809.4871826171875,789.3406372070312,792.1611938476562,813.5164794921875
137,807.87548828125,795.3846435546875,790.5494384765625,808.6813354492188
138,816.3369750976562,793.7728881835938,793.7728881835938,812.7106323242188
139,817.1428833007812,791.3552856445312,793.7728881835938,814.7252807617188
140,815.1282348632812,794.981689453125,794.981689453125,807.87548828125
141,816.7399291992188,799.8168334960938,795.7875366210938,807.87548828125
142,813.5164794921875,790.5494384765625,790.952392578125,808.2783813476562
143,805.8607788085938,784.908447265625,787.3259887695312,803.8461303710938
144,798.6080322265625,792.5640869140625,787.7289428710938,799.8168334960938
145,798.6080322265625,791.7582397460938,784.908447265625,796.996337890625
146,808.2783813476562,788.1318969726562,783.6996459960938,798.6080322265625
147,805.054931640625,792.5640869140625,786.1171875,797.8021850585938
148,797.8021850585938,792.1611938476562,784.5054931640625,792.5640869140625
149,791.3552856445312,786.1171875,784.5054931640625,785.3113403320312
150,794.981689453125,785.7142944335938,786.5201416015625,788.5347900390625
151,806.6666870117188,784.1025390625,788.5347900390625,797.8021850585938
152,809.4871826171875,785.3113403320312,789.3406372070312,794.981689453125
153,811.098876953125,798.2051391601562,788.1318969726562,790.5494384765625
154,803.8461303710938,799.8168334960938,791.3552856445312,796.996337890625
155,796.5933837890625,794.981689453125,792.1611938476562,802.6373901367188
156,792.5640869140625,790.5494384765625,786.5201416015625,796.5933837890625
157,788.937744140625,788.5347900390625,787.7289428710938,796.1904907226562
158,783.2966918945312,788.937744140625,788.5347900390625,795.7875366210938
159,786.1171875,785.3113403320312,787.7289428710938,794.1758422851562
160,791.7582397460938,786.5201416015625,789.3406372070312,796.1904907226562
161,794.981689453125,790.952392578125,789.7435913085938,792.5640869140625
162,795.3846435546875,790.952392578125,784.908447265625,795.7875366210938
163,795.3846435546875,787.7289428710938,784.1025390625,797.8021850585938
164,791.7582397460938,786.5201416015625,784.5054931640625,790.5494384765625
165,786.5201416015625,787.3259887695312,787.7289428710938,789.3406372070312
166,789.7435913085938,781.2820434570312,788.937744140625,787.7289428710938
167,790.952392578125,776.8497924804688,786.923095703125,786.1171875
168,787.3259887695312,782.893798828125,792.5640869140625,792.1611938476562
169,785.7142944335938,788.5347900390625,792.967041015625,796.996337890625
170,784.908447265625,785.3113403320312,787.3259887695312,786.923095703125
171,778.8644409179688,784.908447265625,784.1025390625,777.6557006835938
172,782.893798828125,790.952392578125,789.3406372070312,784.1025390625
173,787.7289428710938,793.7728881835938,789.7435913085938,782.893798828125
174,786.923095703125,788.1318969726562,789.3406372070312,786.1171875
175,786.1171875,787.3259887695312,789.7435913085938,788.5347900390625
176,778.8644409179688,791.7582397460938,788.1318969726562,780.879150390625
177,774.029296875,790.952392578125,790.5494384765625,786.1171875
178,785.7142944335938,794.1758422851562,791.3552856445312,789.7435913085938
179,791.7582397460938,792.5640869140625,793.3699340820312,780.4761962890625
180,790.952392578125,789.3406372070312,793.7728881835938,783.6996459960938
181,786.5201416015625,787.7289428710938,794.981689453125,794.5787353515625
182,778.4615478515625,786.5201416015625,798.2051391601562,791.7582397460938
183,783.6996459960938,791.7582397460938,796.5933837890625,786.5201416015625
184,795.7875366210938,793.7728881835938,796.996337890625,788.937744140625
185,794.5787353515625,791.3552856445312,798.2051391601562,790.5494384765625
186,786.923095703125,789.3406372070312,796.996337890625,788.937744140625
187,788.5347900390625,786.923095703125,791.7582397460938,788.937744140625
188,788.5347900390625,784.1025390625,785.3113403320312,782.4908447265625
189,788.937744140625,780.0732421875,782.893798828125,786.923095703125
190,788.1318969726562,786.1171875,783.2966918945312,792.1611938476562
191,776.4468994140625,790.952392578125,782.087890625,776.0439453125
192,779.6703491210938,782.893798828125,782.087890625,778.05859375
193,788.937744140625,781.6849975585938,790.952392578125,785.7142944335938
194,790.5494384765625,786.923095703125,798.6080322265625,789.7435913085938
195,789.7435913085938,786.5201416015625,791.7582397460938,790.952392578125
196,786.1171875,785.7142944335938,788.5347900390625,784.5054931640625
197,789.3406372070312,788.1318969726562,786.923095703125,784.1025390625
198,792.1611938476562,785.3113403320312,787.7289428710938,779.6703491210938
199,784.908447265625,780.4761962890625,786.1171875,769.5970458984375
200,782.893798828125,780.879150390625,782.893798828125,773.6264038085938
201,780.0732421875,781.6849975585938,791.3552856445312,781.6849975585938
202,772.8204956054688,786.1171875,793.3699340820312,777.6557006835938
203,775.6410522460938,781.2820434570312,794.1758422851562,774.4322509765625
204,779.2673950195312,776.8497924804688,791.3552856445312,772.4176025390625
205,781.6849975585938,780.0732421875,787.3259887695312,775.6410522460938
206,784.5054931640625,777.2527465820312,794.1758422851562,775.6410522460938
207,786.923095703125,781.6849975585938,797.3992919921875,778.8644409179688
208,790.5494384765625,784.5054931640625,801.4285888671875,785.7142944335938
209,790.5494384765625,785.7142944335938,801.025634765625,783.6996459960938
210,782.893798828125,788.5347900390625,797.3992919921875,783.2966918945312
211,786.923095703125,793.7728881835938,797.3992919921875,786.5201416015625
212,801.025634765625,792.5640869140625,797.8021850585938,796.1904907226562
213,794.5787353515625,787.3259887695312,798.6080322265625,802.6373901367188
214,786.1171875,784.5054931640625,798.2051391601562,793.7728881835938
215,782.893798828125,786.1171875,798.6080322265625,785.7142944335938
216,776.8497924804688,793.7728881835938,794.981689453125,780.879150390625
217,780.4761962890625,795.7875366210938,792.967041015625,781.2820434570312
218,789.7435913085938,790.952392578125,794.981689453125,783.6996459960938
219,796.1904907226562,788.937744140625,795.3846435546875,788.5347900390625
220,791.3552856445312,791.7582397460938,797.3992919921875,791.3552856445312
221,791.7582397460938,792.1611938476562,797.3992919921875,789.3406372070312
222,799.8168334960938,792.5640869140625,796.5933837890625,787.3259887695312
223,799.010986328125,792.5640869140625,797.8021850585938,790.1465454101562
224,792.1611938476562,788.937744140625,796.996337890625,794.1758422851562
225,787.7289428710938,784.1025390625,796.996337890625,787.3259887695312
226,788.937744140625,787.7289428710938,796.5933837890625,782.087890625
227,786.1171875,791.3552856445312,790.1465454101562,782.893798828125
228,789.3406372070312,796.1904907226562,792.1611938476562,790.1465454101562
229,785.3113403320312,795.7875366210938,799.010986328125,788.5347900390625
230,779.6703491210938,792.1611938476562,797.3992919921875,782.4908447265625
231,781.2820434570312,791.7582397460938,794.5787353515625,785.7142944335938
232,785.7142944335938,790.5494384765625,794.1758422851562,786.923095703125
233,795.7875366210938,791.7582397460938,796.996337890625,785.3113403320312
234,795.7875366210938,792.5640869140625,798.6080322265625,786.923095703125
235,802.2344360351562,787.3259887695312,793.7728881835938,790.5494384765625
236,801.025634765625,783.2966918945312,790.952392578125,791.7582397460938
237,781.2820434570312,784.908447265625,789.3406372070312,783.2966918945312
238,776.4468994140625,786.1171875,792.967041015625,781.2820434570312
239,778.8644409179688,786.1171875,796.5933837890625,789.3406372070312
240,782.893798828125,788.1318969726562,796.5933837890625,797.8021850585938
241,785.7142944335938,792.967041015625,796.1904907226562,798.6080322265625
242,786.1171875,797.8021850585938,795.3846435546875,793.3699340820312
243,785.7142944335938,794.1758422851562,794.981689453125,786.923095703125
244,784.908447265625,788.937744140625,789.3406372070312,782.893798828125
245,783.6996459960938,787.7289428710938,786.1171875,784.5054931640625
246,784.908447265625,786.923095703125,784.5054931640625,782.087890625
247,787.3259887695312,788.937744140625,785.7142944335938,790.1465454101562
248,786.5201416015625,789.7435913085938,790.952392578125,790.952392578125
249,791.3552856445312,791.3552856445312,790.952392578125,782.4908447265625
250,786.5201416015625,788.1318969726562,788.937744140625,779.2673950195312
251,777.2527465820312,780.879150390625,787.3259887695312,776.4468994140625
252,777.2527465820312,783.2966918945312,786.5201416015625,782.087890625
253,780.4761962890625,785.3113403320312,794.1758422851562,788.1318969726562
254,783.6996459960938,792.1611938476562,796.5933837890625,792.1611938476562
255,787.7289428710938,797.8021850585938,798.2051391601562,791.3552856445312
256,789.3406372070312,792.5640869140625,795.3846435546875,790.1465454101562
257,792.967041015625,790.1465454101562,794.5787353515625,796.5933837890625
258,796.1904907226562,792.5640869140625,796.996337890625,799.4139404296875
259,798.2051391601562,793.3699340820312,796.5933837890625,799.8168334960938
260,803.4432373046875,797.3992919921875,796.5933837890625,796.5933837890625
261,795.7875366210938,796.5933837890625,794.981689453125,791.3552856445312
262,784.5054931640625,790.952392578125,791.3552856445312,788.5347900390625
263,788.5347900390625,790.1465454101562,790.5494384765625,789.7435913085938
264,790.1465454101562,788.5347900390625,792.5640869140625,794.1758422851562
265,789.3406372070312,789.3406372070312,796.5933837890625,795.7875366210938
266,793.3699340820312,794.981689453125,798.6080322265625,799.4139404296875
267,796.5933837890625,794.5787353515625,796.996337890625,799.4139404296875
268,796.1904907226562,794.1758422851562,789.3406372070312,790.952392578125
269,795.7875366210938,793.7728881835938,781.6849975585938,783.2966918945312
270,795.7875366210938,794.5787353515625,786.923095703125,784.1025390625
271,788.937744140625,796.996337890625,796.5933837890625,786.5201416015625
272,774.029296875,793.7728881835938,799.010986328125,780.879150390625
273,764.7619018554688,794.1758422851562,797.8021850585938,780.4761962890625
274,772.0146484375,796.1904907226562,797.8021850585938,786.923095703125
275,781.6849975585938,794.5787353515625,803.8461303710938,786.923095703125
276,788.1318969726562,794.1758422851562,805.054931640625,789.7435913085938
277,790.1465454101562,797.3992919921875,803.040283203125,792.1611938476562
278,782.893798828125,790.5494384765625,802.6373901367188,788.5347900390625
279,787.3259887695312,786.923095703125,796.996337890625,790.1465454101562
280,799.010986328125,789.7435913085938,792.967041015625,794.5787353515625
281,800.2197875976562,793.7728881835938,794.5787353515625,790.952392578125
282,796.5933837890625,790.5494384765625,797.8021850585938,792.1611938476562
283,788.1318969726562,789.7435913085938,798.2051391601562,791.7582397460938
284,799.010986328125,796.996337890625,801.8314819335938,796.996337890625
285,808.2783813476562,794.5787353515625,803.4432373046875,805.8607788085938
286,802.2344360351562,795.7875366210938,802.2344360351562,802.6373901367188
287,798.2051391601562,793.7728881835938,805.4578857421875,795.7875366210938
288,794.1758422851562,790.952392578125,803.8461303710938,796.5933837890625
289,797.8021850585938,794.981689453125,798.6080322265625,802.2344360351562
290,799.8168334960938,799.8168334960938,802.2344360351562,801.025634765625
291,797.8021850585938,796.996337890625,800.2197875976562,799.8168334960938
292,799.4139404296875,786.923095703125,800.6226806640625,796.996337890625
293,795.3846435546875,790.952392578125,802.6373901367188,794.981689453125
294,793.3699340820312,799.8168334960938,799.010986328125,792.5640869140625
295,800.6226806640625,798.6080322265625,797.3992919921875,786.923095703125
296,798.6080322265625,797.3992919921875,793.3699340820312,790.1465454101562
297,789.7435913085938,794.5787353515625,793.7728881835938,796.996337890625
298,788.5347900390625,792.5640869140625,794.5787353515625,793.3699340820312
299,788.937744140625,794.1758422851562,790.1465454101562,785.3113403320312
300,799.010986328125,792.5640869140625,792.5640869140625,788.937744140625
301,808.2783813476562,796.996337890625,796.1904907226562,793.7728881835938
302,799.010986328125,795.3846435546875,794.1758422851562,781.6849975585938
303,792.5640869140625,788.1318969726562,790.952392578125,775.6410522460938
304,790.1465454101562,785.7142944335938,788.937744140625,788.1318969726562
305,788.1318969726562,784.908447265625,788.937744140625,790.5494384765625
306,788.1318969726562,787.3259887695312,790.5494384765625,786.923095703125
307,788.5347900390625,791.3552856445312,793.3699340820312,788.5347900390625
308,796.5933837890625,790.952392578125,793.3699340820312,788.1318969726562
309,805.054931640625,785.3113403320312,788.1318969726562,787.3259887695312
310,800.2197875976562,785.3113403320312,787.3259887695312,787.3259887695312
311,792.5640869140625,790.5494384765625,793.3699340820312,790.952392578125
312,790.1465454101562,792.1611938476562,793.3699340820312,784.1025390625
313,791.7582397460938,788.937744140625,791.7582397460938,780.4761962890625
314,792.967041015625,787.3259887695312,790.5494384765625,782.4908447265625
315,798.6080322265625,788.1318969726562,787.3259887695312,784.908447265625
316,800.2197875976562,788.5347900390625,786.1171875,788.937744140625
317,788.937744140625,785.3113403320312,784.908447265625,788.937744140625
318,780.879150390625,781.2820434570312,784.1025390625,790.1465454101562
319,786.1171875,784.1025390625,787.3259887695312,792.1611938476562
320,791.7582397460938,788.1318969726562,796.1904907226562,799.4139404296875
321,794.5787353515625,791.7582397460938,799.4139404296875,799.4139404296875
322,792.5640869140625,793.3699340820312,799.010986328125,791.7582397460938
323,787.3259887695312,790.1465454101562,802.2344360351562,794.981689453125
324,786.5201416015625,792.5640869140625,800.2197875976562,792.5640869140625
325,791.7582397460938,793.7728881835938,794.981689453125,790.5494384765625
326,797.8021850585938,791.7582397460938,792.967041015625,794.981689453125
327,799.8168334960938,788.1318969726562,794.981689453125,793.3699340820312
328,799.4139404296875,784.5054931640625,794.1758422851562,793.3699340820312
329,794.1758422851562,784.1025390625,794.1758422851562,796.1904907226562
330,787.7289428710938,785.7142944335938,791.7582397460938,794.981689453125
331,788.937744140625,789.7435913085938,786.5201416015625,793.3699340820312
332,786.1171875,790.5494384765625,786.923095703125,790.1465454101562
333,784.5054931640625,789.7435913085938,786.5201416015625,780.879150390625
334,786.923095703125,792.5640869140625,790.5494384765625,780.879150390625
335,783.6996459960938,790.5494384765625,794.1758422851562,783.2966918945312
336,784.1025390625,788.937744140625,792.1611938476562,782.4908447265625
337,784.908447265625,787.7289428710938,796.1904907226562,782.4908447265625
338,785.3113403320312,788.1318969726562,800.2197875976562,784.5054931640625
339,789.3406372070312,784.5054931640625,796.1904907226562,784.5054931640625
340,793.3699340820312,778.4615478515625,792.967041015625,785.3113403320312
341,798.2051391601562,785.3113403320312,795.3846435546875,789.7435913085938
342,805.8607788085938,792.5640869140625,793.3699340820312,793.3699340820312
343,805.054931640625,796.5933837890625,787.7289428710938,788.5347900390625
344,788.5347900390625,791.3552856445312,790.1465454101562,781.6849975585938
345,778.4615478515625,780.4761962890625,790.952392578125,782.4908447265625
346,780.0732421875,780.4761962890625,790.5494384765625,785.7142944335938
347,792.1611938476562,788.937744140625,795.7875366210938,798.6080322265625
348,793.7728881835938,792.967041015625,799.010986328125,794.5787353515625
349,784.908447265625,792.967041015625,798.2051391601562,780.0732421875
350,786.923095703125,794.1758422851562,792.967041015625,778.4615478515625
351,791.3552856445312,791.7582397460938,785.3113403320312,779.2673950195312
352,788.1318969726562,787.3259887695312,785.3113403320312,783.6996459960938
353,789.3406372070312,787.3259887695312,790.952392578125,784.908447265625
354,790.1465454101562,791.7582397460938,792.967041015625,790.5494384765625
355,784.5054931640625,786.923095703125,795.3846435546875,792.967041015625
356,790.1465454101562,782.893798828125,793.7728881835938,784.5054931640625
357,802.2344360351562,793.3699340820312,792.5640869140625,792.1611938476562
358,806.2637329101562,800.2197875976562,796.996337890625,800.6226806640625
359,796.996337890625,796.1904907226562,794.981689453125,790.1465454101562
360,790.5494384765625,800.6226806640625,792.5640869140625,788.1318969726562
361,794.1758422851562,797.3992919921875,792.5640869140625,789.3406372070312
362,794.1758422851562,795.3846435546875,789.7435913085938,788.1318969726562
363,782.4908447265625,799.010986328125,784.908447265625,782.893798828125
364,775.6410522460938,791.7582397460938,785.3113403320312,782.4908447265625
365,782.4908447265625,786.1171875,790.1465454101562,787.7289428710938
366,786.923095703125,784.908447265625,790.1465454101562,786.1171875
367,791.3552856445312,788.1318969726562,791.7582397460938,784.908447265625
368,795.7875366210938,792.5640869140625,797.8021850585938,784.5054931640625
369,800.6226806640625,799.010986328125,802.2344360351562,791.3552856445312
370,797.3992919921875,799.8168334960938,806.6666870117188,789.3406372070312
371,797.3992919921875,799.8168334960938,808.6813354492188,788.937744140625
372,800.6226806640625,798.6080322265625,804.6520385742188,789.3406372070312
373,794.1758422851562,799.4139404296875,800.6226806640625,789.3406372070312
374,789.7435913085938,799.010986328125,797.3992919921875,790.1465454101562
375,791.3552856445312,795.7875366210938,794.5787353515625,784.908447265625
376,794.1758422851562,796.5933837890625,796.1904907226562,786.5201416015625
377,797.8021850585938,793.7728881835938,794.5787353515625,796.1904907226562
378,797.3992919921875,787.7289428710938,794.981689453125,799.010986328125
379,794.1758422851562,787.7289428710938,792.5640869140625,788.1318969726562
380,794.981689453125,792.1611938476562,789.3406372070312,789.3406372070312
381,793.7728881835938,795.3846435546875,791.3552856445312,794.5787353515625
382,787.7289428710938,793.3699340820312,792.967041015625,795.3846435546875
383,784.908447265625,786.1171875,792.1611938476562,795.3846435546875
384,786.5201416015625,789.7435913085938,790.1465454101562,786.1171875
385,788.1318969726562,795.3846435546875,790.952392578125,781.2820434570312
386,789.3406372070312,789.3406372070312,787.7289428710938,784.908447265625
387,794.981689453125,787.3259887695312,784.1025390625,789.7435913085938
388,799.010986328125,787.3259887695312,789.3406372070312,792.1611938476562
389,798.2051391601562,788.5347900390625,794.1758422851562,791.3552856445312
390,790.952392578125,792.1611938476562,794.1758422851562,788.1318969726562
391,785.7142944335938,788.5347900390625,790.952392578125,784.908447265625
392,787.7289428710938,781.6849975585938,791.3552856445312,783.6996459960938
393,781.6849975585938,782.893798828125,792.967041015625,784.908447265625
394,777.2527465820312,786.1171875,790.1465454101562,783.6996459960938
395,781.2820434570312,787.7289428710938,793.7728881835938,786.1171875
396,777.6557006835938,782.4908447265625,799.4139404296875,784.1025390625
397,774.029296875,777.2527465820312,799.010986328125,780.879150390625
398,778.05859375,779.2673950195312,799.8168334960938,785.7142944335938
399,790.5494384765625,789.3406372070312,801.4285888671875,797.3992919921875
400,792.967041015625,794.981689453125,798.2051391601562,799.8168334960938
401,787.3259887695312,790.952392578125,795.7875366210938,793.3699340820312
402,782.4908447265625,787.3259887695312,796.1904907226562,788.5347900390625
403,775.6410522460938,782.893798828125,792.967041015625,781.2820434570312
404,779.6703491210938,782.893798828125,790.1465454101562,786.1171875
405,788.1318969726562,785.7142944335938,792.967041015625,796.1904907226562
406,791.3552856445312,785.7142944335938,795.7875366210938,791.7582397460938
407,781.6849975585938,790.952392578125,790.952392578125,782.893798828125
408,782.893798828125,796.5933837890625,792.1611938476562,782.087890625
409,790.5494384765625,797.3992919921875,792.967041015625,781.6849975585938
410,785.7142944335938,789.7435913085938,790.5494384765625,780.879150390625
411,789.7435913085938,789.7435913085938,791.3552856445312,783.6996459960938
412,800.2197875976562,791.3552856445312,793.7728881835938,788.5347900390625
413,804.2490844726562,784.1025390625,794.981689453125,792.1611938476562
414,801.4285888671875,787.3259887695312,794.1758422851562,792.1611938476562
415,800.6226806640625,789.3406372070312,796.1904907226562,792.1611938476562
416,796.5933837890625,781.2820434570312,796.996337890625,803.4432373046875
417,789.7435913085938,789.7435913085938,798.2051391601562,803.040283203125
418,792.967041015625,788.937744140625,796.996337890625,790.1465454101562
419,794.981689453125,786.5201416015625,797.8021850585938,787.3259887695312
420,792.1611938476562,791.3552856445312,796.996337890625,788.5347900390625
421,784.1025390625,786.923095703125,792.1611938476562,784.908447265625
422,784.5054931640625,781.6849975585938,794.5787353515625,786.1171875
423,790.952392578125,785.7142944335938,797.8021850585938,790.952392578125
424,792.1611938476562,794.1758422851562,793.7728881835938,792.1611938476562
425,791.3552856445312,789.7435913085938,792.1611938476562,793.7728881835938
426,788.1318969726562,787.3259887695312,789.7435913085938,786.923095703125
427,790.5494384765625,789.3406372070312,790.5494384765625,785.7142944335938
428,789.3406372070312,788.1318969726562,795.7875366210938,788.5347900390625
429,783.2966918945312,781.2820434570312,790.952392578125,785.3113403320312
430,785.7142944335938,780.4761962890625,788.1318969726562,786.923095703125
431,785.7142944335938,788.1318969726562,791.7582397460938,791.7582397460938
432,782.4908447265625,788.937744140625,795.3846435546875,791.7582397460938
433,784.5054931640625,784.1025390625,797.8021850585938,788.937744140625
434,788.1318969726562,788.5347900390625,792.967041015625,791.3552856445312
435,789.7435913085938,792.967041015625,794.1758422851562,792.967041015625
436,790.952392578125,790.952392578125,799.8168334960938,790.5494384765625
437,796.5933837890625,786.5201416015625,799.010986328125,790.1465454101562
438,794.5787353515625,785.3113403320312,799.8168334960938,794.5787353515625
439,793.7728881835938,790.5494384765625,801.8314819335938,803.8461303710938
440,795.3846435546875,788.5347900390625,803.040283203125,799.010986328125
441,793.3699340820312,780.879150390625,800.2197875976562,791.7582397460938
442,792.1611938476562,785.3113403320312,794.1758422851562,791.3552856445312
443,791.7582397460938,786.1171875,791.3552856445312,787.7289428710938
444,795.7875366210938,781.2820434570312,792.5640869140625,784.908447265625
445,792.1611938476562,782.4908447265625,790.5494384765625,780.879150390625
446,790.1465454101562,781.6849975585938,790.952392578125,787.3259887695312
447,788.5347900390625,779.6703491210938,792.967041015625,786.5201416015625
448,786.5201416015625,780.879150390625,791.3552856445312,778.8644409179688
449,791.7582397460938,774.4322509765625,789.3406372070312,786.1171875
450,788.1318969726562,774.4322509765625,792.1611938476562,790.5494384765625
451,773.2234497070312,780.0732421875,792.967041015625,784.5054931640625
452,769.1941528320312,781.6849975585938,792.5640869140625,778.8644409179688
453,781.2820434570312,786.5201416015625,796.996337890625,782.4908447265625
454,792.5640869140625,788.937744140625,794.1758422851562,795.3846435546875
455,798.2051391601562,788.937744140625,792.1611938476562,798.6080322265625
456,797.3992919921875,788.1318969726562,791.3552856445312,789.3406372070312
457,792.1611938476562,784.1025390625,794.1758422851562,789.7435913085938
458,783.2966918945312,784.908447265625,798.6080322265625,788.1318969726562
459,780.879150390625,787.7289428710938,797.8021850585938,788.1318969726562
460,779.6703491210938,784.5054931640625,794.1758422851562,784.5054931640625
461,787.7289428710938,785.3113403320312,791.7582397460938,782.4908447265625
462,794.1758422851562,785.7142944335938,792.967041015625,792.5640869140625
463,780.0732421875,782.4908447265625,789.7435913085938,788.1318969726562
464,782.893798828125,784.5054931640625,788.937744140625,783.6996459960938
465,784.908447265625,788.937744140625,788.937744140625,784.908447265625
466,782.4908447265625,786.1171875,788.1318969726562,786.1171875
467,785.3113403320312,786.5201416015625,789.7435913085938,785.7142944335938
468,780.4761962890625,784.908447265625,788.937744140625,780.4761962890625
469,776.8497924804688,777.2527465820312,787.7289428710938,779.6703491210938
470,784.908447265625,774.4322509765625,790.5494384765625,784.1025390625
471,790.952392578125,778.4615478515625,792.1611938476562,785.3113403320312
472,785.3113403320312,786.923095703125,793.7728881835938,784.1025390625
473,777.2527465820312,788.5347900390625,797.3992919921875,784.1025390625
474,776.4468994140625,784.5054931640625,794.981689453125,786.923095703125
475,780.4761962890625,789.3406372070312,790.1465454101562,792.5640869140625
476,784.1025390625,784.908447265625,788.1318969726562,789.3406372070312
477,783.2966918945312,778.05859375,786.5201416015625,781.2820434570312
478,782.087890625,787.7289428710938,790.952392578125,786.5201416015625
479,787.7289428710938,790.1465454101562,793.3699340820312,789.7435913085938
480,792.1611938476562,789.7435913085938,793.7728881835938,786.5201416015625
481,786.923095703125,784.908447265625,794.5787353515625,788.5347900390625
482,788.937744140625,784.1025390625,795.7875366210938,790.952392578125
483,794.1758422851562,783.6996459960938,794.981689453125,786.923095703125
484,797.3992919921875,784.1025390625,790.5494384765625,789.3406372070312
485,804.2490844726562,787.3259887695312,790.5494384765625,791.7582397460938
486,809.084228515625,790.5494384765625,789.3406372070312,795.3846435546875
487,816.7399291992188,793.7728881835938,793.7728881835938,798.2051391601562
488,808.6813354492188,794.5787353515625,795.3846435546875,796.1904907226562
489,794.981689453125,791.7582397460938,789.7435913085938,803.4432373046875
490,782.087890625,784.1025390625,789.3406372070312,795.3846435546875
491,780.879150390625,782.087890625,787.7289428710938,787.3259887695312
492,788.1318969726562,788.5347900390625,788.937744140625,787.7289428710938
493,789.7435913085938,792.1611938476562,790.1465454101562,781.2820434570312
494,787.3259887695312,786.1171875,788.5347900390625,775.6410522460938
495,785.3113403320312,782.4908447265625,785.7142944335938,772.8204956054688
496,790.1465454101562,790.1465454101562,788.937744140625,781.2820434570312
497,792.1611938476562,795.3846435546875,792.5640869140625,786.923095703125
498,784.908447265625,790.952392578125,791.3552856445312,784.1025390625
499,782.087890625,790.1465454101562,789.7435913085938,780.879150390625
500,788.5347900390625,789.7435913085938,789.7435913085938,787.7289428710938
501,792.1611938476562,793.7728881835938,793.7728881835938,796.996337890625
502,787.3259887695312,799.010986328125,796.5933837890625,789.7435913085938
503,786.5201416015625,801.8314819335938,792.1611938476562,784.908447265625
504,782.893798828125,797.8021850585938,790.1465454101562,780.0732421875
505,779.2673950195312,788.937744140625,786.5201416015625,772.8204956054688
506,786.923095703125,787.7289428710938,789.7435913085938,776.4468994140625
507,796.5933837890625,787.3259887695312,794.5787353515625,784.1025390625
508,794.981689453125,793.7728881835938,789.7435913085938,783.6996459960938
509,792.5640869140625,797.3992919921875,794.5787353515625,789.3406372070312
510,790.1465454101562,788.937744140625,793.7728881835938,792.967041015625
511,792.967041015625,788.1318969726562,788.937744140625,792.5640869140625
512,792.5640869140625,788.5347900390625,785.3113403320312,796.5933837890625
513,785.7142944335938,786.923095703125,781.6849975585938,790.5494384765625
514,790.5494384765625,789.7435913085938,785.3113403320312,788.1318969726562
515,797.8021850585938,796.5933837890625,791.3552856445312,794.1758422851562
516,794.981689453125,796.1904907226562,791.3552856445312,792.1611938476562
517,788.1318969726562,791.7582397460938,788.5347900390625,788.937744140625
518,787.3259887695312,786.5201416015625,786.923095703125,786.1171875
519,788.937744140625,785.3113403320312,787.3259887695312,786.1171875
520,786.5201416015625,788.937744140625,786.5201416015625,786.1171875
521,790.1465454101562,785.3113403320312,785.7142944335938,788.5347900390625
522,796.1904907226562,784.1025390625,784.1025390625,786.5201416015625
523,789.3406372070312,792.5640869140625,786.5201416015625,786.923095703125
524,783.2966918945312,790.952392578125,792.5640869140625,788.1318969726562
525,784.1025390625,788.5347900390625,792.5640869140625,786.923095703125
526,788.937744140625,792.1611938476562,792.967041015625,795.3846435546875
527,790.1465454101562,789.3406372070312,793.7728881835938,789.7435913085938
528,789.7435913085938,790.952392578125,791.7582397460938,783.6996459960938
529,793.7728881835938,792.5640869140625,789.7435913085938,789.7435913085938
530,796.1904907226562,791.3552856445312,790.952392578125,792.967041015625
531,798.2051391601562,788.937744140625,794.981689453125,790.952392578125
532,796.5933837890625,789.7435913085938,791.7582397460938,791.3552856445312
533,790.5494384765625,790.5494384765625,790.1465454101562,793.7728881835938
534,793.3699340820312,792.5640869140625,795.3846435546875,791.7582397460938
535,801.4285888671875,794.1758422851562,794.981689453125,793.3699340820312
536,796.1904907226562,788.937744140625,792.5640869140625,799.8168334960938
537,785.3113403320312,790.1465454101562,788.1318969726562,792.967041015625
538,772.0146484375,792.1611938476562,788.1318969726562,782.893798828125
539,768.3883056640625,790.5494384765625,786.923095703125,788.1318969726562
540,782.893798828125,796.5933837890625,788.937744140625,798.2051391601562
541,795.3846435546875,795.7875366210938,791.7582397460938,803.4432373046875
542,799.8168334960938,792.967041015625,791.3552856445312,802.6373901367188
543,797.8021850585938,790.5494384765625,792.1611938476562,801.8314819335938
544,792.1611938476562,787.3259887695312,790.952392578125,796.1904907226562
545,794.981689453125,792.1611938476562,792.5640869140625,790.952392578125
546,796.5933837890625,794.5787353515625,790.1465454101562,792.967041015625
547,796.996337890625,795.7875366210938,784.1025390625,792.1611938476562
548,801.4285888671875,793.3699340820312,786.923095703125,788.1318969726562
549,798.6080322265625,788.937744140625,790.1465454101562,785.3113403320312
550,792.967041015625,786.5201416015625,791.7582397460938,787.3259887695312
551,789.7435913085938,790.1465454101562,790.952392578125,788.5347900390625
552,787.7289428710938,793.7728881835938,788.5347900390625,787.7289428710938
553,787.7289428710938,792.1611938476562,790.952392578125,787.7289428710938
554,787.7289428710938,790.952392578125,792.5640869140625,782.893798828125
555,787.7289428710938,793.7728881835938,790.1465454101562,783.6996459960938
556,792.1611938476562,793.7728881835938,788.5347900390625,787.3259887695312
557,794.1758422851562,793.3699340820312,788.5347900390625,789.7435913085938
558,789.3406372070312,792.1611938476562,788.937744140625,796.5933837890625
559,782.893798828125,789.7435913085938,788.937744140625,794.1758422851562
560,784.1025390625,788.937744140625,789.3406372070312,788.5347900390625
561,795.3846435546875,792.5640869140625,791.7582397460938,793.3699340820312
562,809.4871826171875,795.3846435546875,794.1758422851562,795.7875366210938
563,809.084228515625,792.967041015625,796.996337890625,793.7728881835938
564,802.2344360351562,792.1611938476562,796.5933837890625,791.3552856445312
565,796.5933837890625,796.1904907226562,798.2051391601562,792.967041015625
566,792.967041015625,794.1758422851562,798.6080322265625,793.3699340820312
567,795.7875366210938,790.952392578125,795.7875366210938,787.3259887695312
568,793.3699340820312,797.3992919921875,794.1758422851562,787.7289428710938
569,790.5494384765625,800.2197875976562,792.967041015625,788.5347900390625
570,789.7435913085938,796.1904907226562,792.967041015625,788.5347900390625
571,790.1465454101562,796.5933837890625,794.5787353515625,791.3552856445312
572,792.967041015625,798.6080322265625,794.5787353515625,786.5201416015625
573,799.4139404296875,795.7875366210938,791.3552856445312,787.7289428710938
574,796.996337890625,794.1758422851562,788.1318969726562,786.1171875
575,796.1904907226562,792.5640869140625,791.3552856445312,788.937744140625
576,798.6080322265625,794.1758422851562,792.967041015625,796.1904907226562
577,797.8021850585938,793.3699340820312,792.967041015625,795.3846435546875
578,801.025634765625,787.3259887695312,795.3846435546875,797.8021850585938
579,799.8168334960938,784.908447265625,792.5640869140625,797.3992919921875
580,799.8168334960938,783.6996459960938,792.967041015625,799.4139404296875
581,797.3992919921875,788.5347900390625,794.5787353515625,794.1758422851562
582,794.1758422851562,792.1611938476562,792.967041015625,788.937744140625
583,789.7435913085938,791.3552856445312,796.996337890625,793.7728881835938
584,784.1025390625,793.7728881835938,803.040283203125,799.4139404296875
585,783.2966918945312,791.7582397460938,804.6520385742188,803.8461303710938
586,783.6996459960938,792.5640869140625,805.054931640625,798.2051391601562
587,790.5494384765625,790.952392578125,803.4432373046875,794.5787353515625
588,786.5201416015625,788.937744140625,803.4432373046875,798.2051391601562
589,778.8644409179688,784.5054931640625,801.8314819335938,794.981689453125
590,780.879150390625,782.087890625,799.8168334960938,794.981689453125
591,780.879150390625,788.5347900390625,803.040283203125,796.1904907226562
592,789.3406372070312,790.952392578125,801.025634765625,792.967041015625
593,794.5787353515625,795.7875366210938,798.6080322265625,792.967041015625
594,794.1758422851562,796.996337890625,800.6226806640625,791.3552856445312
595,795.3846435546875,798.2051391601562,804.6520385742188,790.1465454101562
596,802.2344360351562,794.1758422851562,808.6813354492188,799.8168334960938
597,797.3992919921875,790.5494384765625,804.6520385742188,798.2051391601562
598,793.3699340820312,790.5494384765625,796.1904907226562,788.1318969726562
599,799.4139404296875,788.5347900390625,796.1904907226562,790.952392578125
600,799.010986328125,789.7435913085938,796.5933837890625,789.3406372070312
601,800.6226806640625,790.1465454101562,794.1758422851562,790.5494384765625
602,801.4285888671875,787.7289428710938,792.967041015625,793.7728881835938
603,801.025634765625,789.3406372070312,791.7582397460938,794.981689453125
604,801.025634765625,791.3552856445312,792.5640869140625,795.3846435546875
605,801.8314819335938,790.5494384765625,792.1611938476562,795.7875366210938
606,797.8021850585938,785.3113403320312,790.1465454101562,792.967041015625
607,787.3259887695312,782.4908447265625,787.7289428710938,792.5640869140625
608,788.937744140625,782.087890625,787.3259887695312,795.3846435546875
609,795.3846435546875,780.4761962890625,785.3113403320312,791.7582397460938
610,790.952392578125,780.879150390625,779.2673950195312,783.6996459960938
611,790.952392578125,785.7142944335938,778.8644409179688,786.923095703125
612,789.7435913085938,787.3259887695312,784.5054931640625,790.952392578125
613,791.7582397460938,786.5201416015625,786.923095703125,792.5640869140625
614,796.5933837890625,792.5640869140625,788.1318969726562,793.3699340820312
615,795.3846435546875,793.3699340820312,792.5640869140625,796.996337890625
616,796.5933837890625,792.5640869140625,788.5347900390625,796.5933837890625
617,795.7875366210938,792.1611938476562,785.3113403320312,788.937744140625
618,791.7582397460938,790.1465454101562,787.7289428710938,783.6996459960938
619,790.952392578125,786.1171875,788.5347900390625,785.3113403320312
620,786.923095703125,781.2820434570312,792.1611938476562,789.3406372070312
621,783.2966918945312,780.0732421875,789.3406372070312,776.4468994140625
622,783.6996459960938,782.893798828125,784.5054931640625,770.4029541015625
623,790.1465454101562,789.7435913085938,786.923095703125,776.8497924804688
624,791.7582397460938,790.5494384765625,787.3259887695312,776.8497924804688
625,785.7142944335938,788.1318969726562,785.7142944335938,769.5970458984375
626,783.6996459960938,788.1318969726562,784.5054931640625,769.5970458984375
627,779.2673950195312,781.6849975585938,784.908447265625,773.2234497070312
628,776.4468994140625,777.6557006835938,786.923095703125,770.4029541015625
629,778.4615478515625,784.1025390625,786.1171875,772.8204956054688
630,783.2966918945312,792.1611938476562,786.1171875,774.029296875
631,788.937744140625,796.5933837890625,788.937744140625,782.893798828125
632,788.1318969726562,796.1904907226562,785.7142944335938,784.908447265625
633,790.1465454101562,788.937744140625,778.4615478515625,777.2527465820312
634,794.1758422851562,788.5347900390625,780.0732421875,783.2966918945312
635,798.6080322265625,790.5494384765625,786.923095703125,788.1318969726562
636,795.3846435546875,789.3406372070312,790.5494384765625,786.923095703125
637,786.5201416015625,788.1318969726562,790.1465454101562,782.893798828125
638,785.3113403320312,791.7582397460938,782.4908447265625,776.8497924804688
639,786.923095703125,794.1758422851562,781.2820434570312,780.0732421875
640,786.1171875,788.937744140625,779.2673950195312,785.7142944335938
641,782.087890625,784.1025390625,780.0732421875,780.879150390625
642,782.893798828125,780.4761962890625,787.3259887695312,789.7435913085938
643,784.908447265625,782.4908447265625,788.5347900390625,793.3699340820312
644,787.7289428710938,783.6996459960938,793.7728881835938,785.7142944335938
645,790.1465454101562,783.2966918945312,788.5347900390625,787.7289428710938
646,794.981689453125,784.5054931640625,785.7142944335938,792.967041015625
647,791.3552856445312,785.3113403320312,791.3552856445312,790.952392578125
648,788.937744140625,789.3406372070312,790.1465454101562,788.1318969726562
649,800.2197875976562,788.5347900390625,789.7435913085938,794.1758422851562
650,800.2197875976562,788.5347900390625,786.1171875,796.5933837890625
651,792.5640869140625,788.937744140625,787.3259887695312,795.7875366210938
652,786.923095703125,787.7289428710938,788.937744140625,792.5640869140625
653,783.6996459960938,784.908447265625,786.1171875,793.7728881835938
654,787.3259887695312,784.908447265625,792.5640869140625,802.6373901367188
655,791.3552856445312,792.5640869140625,793.3699340820312,799.010986328125
656,790.5494384765625,799.8168334960938,789.3406372070312,796.996337890625
657,792.967041015625,799.010986328125,788.5347900390625,801.025634765625
658,794.981689453125,794.5787353515625,788.937744140625,796.996337890625
659,788.5347900390625,794.1758422851562,787.3259887695312,786.923095703125
660,783.6996459960938,798.6080322265625,782.893798828125,779.2673950195312
661,783.2966918945312,796.5933837890625,783.2966918945312,780.879150390625
662,779.6703491210938,787.3259887695312,785.7142944335938,778.4615478515625
663,781.2820434570312,791.3552856445312,788.937744140625,780.879150390625
664,782.4908447265625,794.1758422851562,788.5347900390625,788.1318969726562
665,782.893798828125,789.3406372070312,787.3259887695312,790.5494384765625
666,782.4908447265625,791.7582397460938,785.3113403320312,787.7289428710938
667,783.2966918945312,794.5787353515625,783.6996459960938,783.6996459960938
668,790.952392578125,793.7728881835938,786.1171875,785.3113403320312
669,794.5787353515625,790.952392578125,789.7435913085938,791.7582397460938
670,794.981689453125,791.3552856445312,789.3406372070312,790.5494384765625
671,795.7875366210938,798.6080322265625,788.5347900390625,788.937744140625
672,796.5933837890625,798.6080322265625,790.1465454101562,789.3406372070312
673,792.5640869140625,796.1904907226562,794.1758422851562,788.937744140625
674,792.967041015625,792.1611938476562,796.5933837890625,792.5640869140625
675,795.7875366210938,790.952392578125,790.952392578125,790.952392578125
676,794.981689453125,792.5640869140625,788.5347900390625,790.5494384765625
677,799.8168334960938,793.7728881835938,794.1758422851562,797.8021850585938
678,795.7875366210938,796.1904907226562,794.5787353515625,794.5787353515625
679,793.3699340820312,792.1611938476562,790.5494384765625,786.5201416015625
680,797.3992919921875,790.5494384765625,788.937744140625,790.1465454101562
681,795.7875366210938,792.5640869140625,793.3699340820312,797.3992919921875
682,790.952392578125,793.7728881835938,799.010986328125,795.7875366210938
683,788.1318969726562,793.7728881835938,796.996337890625,791.3552856445312
684,793.7728881835938,790.5494384765625,803.4432373046875,800.6226806640625
685,797.8021850585938,786.923095703125,802.2344360351562,805.054931640625
686,790.952392578125,789.7435913085938,797.8021850585938,801.8314819335938
687,788.937744140625,784.908447265625,795.7875366210938,799.8168334960938
688,794.5787353515625,788.5347900390625,792.967041015625,802.2344360351562
689,793.3699340820312,796.5933837890625,797.3992919921875,801.025634765625
690,795.7875366210938,792.967041015625,795.3846435546875,799.8168334960938
691,792.967041015625,789.3406372070312,792.5640869140625,795.3846435546875
692,779.6703491210938,786.923095703125,788.5347900390625,788.5347900390625
693,775.2380981445312,784.5054931640625,791.3552856445312,787.3259887695312
694,783.6996459960938,784.5054931640625,794.981689453125,786.1171875
695,787.7289428710938,791.7582397460938,790.5494384765625,787.3259887695312
696,783.6996459960938,794.1758422851562,790.1465454101562,790.1465454101562
697,792.5640869140625,792.1611938476562,794.5787353515625,794.981689453125
698,796.5933837890625,792.967041015625,800.2197875976562,793.3699340820312
699,794.981689453125,798.6080322265625,804.2490844726562,796.996337890625
700,791.7582397460938,796.1904907226562,800.2197875976562,794.5787353515625
701,788.1318969726562,790.952392578125,796.1904907226562,789.3406372070312
702,788.937744140625,789.7435913085938,797.3992919921875,789.3406372070312
703,783.2966918945312,795.7875366210938,793.7728881835938,786.5201416015625
704,780.879150390625,796.5933837890625,792.1611938476562,788.937744140625
705,784.908447265625,792.1611938476562,791.7582397460938,787.3259887695312
706,787.7289428710938,792.1611938476562,787.3259887695312,776.8497924804688
707,783.6996459960938,793.7728881835938,788.937744140625,779.6703491210938
708,782.4908447265625,796.5933837890625,789.7435913085938,787.3259887695312
709,788.1318969726562,797.3992919921875,789.7435913085938,784.1025390625
710,796.1904907226562,790.952392578125,791.7582397460938,786.5201416015625
711,789.3406372070312,783.2966918945312,790.5494384765625,792.5640869140625
712,780.4761962890625,784.908447265625,792.1611938476562,790.5494384765625
713,781.6849975585938,784.1025390625,793.3699340820312,789.7435913085938
714,776.0439453125,790.5494384765625,791.7582397460938,788.5347900390625
715,774.8351440429688,791.7582397460938,793.3699340820312,791.3552856445312
716,780.4761962890625,785.7142944335938,792.1611938476562,790.952392578125
717,784.908447265625,788.937744140625,791.7582397460938,782.893798828125
718,785.7142944335938,788.1318969726562,790.952392578125,782.893798828125
719,784.5054931640625,784.1025390625,787.3259887695312,786.1171875
720,788.5347900390625,784.1025390625,788.5347900390625,793.7728881835938
721,791.7582397460938,785.3113403320312,788.1318969726562,792.967041015625
722,789.7435913085938,785.3113403320312,791.7582397460938,793.3699340820312
723,786.1171875,790.952392578125,795.7875366210938,798.2051391601562
724,786.5201416015625,796.5933837890625,792.967041015625,802.2344360351562
725,789.3406372070312,795.3846435546875,789.7435913085938,801.8314819335938
726,790.5494384765625,798.2051391601562,788.937744140625,798.2051391601562
727,785.3113403320312,799.010986328125,794.981689453125,808.6813354492188
728,781.6849975585938,797.3992919921875,798.2051391601562,803.8461303710938
729,783.2966918945312,797.3992919921875,793.7728881835938,789.3406372070312
730,787.7289428710938,793.3699340820312,790.1465454101562,792.1611938476562
731,795.3846435546875,788.937744140625,793.3699340820312,794.981689453125
732,795.3846435546875,793.3699340820312,793.7728881835938,792.1611938476562
733,794.1758422851562,793.7728881835938,789.7435913085938,786.923095703125
734,796.996337890625,787.7289428710938,785.3113403320312,782.4908447265625
735,801.025634765625,792.967041015625,786.923095703125,785.3113403320312
736,797.8021850585938,795.3846435546875,789.3406372070312,789.7435913085938
737,791.7582397460938,791.7582397460938,786.923095703125,787.3259887695312
738,792.5640869140625,791.7582397460938,782.893798828125,786.923095703125
739,789.3406372070312,790.1465454101562,784.5054931640625,787.7289428710938
740,784.908447265625,785.7142944335938,789.3406372070312,783.6996459960938
741,790.5494384765625,788.1318969726562,792.1611938476562,782.087890625
742,792.967041015625,791.3552856445312,790.1465454101562,780.879150390625
743,783.6996459960938,790.1465454101562,788.1318969726562,778.8644409179688
744,778.05859375,783.6996459960938,790.952392578125,781.6849975585938
745,788.5347900390625,780.0732421875,786.923095703125,790.5494384765625
746,792.967041015625,790.952392578125,784.1025390625,793.7728881835938
747,783.6996459960938,792.967041015625,789.3406372070312,796.996337890625
748,771.6116943359375,781.6849975585938,791.3552856445312,796.1904907226562
749,763.1502075195312,776.0439453125,789.7435913085938,786.923095703125
750,760.3296508789062,775.6410522460938,792.5640869140625,788.1318969726562
751,768.3883056640625,775.6410522460938,793.3699340820312,789.7435913085938
752,790.952392578125,780.879150390625,796.5933837890625,795.7875366210938
753,799.8168334960938,790.1465454101562,799.8168334960938,805.8607788085938
754,805.4578857421875,795.7875366210938,798.2051391601562,805.8607788085938
755,803.8461303710938,790.1465454101562,800.6226806640625,798.6080322265625
756,794.5787353515625,782.4908447265625,799.8168334960938,796.1904907226562
757,795.7875366210938,786.1171875,798.2051391601562,800.6226806640625
758,799.010986328125,793.7728881835938,799.010986328125,797.8021850585938
759,798.2051391601562,796.5933837890625,791.7582397460938,787.7289428710938
760,798.6080322265625,795.7875366210938,783.6996459960938,783.2966918945312
761,801.025634765625,794.5787353515625,786.1171875,783.2966918945312
762,801.4285888671875,794.981689453125,783.6996459960938,776.8497924804688
763,801.4285888671875,794.981689453125,780.879150390625,771.6116943359375
764,795.7875366210938,792.967041015625,781.2820434570312,774.029296875
765,795.7875366210938,791.7582397460938,779.2673950195312,778.4615478515625
766,803.4432373046875,790.952392578125,781.2820434570312,779.6703491210938
767,795.7875366210938,788.937744140625,780.4761962890625,772.4176025390625
768,790.5494384765625,785.3113403320312,780.4761962890625,774.029296875
769,790.5494384765625,783.2966918945312,781.2820434570312,779.2673950195312
770,786.923095703125,784.1025390625,784.1025390625,783.6996459960938
771,783.6996459960938,784.5054931640625,788.937744140625,794.981689453125
772,779.6703491210938,782.893798828125,791.3552856445312,801.4285888671875
773,781.6849975585938,778.8644409179688,795.3846435546875,807.4725341796875
774,783.6996459960938,784.908447265625,798.2051391601562,808.6813354492188
775,782.893798828125,791.3552856445312,802.2344360351562,802.2344360351562
776,788.1318969726562,784.1025390625,798.6080322265625,800.2197875976562
777,793.3699340820312,780.879150390625,794.5787353515625,799.010986328125
778,790.5494384765625,782.087890625,798.2051391601562,794.1758422851562
779,782.087890625,779.6703491210938,793.7728881835938,790.1465454101562
780,783.6996459960938,785.3113403320312,794.981689453125,792.1611938476562
781,792.1611938476562,790.1465454101562,794.5787353515625,788.1318969726562
782,790.1465454101562,786.923095703125,785.7142944335938,783.2966918945312
783,787.3259887695312,788.937744140625,787.3259887695312,783.6996459960938
784,784.1025390625,795.7875366210938,790.952392578125,779.6703491210938
785,784.908447265625,791.3552856445312,785.3113403320312,776.4468994140625
786,794.5787353515625,792.1611938476562,779.6703491210938,773.6264038085938
787,798.6080322265625,797.3992919921875,784.1025390625,771.6116943359375
788,796.1904907226562,799.010986328125,782.893798828125,775.6410522460938
789,792.5640869140625,801.025634765625,781.6849975585938,776.4468994140625
790,784.5054931640625,799.4139404296875,785.3113403320312,765.1648559570312
791,785.7142944335938,804.2490844726562,786.923095703125,767.1795043945312
792,791.7582397460938,805.054931640625,787.7289428710938,771.2088012695312
793,780.0732421875,799.4139404296875,787.3259887695312,773.2234497070312
794,771.6116943359375,793.7728881835938,788.937744140625,780.879150390625
795,773.6264038085938,794.981689453125,790.952392578125,783.2966918945312
796,772.0146484375,794.5787353515625,791.7582397460938,781.2820434570312
797,780.0732421875,792.967041015625,794.981689453125,784.1025390625
798,784.908447265625,794.1758422851562,797.3992919921875,790.952392578125
799,784.5054931640625,788.1318969726562,794.5787353515625,790.1465454101562
800,787.3259887695312,788.5347900390625,790.952392578125,789.3406372070312
801,782.4908447265625,788.1318969726562,790.5494384765625,788.5347900390625
802,779.2673950195312,788.1318969726562,791.7582397460938,790.5494384765625
803,787.7289428710938,792.1611938476562,792.5640869140625,791.3552856445312
804,790.1465454101562,789.3406372070312,792.5640869140625,787.7289428710938
805,784.5054931640625,784.5054931640625,788.937744140625,779.6703491210938
806,784.1025390625,788.937744140625,788.1318969726562,779.6703491210938
807,782.4908447265625,788.5347900390625,785.7142944335938,782.087890625
808,783.6996459960938,784.908447265625,786.5201416015625,781.2820434570312
809,794.1758422851562,786.923095703125,789.7435913085938,785.3113403320312
810,791.7582397460938,787.3259887695312,788.1318969726562,780.879150390625
811,784.908447265625,785.7142944335938,784.5054931640625,784.908447265625
812,786.923095703125,785.7142944335938,781.2820434570312,790.1465454101562
813,789.3406372070312,782.087890625,783.6996459960938,783.6996459960938
814,788.5347900390625,781.2820434570312,788.1318969726562,785.3113403320312
815,781.6849975585938,784.1025390625,786.1171875,788.1318969726562
816,780.4761962890625,784.908447265625,784.5054931640625,786.5201416015625
817,792.1611938476562,788.937744140625,791.7582397460938,789.7435913085938
818,794.5787353515625,790.1465454101562,793.7728881835938,792.967041015625
819,791.7582397460938,786.923095703125,789.7435913085938,796.1904907226562
820,791.3552856445312,787.7289428710938,791.7582397460938,798.6080322265625
821,793.7728881835938,787.7289428710938,793.3699340820312,799.8168334960938
822,793.3699340820312,787.3259887695312,790.952392578125,793.7728881835938
823,790.1465454101562,788.1318969726562,790.5494384765625,793.7728881835938
824,789.3406372070312,790.1465454101562,787.7289428710938,792.967041015625
825,787.7289428710938,790.952392578125,782.893798828125,788.937744140625
826,788.937744140625,790.952392578125,782.087890625,794.981689453125
827,792.967041015625,791.3552856445312,786.1171875,798.2051391601562
828,795.7875366210938,791.3552856445312,790.952392578125,797.3992919921875
829,796.1904907226562,788.1318969726562,788.937744140625,790.5494384765625
830,798.6080322265625,788.1318969726562,786.923095703125,791.3552856445312
831,794.981689453125,788.937744140625,786.1171875,793.3699340820312
832,785.3113403320312,787.3259887695312,788.1318969726562,786.923095703125
833,785.7142944335938,784.5054931640625,792.967041015625,785.7142944335938
834,790.5494384765625,785.3113403320312,792.1611938476562,790.952392578125
835,787.7289428710938,792.1611938476562,788.1318969726562,793.3699340820312
836,789.7435913085938,792.967041015625,784.5054931640625,782.4908447265625
837,797.3992919921875,793.3699340820312,789.7435913085938,780.4761962890625
838,790.1465454101562,792.5640869140625,792.1611938476562,787.7289428710938
839,784.908447265625,790.1465454101562,789.3406372070312,793.3699340820312
840,787.7289428710938,791.7582397460938,787.3259887695312,792.5640869140625
841,781.2820434570312,792.5640869140625,786.923095703125,793.3699340820312
842,774.029296875,785.3113403320312,782.4908447265625,793.3699340820312
843,782.087890625,790.5494384765625,788.1318969726562,792.1611938476562
844,789.3406372070312,801.8314819335938,790.952392578125,789.3406372070312
845,789.7435913085938,801.025634765625,786.5201416015625,787.3259887695312
846,789.7435913085938,798.6080322265625,793.7728881835938,783.6996459960938
847,789.7435913085938,801.025634765625,788.937744140625,779.6703491210938
848,791.7582397460938,803.040283203125,781.2820434570312,778.4615478515625
849,796.5933837890625,801.8314819335938,788.5347900390625,779.6703491210938
850,795.7875366210938,800.2197875976562,793.3699340820312,780.4761962890625
851,793.7728881835938,797.8021850585938,794.981689453125,782.087890625
852,794.1758422851562,794.5787353515625,791.7582397460938,784.908447265625
853,793.7728881835938,795.7875366210938,786.923095703125,780.4761962890625
854,796.5933837890625,792.967041015625,788.1318969726562,774.4322509765625
855,791.7582397460938,791.7582397460938,788.937744140625,778.8644409179688
856,782.087890625,794.5787353515625,788.937744140625,783.6996459960938
857,778.05859375,791.3552856445312,793.3699340820312,786.923095703125
858,780.879150390625,791.7582397460938,800.2197875976562,793.7728881835938
859,787.3259887695312,793.7728881835938,796.996337890625,794.1758422851562
860,788.937744140625,794.5787353515625,793.3699340820312,793.7728881835938
861,786.923095703125,792.967041015625,792.967041015625,792.5640869140625
862,786.1171875,788.937744140625,789.3406372070312,785.7142944335938
863,795.3846435546875,784.908447265625,792.1611938476562,787.3259887695312
864,798.2051391601562,786.5201416015625,792.967041015625,794.1758422851562
865,795.7875366210938,794.981689453125,793.3699340820312,797.3992919921875
866,795.3846435546875,796.1904907226562,795.3846435546875,801.025634765625
867,790.1465454101562,796.996337890625,792.967041015625,799.4139404296875
868,790.5494384765625,792.5640869140625,795.3846435546875,796.996337890625
869,799.010986328125,786.923095703125,799.8168334960938,797.3992919921875
870,792.5640869140625,786.923095703125,799.8168334960938,797.3992919921875
871,786.5201416015625,788.5347900390625,797.8021850585938,792.1611938476562
872,791.3552856445312,786.923095703125,799.4139404296875,788.937744140625
873,796.1904907226562,782.4908447265625,798.6080322265625,787.7289428710938
874,798.2051391601562,785.7142944335938,794.5787353515625,790.952392578125
875,796.996337890625,784.1025390625,794.1758422851562,797.8021850585938
876,801.025634765625,776.0439453125,793.3699340820312,795.3846435546875
877,800.2197875976562,778.05859375,792.1611938476562,790.1465454101562
878,792.5640869140625,780.879150390625,797.3992919921875,785.3113403320312
879,792.5640869140625,778.05859375,792.967041015625,782.087890625
880,799.8168334960938,781.2820434570312,788.1318969726562,783.2966918945312
881,798.6080322265625,785.3113403320312,793.3699340820312,791.7582397460938
882,792.5640869140625,788.937744140625,788.5347900390625,784.5054931640625
883,784.908447265625,787.7289428710938,787.7289428710938,768.7911987304688
884,778.8644409179688,789.3406372070312,792.967041015625,775.2380981445312
885,776.4468994140625,791.3552856445312,795.3846435546875,782.4908447265625
886,772.0146484375,790.1465454101562,790.1465454101562,778.8644409179688
887,775.2380981445312,789.7435913085938,787.7289428710938,779.6703491210938
888,783.2966918945312,790.1465454101562,789.7435913085938,781.2820434570312
889,789.7435913085938,789.7435913085938,790.1465454101562,783.2966918945312
890,792.1611938476562,788.937744140625,790.1465454101562,787.7289428710938
891,792.967041015625,788.1318969726562,788.1318969726562,785.7142944335938
892,788.1318969726562,787.3259887695312,785.7142944335938,777.6557006835938
893,782.4908447265625,780.879150390625,788.937744140625,776.0439453125
894,785.7142944335938,784.908447265625,792.1611938476562,781.2820434570312
895,786.923095703125,790.952392578125,792.967041015625,790.1465454101562
896,786.5201416015625,788.937744140625,794.5787353515625,795.3846435546875
897,790.952392578125,786.1171875,794.981689453125,794.5787353515625
898,793.7728881835938,784.5054931640625,797.3992919921875,796.1904907226562
899,794.981689453125,786.1171875,801.4285888671875,808.6813354492188
900,801.025634765625,788.5347900390625,805.054931640625,818.3516235351562
901,803.4432373046875,788.937744140625,803.8461303710938,816.3369750976562
902,805.054931640625,782.893798828125,801.4285888671875,813.5164794921875
903,808.6813354492188,783.2966918945312,802.2344360351562,811.90478515625
904,799.010986328125,788.937744140625,805.8607788085938,811.90478515625
905,796.5933837890625,784.908447265625,804.2490844726562,809.084228515625
906,793.3699340820312,783.6996459960938,799.8168334960938,799.010986328125
907,794.1758422851562,788.5347900390625,800.6226806640625,794.5787353515625
908,800.2197875976562,788.1318969726562,802.6373901367188,793.7728881835938
909,792.967041015625,785.3113403320312,801.4285888671875,780.0732421875
910,787.3259887695312,791.7582397460938,796.996337890625,770.8058471679688
911,784.1025390625,796.1904907226562,787.3259887695312,768.7911987304688
912,792.1611938476562,797.8021850585938,785.3113403320312,768.7911987304688
913,796.996337890625,803.040283203125,794.1758422851562,772.0146484375
914,792.1611938476562,804.2490844726562,797.8021850585938,778.4615478515625
915,794.981689453125,806.2637329101562,788.937744140625,782.087890625
916,794.1758422851562,804.2490844726562,784.1025390625,772.4176025390625
917,784.5054931640625,798.6080322265625,782.893798828125,768.3883056640625
918,775.2380981445312,799.4139404296875,782.087890625,772.0146484375
919,772.8204956054688,799.8168334960938,777.6557006835938,774.8351440429688
920,781.6849975585938,799.4139404296875,776.4468994140625,777.6557006835938
921,784.908447265625,799.8168334960938,784.908447265625,778.8644409179688
922,780.879150390625,797.8021850585938,784.1025390625,774.8351440429688
923,781.2820434570312,794.1758422851562,783.6996459960938,774.029296875
924,780.4761962890625,792.1611938476562,786.1171875,773.6264038085938
925,785.3113403320312,790.5494384765625,789.3406372070312,779.2673950195312
926,786.923095703125,788.1318969726562,791.3552856445312,788.937744140625
927,789.3406372070312,788.1318969726562,785.3113403320312,794.5787353515625
928,789.7435913085938,795.3846435546875,783.2966918945312,792.5640869140625
929,784.5054931640625,799.010986328125,785.3113403320312,781.6849975585938
930,785.3113403320312,794.981689453125,788.937744140625,786.1171875
931,785.7142944335938,794.5787353515625,793.7728881835938,797.3992919921875
932,788.1318969726562,791.7582397460938,798.2051391601562,787.3259887695312
933,785.3113403320312,792.967041015625,795.7875366210938,785.3113403320312
934,779.6703491210938,796.996337890625,794.1758422851562,792.5640869140625
935,784.1025390625,789.7435913085938,794.981689453125,790.1465454101562
936,789.3406372070312,782.893798828125,792.967041015625,790.5494384765625
937,789.3406372070312,786.5201416015625,793.3699340820312,790.952392578125
938,790.5494384765625,784.908447265625,793.3699340820312,791.7582397460938
939,788.5347900390625,782.087890625,795.3846435546875,792.967041015625
940,790.1465454101562,784.1025390625,796.5933837890625,794.1758422851562
941,799.4139404296875,788.937744140625,792.1611938476562,795.7875366210938
942,807.4725341796875,789.3406372070312,790.952392578125,801.025634765625
943,805.054931640625,791.3552856445312,793.7728881835938,799.4139404296875
944,790.5494384765625,794.1758422851562,796.5933837890625,789.3406372070312
945,785.3113403320312,787.3259887695312,788.1318969726562,786.1171875
946,785.3113403320312,791.3552856445312,782.4908447265625,790.5494384765625
947,791.3552856445312,805.054931640625,786.923095703125,792.5640869140625
948,793.7728881835938,810.6959838867188,788.1318969726562,786.1171875
949,784.908447265625,802.6373901367188,785.7142944335938,781.6849975585938
950,786.923095703125,801.025634765625,782.893798828125,782.4908447265625
951,786.923095703125,798.2051391601562,788.1318969726562,781.6849975585938
952,787.7289428710938,793.7728881835938,790.952392578125,784.1025390625
953,797.8021850585938,797.8021850585938,787.7289428710938,785.7142944335938
954,796.996337890625,798.6080322265625,789.3406372070312,781.2820434570312
955,796.996337890625,796.5933837890625,791.7582397460938,784.1025390625
956,793.3699340820312,792.967041015625,787.7289428710938,784.5054931640625
957,792.5640869140625,788.5347900390625,783.2966918945312,791.7582397460938
958,790.952392578125,788.937744140625,781.2820434570312,796.5933837890625
959,785.3113403320312,790.5494384765625,785.7142944335938,788.937744140625
960,788.5347900390625,790.5494384765625,784.908447265625,792.967041015625
961,796.5933837890625,787.7289428710938,788.1318969726562,800.2197875976562
962,809.084228515625,790.1465454101562,801.025634765625,808.2783813476562
963,807.87548828125,789.7435913085938,800.6226806640625,809.4871826171875
964,799.8168334960938,780.879150390625,795.3846435546875,810.2930297851562
965,797.3992919921875,782.087890625,795.3846435546875,806.2637329101562
966,799.4139404296875,786.1171875,799.4139404296875,805.8607788085938
967,803.4432373046875,786.923095703125,803.040283203125,804.6520385742188
968,803.8461303710938,786.5201416015625,801.4285888671875,798.2051391601562
969,805.054931640625,791.3552856445312,799.8168334960938,807.069580078125
970,796.996337890625,791.7582397460938,802.6373901367188,805.054931640625
971,795.3846435546875,788.937744140625,806.6666870117188,800.2197875976562
972,807.069580078125,789.3406372070312,805.8607788085938,803.040283203125
973,811.098876953125,791.3552856445312,801.025634765625,799.010986328125
974,809.89013671875,795.3846435546875,796.996337890625,793.7728881835938
975,804.2490844726562,796.996337890625,797.8021850585938,792.967041015625
976,799.010986328125,798.2051391601562,795.7875366210938,791.3552856445312
977,803.040283203125,794.1758422851562,794.5787353515625,787.7289428710938
978,799.4139404296875,795.3846435546875,794.981689453125,783.2966918945312
979,790.1465454101562,801.4285888671875,794.5787353515625,779.2673950195312
980,792.5640869140625,797.8021850585938,798.2051391601562,782.893798828125
981,789.7435913085938,796.996337890625,794.981689453125,778.4615478515625
982,786.1171875,796.996337890625,791.7582397460938,772.4176025390625
983,785.3113403320312,795.7875366210938,787.7289428710938,773.2234497070312
984,782.4908447265625,799.010986328125,782.893798828125,774.8351440429688
985,782.087890625,797.8021850585938,786.5201416015625,774.4322509765625
986,779.6703491210938,796.996337890625,788.5347900390625,769.5970458984375
987,775.2380981445312,795.7875366210938,786.5201416015625,767.5823974609375
988,778.05859375,790.5494384765625,787.7289428710938,771.2088012695312
989,783.6996459960938,788.937744140625,792.1611938476562,777.6557006835938
990,777.2527465820312,783.2966918945312,793.7728881835938,774.4322509765625
991,785.3113403320312,790.1465454101562,793.3699340820312,776.0439453125
992,796.5933837890625,805.8607788085938,792.967041015625,790.1465454101562
993,790.5494384765625,802.6373901367188,790.952392578125,790.5494384765625
994,790.5494384765625,799.4139404296875,788.5347900390625,789.7435913085938
995,798.6080322265625,800.6226806640625,790.5494384765625,798.2051391601562
996,804.6520385742188,797.8021850585938,790.1465454101562,801.8314819335938
997,798.2051391601562,795.7875366210938,786.923095703125,799.8168334960938
998,794.5787353515625,789.3406372070312,784.908447265625,799.010986328125
999,799.4139404296875,786.5201416015625,782.087890625,801.4285888671875
1000,803.4432373046875,788.1318969726562,782.893798828125,796.996337890625
1001,810.2930297851562,793.3699340820312,786.923095703125,801.025634765625
1002,812.3076782226562,797.8021850585938,791.7582397460938,803.040283203125
1003,810.6959838867188,792.1611938476562,794.5787353515625,802.2344360351562
1004,809.4871826171875,789.7435913085938,791.3552856445312,802.2344360351562
1005,804.6520385742188,794.1758422851562,787.7289428710938,792.1611938476562
1006,796.5933837890625,791.3552856445312,789.3406372070312,785.7142944335938
1007,786.923095703125,787.3259887695312,787.7289428710938,781.2820434570312
1008,786.1171875,784.5054931640625,786.1171875,780.879150390625
1009,785.7142944335938,784.5054931640625,784.908447265625,776.4468994140625
1010,783.2966918945312,788.5347900390625,788.1318969726562,775.6410522460938
1011,782.4908447265625,789.3406372070312,791.3552856445312,774.4322509765625
1012,780.879150390625,792.967041015625,784.908447265625,771.6116943359375
1013,780.4761962890625,795.7875366210938,785.7142944335938,771.2088012695312
1014,781.6849975585938,793.7728881835938,788.937744140625,777.2527465820312
1015,778.4615478515625,794.981689453125,784.5054931640625,776.4468994140625
1016,780.4761962890625,796.5933837890625,782.087890625,773.2234497070312
1017,785.3113403320312,798.6080322265625,780.0732421875,778.8644409179688
1018,778.05859375,796.996337890625,778.8644409179688,781.2820434570312
1019,777.2527465820312,791.7582397460938,782.893798828125,780.4761962890625
1020,772.0146484375,787.3259887695312,784.908447265625,777.6557006835938
1021,772.4176025390625,787.7289428710938,786.923095703125,773.2234497070312
1022,786.923095703125,789.7435913085938,789.7435913085938,780.0732421875
1023,788.1318969726562,792.5640869140625,788.1318969726562,795.3846435546875
1024,783.2966918945312,800.6226806640625,786.1171875,796.1904907226562
1025,782.087890625,800.2197875976562,790.1465454101562,794.981689453125
1026,783.6996459960938,791.7582397460938,790.952392578125,797.8021850585938
1027,784.1025390625,790.952392578125,791.7582397460938,802.6373901367188
1028,786.1171875,794.981689453125,794.5787353515625,800.6226806640625
1029,796.1904907226562,799.010986328125,795.3846435546875,801.8314819335938
1030,796.5933837890625,799.8168334960938,800.6226806640625,802.6373901367188
1031,788.5347900390625,791.7582397460938,803.040283203125,799.4139404296875
1032,792.5640869140625,787.3259887695312,801.4285888671875,798.2051391601562
1033,803.4432373046875,789.3406372070312,801.4285888671875,805.054931640625
1034,809.084228515625,789.3406372070312,801.8314819335938,810.2930297851562
1035,805.4578857421875,792.5640869140625,801.025634765625,802.2344360351562
1036,803.8461303710938,794.5787353515625,794.5787353515625,798.2051391601562
1037,804.6520385742188,794.981689453125,790.952392578125,799.8168334960938
1038,797.3992919921875,788.937744140625,794.981689453125,797.8021850585938
1039,793.3699340820312,783.6996459960938,800.6226806640625,796.996337890625
1040,788.5347900390625,789.7435913085938,798.6080322265625,796.1904907226562
1041,785.7142944335938,790.1465454101562,796.1904907226562,790.5494384765625
1042,788.1318969726562,790.952392578125,796.996337890625,787.3259887695312
1043,782.4908447265625,794.5787353515625,796.996337890625,784.1025390625
1044,784.1025390625,790.1465454101562,795.3846435546875,780.0732421875
1045,789.7435913085938,790.1465454101562,790.5494384765625,778.05859375
1046,783.2966918945312,792.5640869140625,790.1465454101562,777.2527465820312
1047,775.6410522460938,789.3406372070312,792.5640869140625,778.4615478515625
1048,778.4615478515625,790.952392578125,794.1758422851562,779.2673950195312
1049,787.3259887695312,791.7582397460938,795.3846435546875,782.087890625
1050,790.952392578125,794.5787353515625,796.996337890625,780.879150390625
1051,787.3259887695312,799.4139404296875,796.5933837890625,778.4615478515625
1052,786.923095703125,797.3992919921875,794.981689453125,778.4615478515625
1053,789.3406372070312,793.3699340820312,794.981689453125,784.1025390625
1054,787.7289428710938,789.7435913085938,794.5787353515625,787.3259887695312
1055,786.923095703125,794.5787353515625,793.7728881835938,784.1025390625
1056,792.1611938476562,797.3992919921875,794.1758422851562,784.1025390625
1057,795.3846435546875,796.1904907226562,797.8021850585938,788.1318969726562
1058,794.981689453125,797.3992919921875,795.7875366210938,792.5640869140625
1059,799.8168334960938,794.1758422851562,786.923095703125,787.7289428710938
1060,808.6813354492188,789.7435913085938,786.923095703125,790.1465454101562
1061,805.4578857421875,791.7582397460938,788.937744140625,794.981689453125
1062,798.2051391601562,791.3552856445312,787.7289428710938,793.7728881835938
1063,797.3992919921875,791.7582397460938,789.3406372070312,796.5933837890625
1064,799.4139404296875,792.5640869140625,786.5201416015625,801.025634765625
1065,801.4285888671875,790.952392578125,786.1171875,805.4578857421875
1066,796.1904907226562,790.1465454101562,785.3113403320312,801.4285888671875
1067,788.937744140625,789.3406372070312,786.5201416015625,797.8021850585938
1068,786.923095703125,787.3259887695312,789.7435913085938,795.7875366210938
1069,789.7435913085938,786.1171875,786.1171875,793.7728881835938
1070,787.3259887695312,786.5201416015625,784.5054931640625,795.7875366210938
1071,786.1171875,786.5201416015625,785.3113403320312,790.1465454101562
1072,784.908447265625,785.3113403320312,783.2966918945312,787.3259887695312
1073,788.937744140625,786.5201416015625,782.4908447265625,788.5347900390625
1074,794.5787353515625,784.1025390625,781.2820434570312,784.5054931640625
1075,795.3846435546875,784.1025390625,784.908447265625,784.908447265625
1076,796.1904907226562,784.5054931640625,788.5347900390625,793.3699340820312
1077,790.5494384765625,788.1318969726562,783.6996459960938,792.5640869140625
1078,792.5640869140625,794.5787353515625,786.5201416015625,783.2966918945312
1079,793.7728881835938,793.3699340820312,788.937744140625,781.6849975585938
1080,793.3699340820312,792.967041015625,788.1318969726562,786.5201416015625
1081,789.7435913085938,790.952392578125,787.7289428710938,785.7142944335938
1082,783.2966918945312,792.967041015625,784.908447265625,780.4761962890625
1083,786.1171875,796.5933837890625,788.937744140625,784.5054931640625
1084,792.1611938476562,795.7875366210938,788.1318969726562,789.7435913085938
1085,793.7728881835938,793.7728881835938,786.1171875,788.5347900390625
1086,790.1465454101562,794.981689453125,790.1465454101562,785.3113403320312
1087,788.5347900390625,790.5494384765625,795.7875366210938,786.1171875
1088,789.3406372070312,793.7728881835938,793.3699340820312,788.5347900390625
1089,786.923095703125,799.4139404296875,790.1465454101562,788.5347900390625
1090,796.1904907226562,797.3992919921875,795.7875366210938,788.1318969726562
1091,796.996337890625,795.3846435546875,794.5787353515625,789.7435913085938
1092,792.1611938476562,794.1758422851562,794.981689453125,791.3552856445312
1093,788.5347900390625,790.1465454101562,794.5787353515625,791.3552856445312
1094,790.5494384765625,790.5494384765625,795.3846435546875,801.025634765625
1095,797.8021850585938,790.952392578125,797.8021850585938,805.4578857421875
1096,787.3259887695312,788.1318969726562,795.7875366210938,799.010986328125
1097,786.5201416015625,784.5054931640625,801.025634765625,800.2197875976562
1098,789.3406372070312,784.5054931640625,804.2490844726562,799.4139404296875
1099,788.1318969726562,788.937744140625,803.8461303710938,801.025634765625
1100,791.3552856445312,788.5347900390625,801.4285888671875,803.8461303710938
1101,784.5054931640625,787.3259887695312,796.5933837890625,792.5640869140625
1102,780.4761962890625,783.6996459960938,796.5933837890625,789.7435913085938
1103,778.05859375,780.879150390625,791.3552856445312,787.7289428710938
1104,783.2966918945312,783.6996459960938,784.908447265625,784.5054931640625
1105,785.7142944335938,782.4908447265625,786.923095703125,791.7582397460938
1106,781.2820434570312,779.2673950195312,789.7435913085938,788.5347900390625
1107,783.6996459960938,781.2820434570312,792.5640869140625,787.3259887695312
1108,788.1318969726562,782.893798828125,791.3552856445312,790.5494384765625
1109,794.1758422851562,782.4908447265625,786.5201416015625,788.1318969726562
1110,800.2197875976562,785.7142944335938,790.1465454101562,786.5201416015625
1111,801.025634765625,784.908447265625,792.1611938476562,792.5640869140625
1112,796.996337890625,782.087890625,792.1611938476562,796.1904907226562
1113,794.1758422851562,787.7289428710938,788.1318969726562,787.3259887695312
1114,792.967041015625,790.5494384765625,786.923095703125,786.923095703125
1115,793.7728881835938,787.7289428710938,788.5347900390625,788.937744140625
1116,793.3699340820312,787.7289428710938,788.937744140625,790.1465454101562
1117,788.5347900390625,791.3552856445312,790.5494384765625,791.3552856445312
1118,783.6996459960938,790.5494384765625,789.3406372070312,787.3259887695312
1119,782.4908447265625,784.1025390625,789.3406372070312,780.0732421875
1120,790.1465454101562,782.893798828125,789.3406372070312,786.5201416015625
1121,793.3699340820312,784.908447265625,786.5201416015625,791.3552856445312
1122,786.5201416015625,783.6996459960938,788.5347900390625,789.7435913085938
1123,781.6849975585938,788.5347900390625,788.5347900390625,791.3552856445312
1124,776.8497924804688,790.5494384765625,789.7435913085938,787.7289428710938
1125,784.1025390625,786.5201416015625,790.952392578125,790.952392578125
1126,793.3699340820312,782.087890625,788.5347900390625,796.996337890625
1127,780.4761962890625,784.908447265625,786.5201416015625,782.893798828125
1128,777.2527465820312,794.981689453125,786.5201416015625,776.4468994140625
1129,786.5201416015625,794.1758422851562,789.3406372070312,786.5201416015625
1130,784.1025390625,790.952392578125,790.952392578125,786.923095703125
1131,775.6410522460938,785.7142944335938,788.937744140625,784.908447265625
1132,774.4322509765625,787.7289428710938,786.1171875,779.2673950195312
1133,780.0732421875,792.1611938476562,786.5201416015625,780.879150390625
1134,789.3406372070312,793.3699340820312,793.3699340820312,793.3699340820312
1135,794.5787353515625,791.3552856445312,801.4285888671875,794.1758422851562
1136,801.4285888671875,788.1318969726562,799.4139404296875,792.967041015625
1137,801.4285888671875,786.5201416015625,793.7728881835938,790.5494384765625
1138,797.8021850585938,788.5347900390625,792.967041015625,788.5347900390625
1139,797.3992919921875,794.1758422851562,792.967041015625,792.5640869140625
1140,795.3846435546875,794.5787353515625,788.5347900390625,792.5640869140625
1141,799.8168334960938,794.981689453125,788.1318969726562,795.3846435546875
1142,798.6080322265625,797.8021850585938,790.1465454101562,801.025634765625
1143,792.5640869140625,794.981689453125,789.3406372070312,801.8314819335938
1144,794.5787353515625,794.981689453125,789.7435913085938,796.5933837890625
1145,792.1611938476562,797.3992919921875,792.1611938476562,792.1611938476562
1146,790.1465454101562,793.7728881835938,786.923095703125,794.981689453125
1147,785.7142944335938,795.3846435546875,782.4908447265625,793.3699340820312
1148,780.879150390625,792.5640869140625,780.879150390625,792.5640869140625
1149,778.8644409179688,789.3406372070312,782.087890625,796.996337890625
1150,778.05859375,792.967041015625,783.2966918945312,792.5640869140625
1151,784.5054931640625,788.5347900390625,779.2673950195312,783.2966918945312
1152,788.937744140625,790.1465454101562,782.893798828125,790.5494384765625
1153,788.1318969726562,792.967041015625,784.5054931640625,792.5640869140625
1154,788.937744140625,790.952392578125,783.2966918945312,782.893798828125
1155,798.2051391601562,792.1611938476562,784.5054931640625,790.1465454101562
1156,803.8461303710938,790.1465454101562,785.7142944335938,795.3846435546875
1157,803.040283203125,791.7582397460938,788.1318969726562,796.5933837890625
1158,801.8314819335938,790.5494384765625,791.7582397460938,799.010986328125
1159,795.7875366210938,788.1318969726562,792.5640869140625,794.5787353515625
1160,801.8314819335938,793.7728881835938,791.7582397460938,793.7728881835938
1161,798.6080322265625,795.7875366210938,794.5787353515625,795.7875366210938
1162,789.3406372070312,795.3846435546875,795.7875366210938,794.1758422851562
1163,793.3699340820312,794.1758422851562,796.996337890625,791.3552856445312
1164,796.1904907226562,795.3846435546875,794.5787353515625,787.7289428710938
1165,794.1758422851562,797.3992919921875,792.1611938476562,784.1025390625
1166,790.5494384765625,796.1904907226562,792.1611938476562,784.908447265625
1167,789.3406372070312,796.1904907226562,793.7728881835938,784.908447265625
1168,786.1171875,793.7728881835938,791.7582397460938,782.893798828125
1169,782.4908447265625,790.5494384765625,792.5640869140625,780.4761962890625
1170,790.5494384765625,794.1758422851562,802.2344360351562,781.6849975585938
1171,797.3992919921875,794.1758422851562,803.8461303710938,784.908447265625
1172,797.3992919921875,789.7435913085938,799.4139404296875,789.7435913085938
1173,796.996337890625,785.7142944335938,795.3846435546875,789.3406372070312
1174,794.5787353515625,786.1171875,792.967041015625,781.2820434570312
1175,793.3699340820312,794.1758422851562,793.7728881835938,786.923095703125
1176,788.5347900390625,789.3406372070312,794.5787353515625,789.7435913085938
1177,788.937744140625,784.5054931640625,793.3699340820312,790.952392578125
1178,792.967041015625,790.5494384765625,795.7875366210938,795.7875366210938
1179,794.1758422851562,790.5494384765625,796.996337890625,791.7582397460938
1180,796.1904907226562,794.1758422851562,795.3846435546875,788.5347900390625
1181,797.8021850585938,793.7728881835938,792.967041015625,788.5347900390625
1182,799.010986328125,788.937744140625,790.1465454101562,790.1465454101562
1183,795.7875366210938,786.923095703125,792.1611938476562,789.7435913085938
1184,791.7582397460938,787.7289428710938,793.3699340820312,799.010986328125
1185,790.5494384765625,789.3406372070312,793.7728881835938,797.3992919921875
1186,784.908447265625,782.893798828125,792.5640869140625,784.5054931640625
1187,780.4761962890625,782.087890625,784.1025390625,784.1025390625
1188,788.937744140625,786.1171875,785.7142944335938,784.5054931640625
1189,792.1611938476562,786.1171875,785.7142944335938,782.4908447265625
1190,786.923095703125,782.4908447265625,782.087890625,784.1025390625
1191,788.1318969726562,781.2820434570312,783.6996459960938,786.923095703125
1192,787.7289428710938,788.1318969726562,785.7142944335938,786.5201416015625
1193,784.908447265625,790.952392578125,787.3259887695312,788.937744140625
1194,792.1611938476562,789.3406372070312,785.7142944335938,792.5640869140625
1195,797.8021850585938,782.4908447265625,785.3113403320312,785.7142944335938
1196,791.7582397460938,784.5054931640625,788.937744140625,782.087890625
1197,790.5494384765625,794.5787353515625,793.7728881835938,789.3406372070312
1198,789.3406372070312,796.5933837890625,794.5787353515625,788.937744140625
1199,780.879150390625,796.5933837890625,792.5640869140625,783.6996459960938
1200,782.4908447265625,800.2197875976562,792.967041015625,785.7142944335938
1201,792.1611938476562,803.8461303710938,798.2051391601562,792.1611938476562
1202,791.7582397460938,794.1758422851562,794.1758422851562,789.7435913085938
1203,797.8021850585938,784.5054931640625,784.1025390625,794.981689453125
1204,799.8168334960938,789.7435913085938,781.2820434570312,796.996337890625
1205,787.7289428710938,794.5787353515625,782.087890625,788.5347900390625
1206,788.5347900390625,791.7582397460938,783.2966918945312,786.1171875
1207,795.3846435546875,794.5787353515625,785.7142944335938,790.1465454101562
1208,797.3992919921875,792.5640869140625,790.1465454101562,792.967041015625
1209,800.2197875976562,792.1611938476562,790.1465454101562,789.7435913085938
1210,795.3846435546875,796.1904907226562,786.1171875,784.908447265625
1211,775.6410522460938,793.3699340820312,784.908447265625,780.0732421875
1212,773.6264038085938,793.3699340820312,788.5347900390625,787.3259887695312
1213,785.3113403320312,792.5640869140625,790.952392578125,789.3406372070312
1214,785.3113403320312,792.1611938476562,787.7289428710938,786.1171875
1215,787.3259887695312,792.1611938476562,789.7435913085938,790.952392578125
1216,786.5201416015625,787.3259887695312,793.3699340820312,787.3259887695312
1217,786.923095703125,786.1171875,795.3846435546875,787.7289428710938
1218,788.5347900390625,786.5201416015625,793.3699340820312,791.3552856445312
1219,786.1171875,784.908447265625,790.1465454101562,789.3406372070312
1220,783.2966918945312,785.7142944335938,788.1318969726562,784.1025390625
1221,782.087890625,790.5494384765625,782.4908447265625,782.087890625
1222,792.1611938476562,786.1171875,784.908447265625,790.952392578125
1223,794.5787353515625,786.1171875,784.908447265625,793.7728881835938
1224,790.5494384765625,783.2966918945312,781.6849975585938,792.967041015625
1225,787.7289428710938,778.05859375,783.2966918945312,793.3699340820312
1226,773.6264038085938,785.3113403320312,780.879150390625,788.937744140625
1227,772.8204956054688,788.937744140625,782.4908447265625,787.3259887695312
1228,787.7289428710938,788.937744140625,787.3259887695312,786.5201416015625
1229,793.3699340820312,788.1318969726562,789.7435913085938,783.6996459960938
1230,793.3699340820312,791.3552856445312,791.3552856445312,786.1171875
1231,795.7875366210938,794.5787353515625,790.1465454101562,783.2966918945312
1232,801.025634765625,790.5494384765625,788.5347900390625,774.8351440429688
1233,794.5787353515625,787.7289428710938,788.937744140625,776.8497924804688
1234,786.5201416015625,791.7582397460938,788.937744140625,782.893798828125
1235,779.2673950195312,793.3699340820312,788.1318969726562,778.4615478515625
1236,774.4322509765625,794.1758422851562,785.3113403320312,772.4176025390625
1237,779.2673950195312,799.4139404296875,784.1025390625,780.879150390625
1238,781.2820434570312,799.8168334960938,790.5494384765625,786.5201416015625
1239,793.7728881835938,796.1904907226562,796.996337890625,786.923095703125
1240,799.010986328125,797.8021850585938,795.3846435546875,784.908447265625
1241,790.952392578125,790.1465454101562,793.7728881835938,785.3113403320312
1242,790.5494384765625,789.3406372070312,792.5640869140625,792.967041015625
1243,794.1758422851562,797.8021850585938,794.1758422851562,786.923095703125
1244,796.996337890625,796.1904907226562,799.010986328125,788.1318969726562
1245,798.2051391601562,792.5640869140625,797.8021850585938,790.952392578125
1246,794.981689453125,793.7728881835938,798.6080322265625,787.7289428710938
1247,787.7289428710938,798.2051391601562,801.025634765625,793.3699340820312
1248,788.1318969726562,799.010986328125,798.6080322265625,797.3992919921875
1249,794.1758422851562,793.3699340820312,799.010986328125,795.7875366210938
1250,797.8021850585938,788.937744140625,797.8021850585938,787.7289428710938
1251,795.7875366210938,791.3552856445312,794.5787353515625,782.893798828125
1252,791.3552856445312,790.5494384765625,788.1318969726562,785.3113403320312
1253,794.1758422851562,788.5347900390625,787.3259887695312,786.1171875
1254,795.3846435546875,786.5201416015625,790.5494384765625,787.3259887695312
1255,791.7582397460938,788.937744140625,790.5494384765625,785.3113403320312
1256,785.3113403320312,793.3699340820312,786.5201416015625,781.2820434570312
1257,782.893798828125,788.5347900390625,788.1318969726562,789.7435913085938
1258,783.2966918945312,789.3406372070312,791.7582397460938,795.7875366210938
1259,784.908447265625,793.7728881835938,790.952392578125,792.967041015625
1260,778.4615478515625,787.7289428710938,787.7289428710938,783.2966918945312
1261,777.6557006835938,784.5054931640625,784.908447265625,777.2527465820312
1262,782.087890625,790.1465454101562,786.1171875,778.4615478515625
1263,782.087890625,790.5494384765625,783.6996459960938,773.2234497070312
1264,781.6849975585938,778.4615478515625,784.1025390625,776.0439453125
1265,781.6849975585938,778.4615478515625,792.967041015625,788.1318969726562
1266,782.087890625,785.7142944335938,795.7875366210938,791.7582397460938
1267,778.8644409179688,785.7142944335938,794.1758422851562,789.3406372070312
1268,778.05859375,790.1465454101562,790.952392578125,790.952392578125
1269,784.908447265625,790.952392578125,791.3552856445312,798.2051391601562
1270,790.5494384765625,791.7582397460938,795.3846435546875,795.7875366210938
1271,784.5054931640625,795.7875366210938,794.1758422851562,784.908447265625
1272,776.8497924804688,790.1465454101562,790.952392578125,775.6410522460938
1273,777.6557006835938,787.3259887695312,791.3552856445312,784.5054931640625
1274,779.2673950195312,792.1611938476562,790.5494384765625,788.5347900390625
1275,784.908447265625,789.7435913085938,789.3406372070312,782.893798828125
1276,785.7142944335938,787.3259887695312,788.1318969726562,779.6703491210938
1277,778.8644409179688,785.7142944335938,786.1171875,779.6703491210938
1278,778.8644409179688,786.5201416015625,785.7142944335938,785.7142944335938
1279,784.908447265625,790.952392578125,785.7142944335938,787.7289428710938
1280,789.7435913085938,791.3552856445312,787.3259887695312,796.5933837890625
1281,791.3552856445312,792.967041015625,788.937744140625,797.8021850585938
1282,788.5347900390625,794.1758422851562,787.3259887695312,788.1318969726562
1283,790.952392578125,793.7728881835938,790.1465454101562,789.7435913085938
1284,796.1904907226562,788.1318969726562,794.981689453125,794.1758422851562
1285,802.6373901367188,782.4908447265625,794.1758422851562,792.967041015625
1286,801.025634765625,783.6996459960938,792.5640869140625,792.5640869140625
1287,793.7728881835938,788.1318969726562,789.3406372070312,787.7289428710938
1288,783.6996459960938,789.7435913085938,790.1465454101562,788.937744140625
1289,784.1025390625,784.908447265625,796.5933837890625,792.5640869140625
1290,789.7435913085938,788.1318969726562,790.952392578125,792.967041015625
1291,785.7142944335938,791.7582397460938,784.5054931640625,793.3699340820312
1292,782.893798828125,788.1318969726562,788.5347900390625,792.1611938476562
1293,778.4615478515625,788.1318969726562,786.923095703125,784.5054931640625
1294,785.7142944335938,786.923095703125,786.923095703125,786.923095703125
1295,793.7728881835938,785.7142944335938,790.952392578125,790.5494384765625
1296,790.952392578125,788.5347900390625,794.5787353515625,797.3992919921875
1297,794.5787353515625,793.3699340820312,802.2344360351562,803.4432373046875
1298,791.7582397460938,789.7435913085938,798.2051391601562,795.7875366210938
1299,784.1025390625,786.5201416015625,788.937744140625,786.5201416015625
1300,790.5494384765625,790.952392578125,787.7289428710938,784.908447265625
1301,798.2051391601562,793.3699340820312,786.5201416015625,786.923095703125
1302,795.3846435546875,793.7728881835938,790.952392578125,783.2966918945312
1303,792.1611938476562,792.967041015625,795.3846435546875,789.3406372070312
1304,791.7582397460938,795.3846435546875,793.7728881835938,794.1758422851562
1305,796.1904907226562,792.967041015625,792.967041015625,789.3406372070312
1306,800.2197875976562,788.5347900390625,796.5933837890625,788.937744140625
1307,797.8021850585938,789.7435913085938,794.5787353515625,790.1465454101562
1308,792.967041015625,793.7728881835938,793.3699340820312,788.1318969726562
1309,792.5640869140625,797.3992919921875,797.3992919921875,784.908447265625
1310,788.5347900390625,799.010986328125,795.3846435546875,788.937744140625
1311,788.5347900390625,795.7875366210938,792.967041015625,795.3846435546875
1312,796.5933837890625,798.2051391601562,795.7875366210938,796.1904907226562
1313,790.952392578125,804.2490844726562,791.3552856445312,798.2051391601562
1314,797.3992919921875,797.8021850585938,789.7435913085938,798.6080322265625
1315,801.8314819335938,794.1758422851562,794.5787353515625,798.2051391601562
1316,788.937744140625,798.2051391601562,793.3699340820312,794.981689453125
1317,781.6849975585938,797.8021850585938,790.1465454101562,791.3552856445312
1318,782.893798828125,796.1904907226562,790.1465454101562,791.3552856445312
1319,782.893798828125,792.967041015625,785.3113403320312,787.3259887695312
1320,789.7435913085938,794.1758422851562,784.1025390625,783.2966918945312
1321,796.1904907226562,790.1465454101562,790.5494384765625,786.1171875
1322,793.7728881835938,790.5494384765625,787.3259887695312,786.923095703125
1323,805.054931640625,799.4139404296875,784.5054931640625,789.7435913085938
1324,804.6520385742188,800.6226806640625,784.5054931640625,792.5640869140625
1325,792.1611938476562,795.3846435546875,791.3552856445312,793.3699340820312
1326,788.937744140625,790.952392578125,799.010986328125,795.3846435546875
1327,787.3259887695312,793.7728881835938,793.3699340820312,794.5787353515625
1328,779.2673950195312,788.1318969726562,787.7289428710938,783.6996459960938
1329,773.6264038085938,786.1171875,784.908447265625,777.6557006835938
1330,780.879150390625,792.967041015625,787.3259887695312,779.6703491210938
1331,787.3259887695312,788.1318969726562,789.7435913085938,785.3113403320312
1332,785.3113403320312,782.893798828125,788.937744140625,788.937744140625
1333,785.3113403320312,788.1318969726562,785.7142944335938,785.3113403320312
1334,779.2673950195312,790.1465454101562,783.6996459960938,778.8644409179688
1335,783.2966918945312,791.3552856445312,783.6996459960938,783.2966918945312
1336,790.5494384765625,794.981689453125,780.4761962890625,785.7142944335938
1337,783.6996459960938,788.5347900390625,781.2820434570312,785.3113403320312
1338,782.4908447265625,786.1171875,786.923095703125,783.2966918945312
1339,782.893798828125,791.3552856445312,788.5347900390625,787.3259887695312
1340,780.879150390625,791.3552856445312,785.3113403320312,785.3113403320312
1341,782.4908447265625,794.5787353515625,782.087890625,786.5201416015625
1342,790.5494384765625,795.7875366210938,784.5054931640625,797.3992919921875
1343,788.1318969726562,792.1611938476562,786.1171875,789.7435913085938
1344,782.087890625,790.952392578125,787.3259887695312,787.3259887695312
1345,781.6849975585938,791.7582397460938,782.4908447265625,788.937744140625
1346,782.4908447265625,790.1465454101562,779.2673950195312,784.1025390625
1347,781.6849975585938,784.5054931640625,784.5054931640625,781.6849975585938
1348,780.879150390625,780.4761962890625,785.7142944335938,785.7142944335938
1349,776.0439453125,780.4761962890625,786.5201416015625,786.1171875
1350,777.2527465820312,786.1171875,786.5201416015625,787.3259887695312
1351,791.3552856445312,787.3259887695312,785.7142944335938,786.5201416015625
1352,804.2490844726562,786.1171875,782.4908447265625,786.5201416015625
1353,799.4139404296875,780.4761962890625,787.3259887695312,792.967041015625
1354,790.5494384765625,777.2527465820312,792.1611938476562,788.1318969726562
1355,790.5494384765625,786.5201416015625,787.3259887695312,785.3113403320312
1356,793.7728881835938,792.967041015625,788.1318969726562,783.6996459960938
1357,792.1611938476562,795.7875366210938,788.5347900390625,780.879150390625
1358,789.3406372070312,796.1904907226562,791.7582397460938,781.6849975585938
1359,794.1758422851562,797.8021850585938,796.1904907226562,784.1025390625
1360,801.4285888671875,797.8021850585938,792.1611938476562,782.893798828125
1361,800.2197875976562,793.3699340820312,788.937744140625,783.2966918945312
1362,799.010986328125,794.1758422851562,788.937744140625,788.1318969726562
1363,800.2197875976562,796.1904907226562,792.967041015625,792.967041015625
1364,796.1904907226562,793.3699340820312,796.5933837890625,803.4432373046875
1365,792.967041015625,790.5494384765625,797.3992919921875,803.040283203125
1366,796.5933837890625,796.5933837890625,793.7728881835938,794.981689453125
1367,798.6080322265625,796.5933837890625,793.7728881835938,793.7728881835938
1368,794.1758422851562,791.3552856445312,793.7728881835938,791.3552856445312
1369,794.1758422851562,791.3552856445312,792.5640869140625,793.3699340820312
1370,784.908447265625,787.7289428710938,790.5494384765625,790.952392578125
1371,779.2673950195312,790.5494384765625,788.1318969726562,786.1171875
1372,781.6849975585938,792.967041015625,790.5494384765625,786.1171875
1373,784.5054931640625,798.2051391601562,794.5787353515625,789.7435913085938
1374,782.4908447265625,800.6226806640625,796.1904907226562,786.5201416015625
1375,785.3113403320312,795.7875366210938,795.3846435546875,787.7289428710938
1376,788.937744140625,791.3552856445312,794.5787353515625,795.7875366210938
1377,786.5201416015625,793.7728881835938,792.1611938476562,790.952392578125
1378,794.5787353515625,797.3992919921875,790.952392578125,784.5054931640625
1379,792.5640869140625,794.5787353515625,788.1318969726562,779.2673950195312
1380,784.908447265625,790.952392578125,785.7142944335938,776.8497924804688
1381,792.5640869140625,784.908447265625,790.1465454101562,778.05859375
1382,789.3406372070312,787.3259887695312,793.3699340820312,778.05859375
1383,782.087890625,792.967041015625,792.1611938476562,784.5054931640625
1384,788.5347900390625,792.1611938476562,787.3259887695312,786.1171875
1385,790.5494384765625,789.7435913085938,786.1171875,780.879150390625
1386,789.7435913085938,786.5201416015625,788.1318969726562,779.2673950195312
1387,788.5347900390625,786.923095703125,790.5494384765625,788.1318969726562
1388,784.1025390625,790.952392578125,793.3699340820312,796.5933837890625
1389,781.6849975585938,793.7728881835938,795.7875366210938,786.923095703125
1390,777.2527465820312,792.5640869140625,795.3846435546875,778.4615478515625
1391,778.4615478515625,790.1465454101562,794.1758422851562,781.6849975585938
1392,782.087890625,787.7289428710938,791.3552856445312,781.6849975585938
1393,784.1025390625,788.1318969726562,792.5640869140625,774.8351440429688
1394,794.1758422851562,791.7582397460938,795.3846435546875,780.879150390625
1395,796.1904907226562,792.967041015625,798.2051391601562,789.7435913085938
1396,798.2051391601562,792.5640869140625,800.2197875976562,793.7728881835938
1397,805.4578857421875,790.5494384765625,795.7875366210938,790.5494384765625
1398,800.2197875976562,783.2966918945312,793.7728881835938,789.3406372070312
1399,794.1758422851562,785.7142944335938,794.1758422851562,794.5787353515625
1400,789.7435913085938,792.5640869140625,792.1611938476562,789.3406372070312
1401,789.7435913085938,788.5347900390625,791.3552856445312,787.7289428710938
1402,790.1465454101562,786.1171875,792.967041015625,799.8168334960938
1403,785.7142944335938,791.7582397460938,788.1318969726562,794.1758422851562
1404,787.3259887695312,802.2344360351562,788.5347900390625,788.5347900390625
1405,803.4432373046875,803.4432373046875,793.7728881835938,796.5933837890625
1406,806.2637329101562,800.2197875976562,792.967041015625,796.996337890625
1407,805.4578857421875,802.6373901367188,793.7728881835938,798.2051391601562
1408,804.2490844726562,801.4285888671875,792.967041015625,796.1904907226562
1409,794.5787353515625,794.5787353515625,791.3552856445312,792.5640869140625
1410,792.967041015625,789.7435913085938,792.5640869140625,796.5933837890625
1411,793.3699340820312,786.923095703125,792.5640869140625,790.952392578125
1412,797.3992919921875,788.5347900390625,791.3552856445312,786.923095703125
1413,802.2344360351562,793.3699340820312,792.1611938476562,786.5201416015625
1414,793.7728881835938,792.967041015625,791.7582397460938,786.5201416015625
1415,778.8644409179688,792.5640869140625,786.1171875,784.1025390625
1416,773.2234497070312,791.3552856445312,782.4908447265625,782.4908447265625
1417,777.2527465820312,789.7435913085938,782.087890625,783.6996459960938
1418,778.8644409179688,787.7289428710938,781.2820434570312,784.5054931640625
1419,776.8497924804688,784.5054931640625,786.1171875,784.1025390625
1420,777.2527465820312,782.4908447265625,786.1171875,778.05859375
1421,777.6557006835938,779.2673950195312,786.5201416015625,775.6410522460938
1422,781.6849975585938,775.2380981445312,792.5640869140625,781.6849975585938
1423,791.3552856445312,779.6703491210938,793.7728881835938,787.7289428710938
1424,795.3846435546875,786.1171875,794.1758422851562,784.908447265625
1425,793.7728881835938,789.7435913085938,795.3846435546875,782.4908447265625
1426,798.6080322265625,792.1611938476562,794.5787353515625,786.923095703125
1427,795.7875366210938,790.5494384765625,793.7728881835938,791.7582397460938
1428,790.952392578125,788.1318969726562,793.7728881835938,791.7582397460938
1429,789.7435913085938,788.937744140625,794.5787353515625,790.1465454101562
1430,792.5640869140625,787.7289428710938,795.7875366210938,791.7582397460938
1431,790.5494384765625,788.5347900390625,794.981689453125,789.7435913085938
1432,787.7289428710938,792.5640869140625,795.7875366210938,786.1171875
1433,794.1758422851562,791.7582397460938,796.1904907226562,792.1611938476562
1434,794.981689453125,792.1611938476562,794.981689453125,796.996337890625
1435,793.3699340820312,792.1611938476562,793.3699340820312,792.5640869140625
1436,796.5933837890625,788.1318969726562,797.3992919921875,790.1465454101562
1437,794.981689453125,789.3406372070312,798.2051391601562,792.1611938476562
1438,790.1465454101562,786.923095703125,794.1758422851562,790.952392578125
1439,793.7728881835938,784.1025390625,794.5787353515625,782.893798828125
1440,794.5787353515625,792.1611938476562,792.967041015625,779.6703491210938
1441,788.937744140625,794.1758422851562,791.7582397460938,780.4761962890625
1442,784.5054931640625,788.937744140625,792.967041015625,777.2527465820312
1443,791.3552856445312,791.3552856445312,792.967041015625,777.6557006835938
1444,788.937744140625,796.1904907226562,792.5640869140625,783.2966918945312
1445,781.2820434570312,797.3992919921875,792.5640869140625,788.5347900390625
1446,783.2966918945312,792.5640869140625,792.1611938476562,784.5054931640625
1447,784.908447265625,792.967041015625,794.981689453125,778.05859375
1448,784.5054931640625,794.981689453125,796.5933837890625,780.879150390625
1449,785.7142944335938,792.5640869140625,796.5933837890625,787.7289428710938
1450,783.6996459960938,790.5494384765625,799.010986328125,785.7142944335938
1451,791.3552856445312,791.3552856445312,797.8021850585938,786.923095703125
1452,799.4139404296875,793.3699340820312,797.3992919921875,792.967041015625
1453,799.8168334960938,790.1465454101562,800.6226806640625,799.010986328125
1454,801.4285888671875,788.1318969726562,799.8168334960938,794.5787353515625
1455,800.2197875976562,788.937744140625,800.2197875976562,790.5494384765625
1456,797.3992919921875,782.893798828125,796.5933837890625,789.3406372070312
1457,796.996337890625,779.2673950195312,789.7435913085938,786.923095703125
1458,797.3992919921875,791.7582397460938,786.5201416015625,788.1318969726562
1459,795.3846435546875,799.8168334960938,791.3552856445312,790.952392578125
1460,794.981689453125,795.7875366210938,791.3552856445312,795.7875366210938
1461,791.3552856445312,796.5933837890625,789.3406372070312,794.981689453125
1462,781.6849975585938,797.3992919921875,794.5787353515625,786.1171875
1463,780.879150390625,793.3699340820312,797.8021850585938,788.937744140625
1464,785.7142944335938,790.952392578125,799.4139404296875,797.8021850585938
1465,783.2966918945312,786.5201416015625,796.5933837890625,794.981689453125
1466,779.6703491210938,783.6996459960938,794.981689453125,787.7289428710938
1467,783.2966918945312,788.5347900390625,792.5640869140625,787.7289428710938
1468,783.2966918945312,794.981689453125,792.967041015625,788.937744140625
1469,784.908447265625,795.3846435546875,794.981689453125,793.7728881835938
1470,788.1318969726562,792.967041015625,794.1758422851562,798.2051391601562
1471,789.7435913085938,798.6080322265625,794.981689453125,794.981689453125
1472,795.7875366210938,803.8461303710938,796.5933837890625,796.1904907226562
1473,799.4139404296875,801.025634765625,795.3846435546875,791.7582397460938
1474,805.8607788085938,795.7875366210938,796.5933837890625,791.3552856445312
1475,800.6226806640625,799.010986328125,794.5787353515625,794.1758422851562
1476,791.3552856445312,799.8168334960938,792.967041015625,790.1465454101562
1477,787.7289428710938,794.5787353515625,794.1758422851562,789.3406372070312
1478,784.1025390625,794.981689453125,796.1904907226562,783.2966918945312
1479,786.923095703125,792.967041015625,793.7728881835938,777.6557006835938
1480,785.7142944335938,789.7435913085938,787.3259887695312,767.9853515625
1481,789.3406372070312,783.6996459960938,786.5201416015625,769.1941528320312
1482,797.8021850585938,782.087890625,790.5494384765625,777.2527465820312
1483,796.996337890625,787.7289428710938,791.3552856445312,779.2673950195312
1484,784.1025390625,787.3259887695312,791.3552856445312,783.2966918945312
1485,777.2527465820312,785.3113403320312,789.7435913085938,777.6557006835938
1486,787.3259887695312,787.7289428710938,790.952392578125,780.4761962890625
1487,790.5494384765625,788.5347900390625,793.7728881835938,786.5201416015625
1488,784.908447265625,787.7289428710938,792.1611938476562,782.4908447265625
1489,781.2820434570312,784.1025390625,788.1318969726562,777.2527465820312
1490,783.6996459960938,787.7289428710938,787.7289428710938,779.2673950195312
1491,782.893798828125,792.5640869140625,788.5347900390625,779.2673950195312
1492,774.029296875,793.3699340820312,788.937744140625,774.4322509765625
1493,780.879150390625,794.5787353515625,786.5201416015625,775.2380981445312
1494,789.7435913085938,791.3552856445312,785.7142944335938,779.2673950195312
1495,787.3259887695312,790.1465454101562,790.5494384765625,789.7435913085938
1496,790.5494384765625,787.3259887695312,794.5787353515625,790.952392578125
1497,790.5494384765625,786.923095703125,794.5787353515625,782.4908447265625
1498,782.893798828125,784.908447265625,793.3699340820312,786.923095703125
1499,782.4908447265625,780.4761962890625,792.967041015625,788.937744140625
1500,789.3406372070312,782.4908447265625,789.3406372070312,782.893798828125
1501,791.7582397460938,786.1171875,790.5494384765625,788.937744140625
1502,790.1465454101562,786.5201416015625,790.1465454101562,795.7875366210938
1503,794.981689453125,785.3113403320312,790.5494384765625,793.3699340820312
1504,798.6080322265625,788.1318969726562,792.967041015625,797.3992919921875
1505,793.3699340820312,788.1318969726562,792.1611938476562,801.4285888671875
1506,786.1171875,785.3113403320312,788.937744140625,796.5933837890625
1507,782.4908447265625,785.7142944335938,789.3406372070312,792.5640869140625
1508,780.0732421875,782.087890625,796.1904907226562,786.923095703125
1509,785.7142944335938,782.893798828125,797.3992919921875,789.3406372070312
1510,791.3552856445312,787.3259887695312,798.2051391601562,800.2197875976562
1511,791.7582397460938,788.5347900390625,795.7875366210938,802.6373901367188
1512,796.1904907226562,790.952392578125,793.3699340820312,796.1904907226562
1513,795.7875366210938,794.1758422851562,795.3846435546875,792.967041015625
1514,792.5640869140625,790.5494384765625,792.967041015625,794.981689453125
1515,785.7142944335938,784.5054931640625,790.952392578125,794.1758422851562
1516,783.6996459960938,784.908447265625,792.967041015625,790.5494384765625
1517,792.5640869140625,789.3406372070312,788.937744140625,789.7435913085938
1518,794.5787353515625,795.7875366210938,787.7289428710938,788.1318969726562
1519,791.7582397460938,795.3846435546875,792.1611938476562,790.1465454101562
1520,795.7875366210938,792.1611938476562,795.3846435546875,787.3259887695312
1521,800.6226806640625,792.5640869140625,802.2344360351562,785.7142944335938
1522,793.3699340820312,793.3699340820312,802.6373901367188,789.7435913085938
1523,785.7142944335938,791.3552856445312,799.8168334960938,789.7435913085938
1524,788.5347900390625,791.3552856445312,802.2344360351562,788.937744140625
1525,793.3699340820312,794.5787353515625,806.6666870117188,796.1904907226562
1526,796.996337890625,789.3406372070312,802.2344360351562,799.4139404296875
1527,794.1758422851562,780.4761962890625,801.025634765625,789.7435913085938
1528,796.996337890625,780.0732421875,803.040283203125,787.7289428710938
1529,794.5787353515625,793.3699340820312,801.4285888671875,790.1465454101562
1530,787.7289428710938,797.3992919921875,795.7875366210938,788.5347900390625
1531,790.952392578125,792.5640869140625,791.7582397460938,785.7142944335938
1532,790.5494384765625,788.937744140625,800.2197875976562,788.1318969726562
1533,782.087890625,790.1465454101562,801.4285888671875,790.1465454101562
1534,778.8644409179688,793.3699340820312,795.7875366210938,788.937744140625
1535,782.4908447265625,792.1611938476562,793.3699340820312,787.7289428710938
1536,784.908447265625,787.7289428710938,798.2051391601562,787.7289428710938
1537,790.952392578125,784.908447265625,803.8461303710938,792.5640869140625
1538,792.967041015625,787.7289428710938,798.6080322265625,792.5640869140625
1539,793.7728881835938,789.7435913085938,797.8021850585938,788.937744140625
1540,799.010986328125,785.7142944335938,799.8168334960938,792.1611938476562
1541,801.4285888671875,787.3259887695312,796.996337890625,793.7728881835938
1542,794.981689453125,792.1611938476562,794.1758422851562,788.1318969726562
1543,787.3259887695312,795.3846435546875,795.7875366210938,782.087890625
1544,787.7289428710938,795.7875366210938,797.3992919921875,784.1025390625
1545,793.3699340820312,794.5787353515625,798.6080322265625,789.7435913085938
1546,790.1465454101562,791.7582397460938,799.010986328125,792.5640869140625
1547,786.1171875,791.7582397460938,794.981689453125,791.7582397460938
1548,786.5201416015625,791.7582397460938,789.7435913085938,787.3259887695312
1549,780.879150390625,788.937744140625,789.3406372070312,785.3113403320312
1550,779.2673950195312,791.3552856445312,791.3552856445312,791.3552856445312
1551,788.1318969726562,792.5640869140625,793.7728881835938,797.3992919921875
1552,792.5640869140625,792.1611938476562,798.6080322265625,798.2051391601562
1553,788.937744140625,797.3992919921875,798.2051391601562,797.3992919921875
1554,784.908447265625,791.3552856445312,794.981689453125,792.1611938476562
1555,791.3552856445312,792.1611938476562,796.1904907226562,792.967041015625
1556,795.3846435546875,800.2197875976562,792.5640869140625,798.2051391601562
1557,801.025634765625,796.1904907226562,790.952392578125,798.6080322265625
1558,806.6666870117188,792.967041015625,794.981689453125,793.3699340820312
1559,789.7435913085938,792.1611938476562,792.5640869140625,786.1171875
1560,776.4468994140625,790.952392578125,790.1465454101562,781.2820434570312
1561,786.1171875,786.5201416015625,790.5494384765625,781.6849975585938
1562,787.7289428710938,784.5054931640625,784.908447265625,778.4615478515625
1563,780.879150390625,784.908447265625,782.087890625,780.4761962890625
1564,788.937744140625,787.7289428710938,790.1465454101562,794.5787353515625
1565,799.4139404296875,790.5494384765625,793.7728881835938,795.3846435546875
1566,800.2197875976562,786.5201416015625,788.1318969726562,790.1465454101562
1567,803.040283203125,788.1318969726562,785.3113403320312,790.952392578125
1568,797.8021850585938,789.7435913085938,786.923095703125,789.7435913085938
1569,790.1465454101562,787.7289428710938,786.923095703125,789.3406372070312
1570,788.1318969726562,782.4908447265625,790.952392578125,790.952392578125
1571,784.1025390625,784.1025390625,792.1611938476562,797.3992919921875
1572,791.7582397460938,799.4139404296875,790.952392578125,800.6226806640625
1573,793.7728881835938,800.6226806640625,791.3552856445312,795.7875366210938
1574,790.952392578125,792.1611938476562,789.3406372070312,794.5787353515625
1575,798.6080322265625,789.7435913085938,792.967041015625,798.6080322265625
1576,803.8461303710938,791.3552856445312,801.025634765625,807.069580078125
1577,802.2344360351562,793.7728881835938,799.8168334960938,805.8607788085938
1578,798.6080322265625,798.6080322265625,797.8021850585938,792.1611938476562
1579,796.5933837890625,799.4139404296875,801.4285888671875,786.1171875
1580,796.996337890625,795.7875366210938,799.010986328125,791.3552856445312
1581,796.5933837890625,791.7582397460938,796.996337890625,790.1465454101562
1582,799.010986328125,789.7435913085938,799.4139404296875,788.937744140625
1583,801.8314819335938,791.3552856445312,796.5933837890625,790.952392578125
1584,794.981689453125,793.7728881835938,797.8021850585938,789.7435913085938
1585,785.7142944335938,786.5201416015625,799.010986328125,789.7435913085938
1586,786.1171875,787.3259887695312,796.1904907226562,790.1465454101562
1587,792.5640869140625,795.7875366210938,793.7728881835938,786.1171875
1588,799.4139404296875,796.5933837890625,791.7582397460938,784.1025390625
