timestamp,RAW_TP9,RAW_AF7,RAW_AF8,RAW_TP10
1,843.7362670898438,848.974365234375,733.7362670898438,800.6226806640625
2,838.4981689453125,846.5567626953125,734.5421142578125,796.5933837890625
3,836.08056640625,846.5567626953125,733.3333129882812,800.2197875976562
4,842.930419921875,846.959716796875,734.945068359375,811.5018310546875
5,845.7509155273438,843.7362670898438,741.3919677734375,813.91943359375
6,847.3626098632812,843.3333129882812,747.032958984375,812.7106323242188
7,845.3479614257812,841.7216186523438,750.2564086914062,811.5018310546875
8,838.09521484375,836.886474609375,749.8534545898438,810.2930297851562
9,830.4395751953125,833.2600708007812,747.032958984375,804.6520385742188
10,827.6190185546875,831.6483764648438,747.8388061523438,799.8168334960938
11,831.2454223632812,833.6630249023438,754.2857055664062,803.040283203125
12,833.2600708007812,832.8571166992188,757.5091552734375,809.89013671875
13,827.6190185546875,828.4249267578125,757.106201171875,810.6959838867188
14,822.3809814453125,819.5604248046875,758.3150024414062,794.981689453125
15,828.02197265625,817.1428833007812,762.7472534179688,795.7875366210938
16,836.4835205078125,819.96337890625,765.5677490234375,806.2637329101562
17,832.8571166992188,823.99267578125,765.5677490234375,804.6520385742188
18,827.2161254882812,828.02197265625,767.1795043945312,800.6226806640625
19,821.97802734375,823.99267578125,770.8058471679688,799.8168334960938
20,817.5457763671875,817.94873046875,772.0146484375,805.054931640625
21,823.5897216796875,817.5457763671875,770.8058471679688,808.2783813476562
22,823.99267578125,813.113525390625,769.5970458984375,804.2490844726562
23,821.1721801757812,810.6959838867188,769.1941528320312,805.4578857421875
24,812.3076782226562,811.5018310546875,769.1941528320312,801.8314819335938
25,810.6959838867188,813.113525390625,775.2380981445312,798.6080322265625
26,816.3369750976562,812.7106323242188,778.4615478515625,800.6226806640625
27,810.6959838867188,808.2783813476562,774.029296875,799.010986328125
28,807.069580078125,807.87548828125,774.4322509765625,796.996337890625
29,808.6813354492188,804.6520385742188,777.6557006835938,796.1904907226562
30,808.2783813476562,800.6226806640625,775.2380981445312,799.8168334960938
31,810.2930297851562,798.2051391601562,772.0146484375,801.025634765625
32,810.2930297851562,795.3846435546875,771.6116943359375,796.996337890625
33,806.6666870117188,792.1611938476562,771.6116943359375,794.5787353515625
34,799.8168334960938,792.967041015625,770.8058471679688,791.3552856445312
35,802.2344360351562,794.981689453125,770.8058471679688,799.4139404296875
36,805.8607788085938,793.3699340820312,777.2527465820312,803.4432373046875
37,811.5018310546875,794.5787353515625,782.4908447265625,796.5933837890625
38,810.2930297851562,796.1904907226562,782.4908447265625,799.010986328125
39,807.87548828125,799.4139404296875,783.6996459960938,807.069580078125
40,803.8461303710938,799.010986328125,785.3113403320312,801.4285888671875
41,805.4578857421875,798.6080322265625,785.7142944335938,797.8021850585938
42,809.89013671875,801.4285888671875,787.7289428710938,801.025634765625
43,804.6520385742188,800.6226806640625,786.5201416015625,792.5640869140625
44,799.010986328125,798.2051391601562,788.937744140625,784.1025390625
45,793.3699340820312,798.6080322265625,791.3552856445312,786.5201416015625
46,797.3992919921875,800.6226806640625,788.1318969726562,792.5640869140625
47,799.8168334960938,802.6373901367188,786.5201416015625,795.3846435546875
48,799.4139404296875,805.4578857421875,787.3259887695312,794.981689453125
49,801.025634765625,805.054931640625,785.7142944335938,795.7875366210938
50,796.1904907226562,804.2490844726562,789.3406372070312,792.967041015625
51,792.967041015625,805.054931640625,790.1465454101562,792.967041015625
52,793.3699340820312,802.2344360351562,788.937744140625,792.5640869140625
53,795.7875366210938,803.8461303710938,787.7289428710938,787.7289428710938
54,792.5640869140625,807.87548828125,787.7289428710938,790.5494384765625
55,793.7728881835938,801.4285888671875,788.937744140625,789.7435913085938
56,795.3846435546875,796.5933837890625,783.2966918945312,787.3259887695312
57,794.1758422851562,791.3552856445312,782.893798828125,790.1465454101562
58,798.6080322265625,791.3552856445312,788.1318969726562,797.3992919921875
59,801.8314819335938,792.967041015625,787.7289428710938,798.6080322265625
60,797.8021850585938,789.3406372070312,786.1171875,789.3406372070312
61,799.010986328125,790.1465454101562,788.5347900390625,792.1611938476562
62,804.6520385742188,793.7728881835938,788.937744140625,801.8314819335938
63,803.8461303710938,791.7582397460938,788.5347900390625,793.3699340820312
64,799.4139404296875,787.3259887695312,790.952392578125,789.3406372070312
65,798.6080322265625,787.3259887695312,791.3552856445312,795.3846435546875
66,801.4285888671875,791.7582397460938,791.7582397460938,797.3992919921875
67,803.8461303710938,793.3699340820312,794.1758422851562,794.1758422851562
68,804.6520385742188,791.7582397460938,794.5787353515625,793.7728881835938
69,801.025634765625,792.1611938476562,791.3552856445312,795.3846435546875
70,789.7435913085938,792.5640869140625,790.952392578125,790.1465454101562
71,784.5054931640625,790.1465454101562,787.3259887695312,790.5494384765625
72,784.1025390625,786.5201416015625,787.7289428710938,790.5494384765625
73,786.5201416015625,786.1171875,786.5201416015625,787.7289428710938
74,786.923095703125,788.937744140625,782.4908447265625,787.3259887695312
75,783.6996459960938,792.5640869140625,784.908447265625,787.7289428710938
76,784.1025390625,793.3699340820312,784.5054931640625,788.1318969726562
77,786.923095703125,789.3406372070312,787.3259887695312,792.967041015625
78,790.1465454101562,790.1465454101562,791.7582397460938,799.4139404296875
79,789.3406372070312,792.967041015625,794.5787353515625,791.3552856445312
80,789.3406372070312,789.7435913085938,796.5933837890625,785.3113403320312
81,790.952392578125,786.5201416015625,794.981689453125,785.7142944335938
82,792.5640869140625,790.1465454101562,791.3552856445312,784.908447265625
83,796.1904907226562,789.3406372070312,791.3552856445312,790.1465454101562
84,797.3992919921875,788.5347900390625,790.952392578125,793.3699340820312
85,800.6226806640625,791.7582397460938,788.1318969726562,798.2051391601562
86,800.6226806640625,792.967041015625,790.5494384765625,798.6080322265625
87,801.8314819335938,791.7582397460938,791.7582397460938,795.7875366210938
88,803.040283203125,788.937744140625,790.5494384765625,793.3699340820312
89,801.4285888671875,786.1171875,789.7435913085938,791.3552856445312
90,801.8314819335938,786.923095703125,792.5640869140625,792.967041015625
91,793.7728881835938,786.923095703125,790.1465454101562,788.5347900390625
92,793.3699340820312,788.1318969726562,790.5494384765625,794.5787353515625
93,800.2197875976562,790.1465454101562,794.1758422851562,804.2490844726562
94,795.3846435546875,790.5494384765625,795.7875366210938,800.6226806640625
95,791.3552856445312,788.5347900390625,795.3846435546875,792.5640869140625
96,790.1465454101562,788.5347900390625,794.5787353515625,784.1025390625
97,788.5347900390625,789.7435913085938,800.2197875976562,788.937744140625
98,788.937744140625,790.5494384765625,800.2197875976562,789.7435913085938
99,792.5640869140625,790.952392578125,795.3846435546875,782.087890625
100,788.937744140625,788.5347900390625,793.3699340820312,777.2527465820312
101,787.7289428710938,786.5201416015625,794.1758422851562,780.4761962890625
102,790.1465454101562,788.1318969726562,797.8021850585938,779.6703491210938
103,793.7728881835938,782.4908447265625,794.5787353515625,774.029296875
104,795.7875366210938,780.4761962890625,791.3552856445312,778.4615478515625
105,785.7142944335938,786.1171875,795.7875366210938,778.4615478515625
106,782.4908447265625,786.5201416015625,796.996337890625,774.029296875
107,784.908447265625,785.7142944335938,794.5787353515625,772.8204956054688
108,782.4908447265625,785.7142944335938,793.3699340820312,780.4761962890625
109,781.6849975585938,787.3259887695312,792.1611938476562,782.893798828125
110,784.908447265625,784.5054931640625,797.3992919921875,776.8497924804688
111,788.5347900390625,783.6996459960938,798.2051391601562,775.6410522460938
112,787.7289428710938,788.5347900390625,793.7728881835938,774.8351440429688
113,788.1318969726562,790.1465454101562,795.3846435546875,779.2673950195312
114,790.1465454101562,789.7435913085938,798.6080322265625,781.6849975585938
115,789.3406372070312,787.3259887695312,798.6080322265625,776.0439453125
116,787.3259887695312,785.3113403320312,795.7875366210938,769.5970458984375
117,787.3259887695312,784.1025390625,793.3699340820312,772.8204956054688
118,785.3113403320312,782.087890625,791.7582397460938,776.0439453125
119,788.1318969726562,785.7142944335938,789.7435913085938,783.2966918945312
120,792.967041015625,787.7289428710938,788.5347900390625,792.1611938476562
121,792.1611938476562,783.2966918945312,788.5347900390625,787.7289428710938
122,788.1318969726562,784.5054931640625,787.3259887695312,786.923095703125
123,790.5494384765625,787.3259887695312,788.1318969726562,783.2966918945312
124,790.5494384765625,786.5201416015625,791.3552856445312,782.4908447265625
125,790.1465454101562,788.1318969726562,790.1465454101562,788.1318969726562
126,784.1025390625,785.3113403320312,786.923095703125,785.7142944335938
127,780.879150390625,785.3113403320312,789.7435913085938,784.5054931640625
128,789.3406372070312,788.5347900390625,793.3699340820312,786.5201416015625
129,794.1758422851562,790.1465454101562,794.981689453125,788.937744140625
130,796.996337890625,796.5933837890625,794.981689453125,792.967041015625
131,793.7728881835938,794.5787353515625,796.996337890625,790.952392578125
132,790.952392578125,784.5054931640625,796.5933837890625,789.7435913085938
133,794.1758422851562,785.3113403320312,794.981689453125,789.3406372070312
134,796.1904907226562,792.1611938476562,790.952392578125,786.923095703125
135,791.7582397460938,790.952392578125,790.1465454101562,791.7582397460938
136,784.1025390625,790.1465454101562,792.1611938476562,788.937744140625
137,782.4908447265625,787.3259887695312,791.7582397460938,784.1025390625
138,782.4908447265625,784.5054931640625,789.7435913085938,786.923095703125
139,785.7142944335938,784.1025390625,791.3552856445312,787.7289428710938
140,792.967041015625,785.7142944335938,789.3406372070312,788.937744140625
141,789.7435913085938,786.923095703125,787.7289428710938,788.1318969726562
142,783.2966918945312,784.5054931640625,796.1904907226562,784.5054931640625
143,784.908447265625,788.1318969726562,800.6226806640625,786.1171875
144,787.7289428710938,792.5640869140625,799.010986328125,789.3406372070312
145,791.3552856445312,793.3699340820312,798.2051391601562,786.923095703125
146,792.5640869140625,793.3699340820312,797.3992919921875,788.937744140625
147,793.7728881835938,796.996337890625,795.3846435546875,794.5787353515625
148,796.996337890625,796.1904907226562,796.996337890625,790.5494384765625
149,798.2051391601562,797.3992919921875,800.2197875976562,789.3406372070312
150,803.040283203125,798.6080322265625,800.2197875976562,791.3552856445312
151,800.6226806640625,796.1904907226562,799.4139404296875,787.7289428710938
152,788.5347900390625,791.7582397460938,797.8021850585938,786.923095703125
153,788.937744140625,788.5347900390625,795.7875366210938,784.1025390625
154,792.5640869140625,788.1318969726562,789.7435913085938,780.4761962890625
155,790.952392578125,788.1318969726562,788.937744140625,781.2820434570312
156,796.1904907226562,787.7289428710938,791.7582397460938,785.3113403320312
157,795.7875366210938,790.1465454101562,790.1465454101562,782.4908447265625
158,794.5787353515625,795.7875366210938,787.3259887695312,788.1318969726562
159,795.7875366210938,790.952392578125,786.1171875,788.1318969726562
160,795.3846435546875,788.5347900390625,786.923095703125,782.893798828125
161,798.2051391601562,790.1465454101562,788.5347900390625,786.1171875
162,798.2051391601562,788.5347900390625,790.5494384765625,790.1465454101562
163,789.3406372070312,786.923095703125,790.5494384765625,782.087890625
164,785.7142944335938,784.1025390625,789.3406372070312,775.2380981445312
165,786.5201416015625,786.923095703125,792.5640869140625,780.879150390625
166,787.7289428710938,792.967041015625,794.981689453125,783.6996459960938
167,789.3406372070312,793.3699340820312,796.5933837890625,780.0732421875
168,784.908447265625,790.952392578125,798.6080322265625,778.8644409179688
169,784.1025390625,789.7435913085938,794.1758422851562,776.8497924804688
170,792.5640869140625,790.5494384765625,791.7582397460938,782.4908447265625
171,792.5640869140625,794.5787353515625,791.7582397460938,782.087890625
172,786.923095703125,795.7875366210938,793.3699340820312,778.05859375
173,778.4615478515625,792.967041015625,792.1611938476562,776.8497924804688
174,776.8497924804688,793.7728881835938,792.5640869140625,778.05859375
175,779.2673950195312,790.1465454101562,791.7582397460938,778.4615478515625
176,779.2673950195312,788.1318969726562,790.5494384765625,777.6557006835938
177,782.087890625,792.967041015625,790.1465454101562,781.6849975585938
178,780.0732421875,792.1611938476562,787.3259887695312,777.2527465820312
179,777.6557006835938,792.5640869140625,785.3113403320312,771.2088012695312
180,782.4908447265625,796.1904907226562,781.6849975585938,776.8497924804688
181,784.1025390625,794.5787353515625,784.1025390625,786.1171875
182,787.3259887695312,794.5787353515625,790.1465454101562,789.3406372070312
183,789.7435913085938,795.3846435546875,791.3552856445312,782.087890625
184,791.7582397460938,794.1758422851562,790.1465454101562,777.6557006835938
185,797.3992919921875,791.7582397460938,787.3259887695312,778.8644409179688
186,799.010986328125,788.5347900390625,788.5347900390625,780.0732421875
187,794.981689453125,787.3259887695312,792.967041015625,782.087890625
188,794.981689453125,786.923095703125,793.3699340820312,785.7142944335938
189,796.996337890625,791.7582397460938,790.5494384765625,785.3113403320312
190,794.981689453125,794.1758422851562,790.952392578125,788.5347900390625
191,791.7582397460938,792.967041015625,794.5787353515625,794.5787353515625
192,789.3406372070312,791.3552856445312,794.5787353515625,791.7582397460938
193,790.1465454101562,790.952392578125,794.1758422851562,793.3699340820312
194,788.5347900390625,789.7435913085938,792.1611938476562,786.923095703125
195,783.6996459960938,790.5494384765625,789.3406372070312,780.0732421875
196,789.3406372070312,790.952392578125,792.5640869140625,784.908447265625
197,790.1465454101562,789.3406372070312,796.996337890625,787.3259887695312
198,784.1025390625,787.3259887695312,798.2051391601562,783.2966918945312
199,787.3259887695312,786.923095703125,798.2051391601562,781.6849975585938
200,788.937744140625,791.7582397460938,799.010986328125,783.2966918945312
201,788.1318969726562,792.5640869140625,796.1904907226562,786.5201416015625
202,792.1611938476562,791.7582397460938,796.5933837890625,786.1171875
203,791.7582397460938,790.952392578125,796.996337890625,782.893798828125
204,787.7289428710938,788.937744140625,790.952392578125,787.7289428710938
205,786.5201416015625,793.3699340820312,790.5494384765625,784.908447265625
206,792.1611938476562,794.1758422851562,792.5640869140625,780.879150390625
207,802.6373901367188,790.952392578125,789.7435913085938,787.7289428710938
208,802.6373901367188,789.7435913085938,785.3113403320312,786.1171875
209,796.5933837890625,790.1465454101562,789.3406372070312,779.2673950195312
210,796.5933837890625,792.5640869140625,792.967041015625,786.5201416015625
211,798.2051391601562,789.7435913085938,792.967041015625,791.3552856445312
212,799.4139404296875,790.952392578125,790.5494384765625,786.923095703125
213,794.981689453125,793.3699340820312,791.7582397460938,781.6849975585938
214,791.7582397460938,794.981689453125,791.7582397460938,779.6703491210938
215,792.5640869140625,793.7728881835938,790.5494384765625,781.2820434570312
216,794.981689453125,791.7582397460938,788.937744140625,780.879150390625
217,794.1758422851562,792.5640869140625,786.923095703125,777.2527465820312
218,793.3699340820312,789.7435913085938,788.5347900390625,773.2234497070312
219,790.5494384765625,786.1171875,787.7289428710938,773.2234497070312
220,784.5054931640625,784.5054931640625,785.7142944335938,774.4322509765625
221,789.3406372070312,790.1465454101562,788.1318969726562,777.2527465820312
222,795.7875366210938,791.3552856445312,787.7289428710938,780.0732421875
223,794.5787353515625,789.7435913085938,786.923095703125,778.4615478515625
224,794.981689453125,790.952392578125,787.7289428710938,778.8644409179688
225,794.1758422851562,788.5347900390625,790.1465454101562,786.923095703125
226,788.937744140625,788.1318969726562,787.3259887695312,785.3113403320312
227,790.5494384765625,787.7289428710938,785.3113403320312,778.4615478515625
228,788.937744140625,789.3406372070312,786.1171875,775.6410522460938
229,788.5347900390625,793.7728881835938,780.879150390625,776.4468994140625
230,789.3406372070312,795.3846435546875,784.5054931640625,780.879150390625
231,783.6996459960938,790.5494384765625,789.7435913085938,788.1318969726562
232,776.0439453125,786.5201416015625,785.3113403320312,781.6849975585938
233,776.8497924804688,790.1465454101562,784.5054931640625,776.4468994140625
234,790.952392578125,792.967041015625,790.952392578125,784.908447265625
235,796.996337890625,794.1758422851562,794.5787353515625,787.7289428710938
236,792.967041015625,793.7728881835938,791.3552856445312,786.923095703125
237,795.3846435546875,791.3552856445312,792.5640869140625,789.3406372070312
238,800.6226806640625,790.952392578125,792.5640869140625,790.5494384765625
239,801.025634765625,789.3406372070312,789.7435913085938,793.7728881835938
240,794.981689453125,788.5347900390625,791.3552856445312,792.967041015625
241,794.5787353515625,787.7289428710938,791.7582397460938,786.5201416015625
242,791.7582397460938,786.5201416015625,788.5347900390625,789.3406372070312
243,782.087890625,786.923095703125,790.1465454101562,792.1611938476562
244,783.2966918945312,789.7435913085938,792.1611938476562,784.908447265625
245,783.2966918945312,790.952392578125,790.1465454101562,784.1025390625
246,786.923095703125,786.5201416015625,792.1611938476562,791.7582397460938
247,793.3699340820312,788.937744140625,790.5494384765625,791.3552856445312
248,793.3699340820312,790.1465454101562,786.923095703125,782.4908447265625
249,792.1611938476562,788.5347900390625,788.937744140625,780.879150390625
250,794.5787353515625,790.952392578125,795.7875366210938,789.7435913085938
251,799.010986328125,790.5494384765625,797.3992919921875,796.5933837890625
252,800.2197875976562,788.937744140625,795.7875366210938,798.2051391601562
253,799.8168334960938,789.7435913085938,797.3992919921875,800.6226806640625
254,795.7875366210938,784.908447265625,796.5933837890625,804.2490844726562
255,790.5494384765625,785.3113403320312,793.3699340820312,803.040283203125
256,793.7728881835938,789.7435913085938,790.5494384765625,798.2051391601562
257,795.3846435546875,787.3259887695312,791.7582397460938,792.5640869140625
258,793.7728881835938,782.893798828125,789.7435913085938,787.7289428710938
259,794.981689453125,787.7289428710938,788.937744140625,786.1171875
260,789.3406372070312,790.1465454101562,790.1465454101562,785.3113403320312
261,790.1465454101562,788.937744140625,789.3406372070312,788.937744140625
262,791.7582397460938,790.1465454101562,789.3406372070312,792.967041015625
263,790.5494384765625,790.952392578125,789.3406372070312,788.1318969726562
264,785.7142944335938,791.3552856445312,789.7435913085938,783.2966918945312
265,782.893798828125,791.3552856445312,790.952392578125,785.3113403320312
266,784.5054931640625,792.967041015625,792.1611938476562,789.7435913085938
267,790.5494384765625,793.7728881835938,792.1611938476562,784.908447265625
268,792.1611938476562,790.952392578125,789.3406372070312,777.2527465820312
269,783.6996459960938,794.1758422851562,787.3259887695312,775.6410522460938
270,783.6996459960938,794.981689453125,790.5494384765625,778.8644409179688
271,786.1171875,790.1465454101562,790.1465454101562,779.6703491210938
272,789.7435913085938,790.5494384765625,790.1465454101562,785.7142944335938
273,794.981689453125,792.967041015625,791.3552856445312,791.3552856445312
274,790.952392578125,795.3846435546875,792.967041015625,788.937744140625
275,788.5347900390625,796.996337890625,798.2051391601562,787.3259887695312
276,794.1758422851562,796.5933837890625,796.996337890625,788.1318969726562
277,800.2197875976562,794.5787353515625,793.7728881835938,787.7289428710938
278,805.4578857421875,796.996337890625,792.5640869140625,789.3406372070312
279,804.6520385742188,800.6226806640625,794.1758422851562,791.7582397460938
280,796.5933837890625,799.8168334960938,796.1904907226562,787.3259887695312
281,795.3846435546875,796.1904907226562,796.5933837890625,785.3113403320312
282,798.2051391601562,800.6226806640625,795.3846435546875,788.1318969726562
283,798.2051391601562,802.2344360351562,794.1758422851562,788.937744140625
284,797.8021850585938,794.5787353515625,794.981689453125,786.1171875
285,796.996337890625,792.1611938476562,794.1758422851562,788.1318969726562
286,796.996337890625,796.1904907226562,794.1758422851562,790.5494384765625
287,796.5933837890625,792.967041015625,792.5640869140625,786.923095703125
288,800.2197875976562,789.7435913085938,790.5494384765625,791.3552856445312
289,800.6226806640625,790.5494384765625,790.1465454101562,795.7875366210938
290,801.4285888671875,792.967041015625,790.5494384765625,790.952392578125
291,800.6226806640625,794.981689453125,792.1611938476562,783.6996459960938
292,790.952392578125,796.996337890625,794.981689453125,784.908447265625
293,798.2051391601562,799.4139404296875,799.4139404296875,793.7728881835938
294,799.010986328125,799.4139404296875,798.6080322265625,791.7582397460938
295,787.7289428710938,796.1904907226562,794.1758422851562,787.3259887695312
296,781.6849975585938,789.3406372070312,792.5640869140625,785.3113403320312
297,780.879150390625,786.1171875,790.952392578125,782.087890625
298,786.1171875,788.937744140625,790.5494384765625,786.5201416015625
299,792.5640869140625,792.5640869140625,790.5494384765625,791.7582397460938
300,796.5933837890625,794.981689453125,789.7435913085938,793.7728881835938
301,793.3699340820312,794.1758422851562,789.7435913085938,791.3552856445312
302,792.5640869140625,794.5787353515625,788.1318969726562,784.1025390625
303,795.7875366210938,794.1758422851562,790.1465454101562,784.908447265625
304,799.010986328125,790.952392578125,791.7582397460938,790.5494384765625
305,799.4139404296875,790.1465454101562,791.7582397460938,784.5054931640625
306,796.5933837890625,787.3259887695312,790.1465454101562,784.1025390625
307,793.3699340820312,784.908447265625,786.5201416015625,782.087890625
308,798.2051391601562,785.7142944335938,788.937744140625,779.6703491210938
309,801.8314819335938,787.3259887695312,794.981689453125,780.879150390625
310,800.2197875976562,788.1318969726562,796.5933837890625,784.5054931640625
311,796.5933837890625,790.1465454101562,796.1904907226562,786.923095703125
312,797.3992919921875,794.5787353515625,800.2197875976562,789.7435913085938
313,799.4139404296875,798.6080322265625,799.4139404296875,791.7582397460938
314,792.1611938476562,793.3699340820312,795.7875366210938,786.1171875
315,788.1318969726562,791.3552856445312,797.3992919921875,784.5054931640625
316,790.952392578125,791.7582397460938,797.8021850585938,786.923095703125
317,785.3113403320312,789.7435913085938,794.981689453125,780.0732421875
318,782.4908447265625,788.937744140625,794.981689453125,780.4761962890625
319,785.3113403320312,788.937744140625,795.3846435546875,786.5201416015625
320,781.6849975585938,786.1171875,795.7875366210938,785.3113403320312
321,783.2966918945312,786.923095703125,795.7875366210938,781.6849975585938
322,788.5347900390625,791.7582397460938,796.1904907226562,783.2966918945312
323,786.923095703125,791.7582397460938,794.5787353515625,788.937744140625
324,788.5347900390625,787.7289428710938,791.3552856445312,785.3113403320312
325,788.1318969726562,786.923095703125,788.1318969726562,776.4468994140625
326,788.937744140625,788.1318969726562,784.1025390625,778.05859375
327,793.7728881835938,785.7142944335938,782.893798828125,787.3259887695312
328,798.6080322265625,789.7435913085938,787.3259887695312,788.5347900390625
329,809.084228515625,792.967041015625,790.952392578125,790.1465454101562
330,813.113525390625,788.5347900390625,793.7728881835938,793.7728881835938
331,806.6666870117188,790.5494384765625,795.3846435546875,791.7582397460938
332,799.010986328125,793.7728881835938,790.952392578125,786.923095703125
333,800.2197875976562,790.1465454101562,787.3259887695312,782.4908447265625
334,802.2344360351562,787.7289428710938,788.937744140625,784.908447265625
335,800.6226806640625,790.5494384765625,791.7582397460938,788.1318969726562
336,799.010986328125,793.7728881835938,793.3699340820312,785.7142944335938
337,790.5494384765625,789.7435913085938,789.7435913085938,776.8497924804688
338,790.952392578125,786.1171875,784.908447265625,781.6849975585938
339,796.996337890625,786.5201416015625,792.5640869140625,792.967041015625
340,795.7875366210938,787.3259887695312,797.8021850585938,786.5201416015625
341,791.3552856445312,784.5054931640625,793.3699340820312,781.6849975585938
342,783.2966918945312,782.087890625,790.5494384765625,777.6557006835938
343,781.2820434570312,784.908447265625,789.7435913085938,774.8351440429688
344,785.7142944335938,788.1318969726562,791.7582397460938,777.6557006835938
345,784.5054931640625,783.6996459960938,789.3406372070312,776.0439453125
346,790.1465454101562,781.2820434570312,787.3259887695312,778.4615478515625
347,792.1611938476562,785.3113403320312,786.5201416015625,778.4615478515625
348,780.4761962890625,785.7142944335938,786.1171875,774.4322509765625
349,778.05859375,784.5054931640625,787.7289428710938,779.2673950195312
350,789.7435913085938,786.923095703125,791.3552856445312,791.3552856445312
351,795.3846435546875,790.1465454101562,792.1611938476562,790.5494384765625
352,794.981689453125,790.1465454101562,790.1465454101562,784.908447265625
353,796.1904907226562,790.952392578125,792.1611938476562,786.1171875
354,798.2051391601562,792.1611938476562,788.5347900390625,787.3259887695312
355,801.8314819335938,790.5494384765625,787.3259887695312,787.3259887695312
356,797.8021850585938,788.5347900390625,787.7289428710938,782.087890625
357,790.1465454101562,788.5347900390625,786.1171875,780.0732421875
358,790.952392578125,791.7582397460938,789.7435913085938,784.1025390625
359,798.2051391601562,788.1318969726562,792.967041015625,781.2820434570312
360,801.4285888671875,789.3406372070312,786.923095703125,779.6703491210938
361,801.025634765625,791.3552856445312,786.5201416015625,782.893798828125
362,793.3699340820312,791.7582397460938,786.5201416015625,785.3113403320312
363,782.893798828125,790.1465454101562,782.087890625,780.879150390625
364,779.2673950195312,785.7142944335938,781.2820434570312,776.8497924804688
365,783.6996459960938,785.3113403320312,781.6849975585938,783.6996459960938
366,783.6996459960938,789.3406372070312,782.4908447265625,787.3259887695312
367,780.0732421875,789.7435913085938,781.6849975585938,780.879150390625
368,781.6849975585938,789.7435913085938,783.2966918945312,785.3113403320312
369,783.2966918945312,790.1465454101562,784.908447265625,782.4908447265625
370,789.3406372070312,788.5347900390625,784.908447265625,775.6410522460938
371,790.5494384765625,787.7289428710938,784.908447265625,778.4615478515625
372,785.7142944335938,787.7289428710938,786.1171875,780.4761962890625
373,785.7142944335938,790.1465454101562,790.952392578125,784.5054931640625
374,786.1171875,792.5640869140625,794.5787353515625,792.1611938476562
375,791.7582397460938,792.1611938476562,795.7875366210938,796.1904907226562
376,790.952392578125,790.952392578125,792.1611938476562,797.8021850585938
377,785.7142944335938,789.3406372070312,791.7582397460938,794.1758422851562
378,782.087890625,787.7289428710938,791.3552856445312,789.3406372070312
379,788.937744140625,788.937744140625,790.952392578125,789.3406372070312
380,798.6080322265625,790.952392578125,792.5640869140625,784.908447265625
381,792.1611938476562,787.3259887695312,790.952392578125,783.2966918945312
382,786.1171875,788.1318969726562,791.3552856445312,787.3259887695312
383,791.3552856445312,794.1758422851562,793.3699340820312,789.7435913085938
384,786.923095703125,787.3259887695312,789.7435913085938,786.5201416015625
385,792.5640869140625,785.7142944335938,790.952392578125,790.1465454101562
386,795.3846435546875,789.7435913085938,796.996337890625,788.937744140625
387,787.7289428710938,786.5201416015625,791.7582397460938,786.1171875
388,787.3259887695312,784.5054931640625,788.1318969726562,787.7289428710938
389,784.908447265625,779.6703491210938,787.7289428710938,782.893798828125
390,786.923095703125,783.6996459960938,786.923095703125,780.879150390625
391,792.1611938476562,791.3552856445312,783.2966918945312,780.4761962890625
392,787.3259887695312,790.952392578125,784.1025390625,778.8644409179688
393,785.3113403320312,788.937744140625,787.7289428710938,780.4761962890625
394,782.893798828125,787.7289428710938,790.5494384765625,782.893798828125
395,786.1171875,790.5494384765625,794.1758422851562,784.5054931640625
396,790.5494384765625,790.5494384765625,795.3846435546875,787.7289428710938
397,787.7289428710938,788.1318969726562,792.1611938476562,789.7435913085938
398,786.1171875,789.7435913085938,793.7728881835938,788.1318969726562
399,786.923095703125,790.952392578125,795.3846435546875,790.952392578125
400,792.967041015625,789.7435913085938,790.952392578125,793.7728881835938
401,804.6520385742188,788.5347900390625,792.967041015625,796.996337890625
402,804.6520385742188,786.923095703125,794.981689453125,793.7728881835938
403,796.996337890625,783.2966918945312,793.3699340820312,789.7435913085938
404,789.3406372070312,784.1025390625,792.5640869140625,787.7289428710938
405,792.967041015625,793.7728881835938,790.1465454101562,788.1318969726562
406,799.010986328125,796.1904907226562,793.7728881835938,792.5640869140625
407,799.010986328125,791.7582397460938,793.3699340820312,792.5640869140625
408,792.967041015625,794.981689453125,790.5494384765625,787.7289428710938
409,791.7582397460938,799.010986328125,794.1758422851562,787.7289428710938
410,795.7875366210938,798.2051391601562,795.3846435546875,791.3552856445312
411,796.1904907226562,792.1611938476562,790.5494384765625,793.3699340820312
412,798.2051391601562,791.3552856445312,790.952392578125,793.7728881835938
413,793.3699340820312,792.967041015625,791.7582397460938,785.7142944335938
414,795.7875366210938,792.1611938476562,791.3552856445312,787.3259887695312
415,796.1904907226562,790.1465454101562,792.967041015625,793.7728881835938
416,788.1318969726562,787.7289428710938,791.7582397460938,790.1465454101562
417,782.4908447265625,788.937744140625,788.1318969726562,782.893798828125
418,778.05859375,789.3406372070312,787.7289428710938,780.4761962890625
419,778.05859375,789.3406372070312,790.5494384765625,783.2966918945312
420,777.2527465820312,790.1465454101562,792.1611938476562,781.6849975585938
421,783.6996459960938,784.908447265625,789.7435913085938,778.05859375
422,791.3552856445312,784.5054931640625,786.923095703125,783.2966918945312
423,789.3406372070312,788.1318969726562,786.923095703125,787.7289428710938
424,788.937744140625,789.7435913085938,791.3552856445312,786.5201416015625
425,789.7435913085938,794.1758422851562,796.996337890625,785.3113403320312
426,798.6080322265625,795.7875366210938,798.2051391601562,790.952392578125
427,802.6373901367188,793.7728881835938,794.981689453125,792.967041015625
428,799.4139404296875,790.1465454101562,795.7875366210938,793.3699340820312
429,798.2051391601562,793.7728881835938,796.996337890625,790.952392578125
430,798.6080322265625,792.967041015625,798.6080322265625,788.937744140625
431,798.6080322265625,791.3552856445312,797.3992919921875,788.937744140625
432,801.025634765625,793.7728881835938,797.3992919921875,792.5640869140625
433,800.2197875976562,790.5494384765625,794.5787353515625,788.5347900390625
434,794.981689453125,789.7435913085938,791.3552856445312,780.4761962890625
435,790.952392578125,790.1465454101562,790.1465454101562,783.6996459960938
436,784.5054931640625,786.923095703125,787.3259887695312,779.6703491210938
437,785.3113403320312,784.1025390625,789.3406372070312,779.6703491210938
438,791.7582397460938,784.908447265625,788.5347900390625,782.087890625
439,788.937744140625,788.937744140625,789.3406372070312,777.2527465820312
440,784.908447265625,792.967041015625,787.7289428710938,776.8497924804688
441,789.7435913085938,793.7728881835938,789.7435913085938,783.2966918945312
442,792.967041015625,792.1611938476562,790.1465454101562,786.923095703125
443,795.7875366210938,791.7582397460938,788.5347900390625,789.7435913085938
444,793.3699340820312,791.3552856445312,789.3406372070312,788.1318969726562
445,794.5787353515625,792.1611938476562,788.937744140625,790.5494384765625
446,796.1904907226562,792.5640869140625,791.3552856445312,793.7728881835938
447,794.981689453125,793.3699340820312,792.5640869140625,788.937744140625
448,793.7728881835938,793.3699340820312,789.3406372070312,784.1025390625
449,785.7142944335938,794.1758422851562,788.937744140625,780.4761962890625
450,785.7142944335938,794.5787353515625,790.952392578125,784.5054931640625
451,786.5201416015625,793.7728881835938,788.5347900390625,783.2966918945312
452,789.3406372070312,792.967041015625,789.3406372070312,782.087890625
453,795.7875366210938,793.7728881835938,791.7582397460938,785.7142944335938
454,792.5640869140625,792.967041015625,793.7728881835938,788.937744140625
455,791.3552856445312,790.1465454101562,796.1904907226562,788.1318969726562
456,792.1611938476562,790.1465454101562,792.5640869140625,782.893798828125
457,792.1611938476562,794.1758422851562,794.5787353515625,788.5347900390625
458,794.5787353515625,797.3992919921875,796.5933837890625,799.010986328125
459,790.5494384765625,799.4139404296875,790.952392578125,790.5494384765625
460,784.5054931640625,795.7875366210938,783.2966918945312,779.2673950195312
461,786.5201416015625,796.5933837890625,786.5201416015625,785.3113403320312
462,787.7289428710938,796.5933837890625,792.1611938476562,784.908447265625
463,791.3552856445312,790.1465454101562,788.937744140625,777.6557006835938
464,796.996337890625,788.937744140625,787.7289428710938,778.8644409179688
465,790.952392578125,789.7435913085938,790.1465454101562,778.4615478515625
466,790.952392578125,794.1758422851562,792.1611938476562,784.1025390625
467,794.981689453125,800.2197875976562,792.967041015625,786.5201416015625
468,791.3552856445312,795.7875366210938,789.7435913085938,779.2673950195312
469,791.3552856445312,788.1318969726562,788.937744140625,781.2820434570312
470,784.908447265625,789.3406372070312,789.7435913085938,785.7142944335938
471,781.2820434570312,791.3552856445312,787.7289428710938,783.6996459960938
472,788.1318969726562,790.1465454101562,786.1171875,785.3113403320312
473,790.5494384765625,790.5494384765625,791.7582397460938,788.5347900390625
474,786.923095703125,788.1318969726562,793.3699340820312,787.3259887695312
475,788.937744140625,788.5347900390625,790.5494384765625,788.937744140625
476,792.1611938476562,789.7435913085938,792.967041015625,793.7728881835938
477,792.967041015625,786.1171875,796.996337890625,795.3846435546875
478,795.3846435546875,784.1025390625,795.7875366210938,793.7728881835938
479,795.3846435546875,782.893798828125,793.7728881835938,789.7435913085938
480,793.3699340820312,784.908447265625,793.7728881835938,791.3552856445312
481,792.5640869140625,786.1171875,791.7582397460938,792.1611938476562
482,793.7728881835938,788.937744140625,790.5494384765625,788.937744140625
483,797.3992919921875,791.3552856445312,789.3406372070312,791.7582397460938
484,797.3992919921875,790.5494384765625,786.923095703125,792.967041015625
485,789.7435913085938,789.3406372070312,792.5640869140625,793.7728881835938
486,790.5494384765625,790.952392578125,795.3846435546875,794.981689453125
487,794.1758422851562,794.981689453125,791.3552856445312,788.937744140625
488,792.5640869140625,791.7582397460938,788.5347900390625,787.3259887695312
489,789.7435913085938,786.1171875,784.1025390625,786.923095703125
490,786.1171875,787.3259887695312,786.1171875,781.6849975585938
491,784.908447265625,785.7142944335938,785.7142944335938,778.4615478515625
492,784.5054931640625,782.893798828125,780.879150390625,784.5054931640625
493,786.5201416015625,787.3259887695312,783.2966918945312,789.3406372070312
494,783.2966918945312,783.6996459960938,785.7142944335938,783.2966918945312
495,776.0439453125,782.4908447265625,783.2966918945312,781.2820434570312
496,774.029296875,784.5054931640625,785.3113403320312,780.879150390625
497,773.2234497070312,784.908447265625,788.937744140625,778.05859375
498,778.05859375,786.5201416015625,790.1465454101562,780.4761962890625
499,785.7142944335938,789.7435913085938,793.7728881835938,784.5054931640625
500,789.7435913085938,791.7582397460938,796.1904907226562,791.7582397460938
501,794.1758422851562,791.3552856445312,793.7728881835938,794.1758422851562
502,797.3992919921875,795.3846435546875,795.3846435546875,797.8021850585938
503,800.2197875976562,795.7875366210938,791.7582397460938,803.040283203125
504,794.5787353515625,788.1318969726562,785.7142944335938,798.6080322265625
505,798.2051391601562,788.937744140625,794.1758422851562,793.3699340820312
506,804.6520385742188,794.5787353515625,797.8021850585938,794.1758422851562
507,799.010986328125,793.7728881835938,793.7728881835938,794.981689453125
508,797.3992919921875,792.5640869140625,788.937744140625,791.7582397460938
509,790.952392578125,787.7289428710938,784.5054931640625,786.1171875
510,788.1318969726562,783.6996459960938,786.5201416015625,785.7142944335938
511,791.7582397460938,785.7142944335938,792.967041015625,790.5494384765625
512,790.1465454101562,788.1318969726562,793.3699340820312,785.3113403320312
513,790.952392578125,790.1465454101562,792.5640869140625,781.2820434570312
514,788.937744140625,792.1611938476562,794.981689453125,782.087890625
515,792.5640869140625,795.3846435546875,794.981689453125,789.7435913085938
516,791.7582397460938,794.1758422851562,794.5787353515625,788.1318969726562
517,782.087890625,788.1318969726562,793.7728881835938,779.6703491210938
518,786.5201416015625,785.3113403320312,792.967041015625,787.3259887695312
519,794.1758422851562,785.7142944335938,795.7875366210938,799.010986328125
520,792.1611938476562,787.7289428710938,799.4139404296875,792.5640869140625
521,793.3699340820312,787.7289428710938,794.5787353515625,779.6703491210938
522,798.2051391601562,784.908447265625,791.7582397460938,781.6849975585938
523,795.3846435546875,788.1318969726562,791.3552856445312,784.1025390625
524,798.2051391601562,790.952392578125,790.5494384765625,782.893798828125
525,797.8021850585938,789.3406372070312,790.952392578125,783.6996459960938
526,796.5933837890625,791.3552856445312,790.1465454101562,783.6996459960938
527,799.010986328125,790.1465454101562,787.7289428710938,779.6703491210938
528,801.025634765625,790.952392578125,787.3259887695312,784.1025390625
529,802.6373901367188,792.967041015625,790.1465454101562,786.923095703125
530,807.069580078125,797.3992919921875,793.3699340820312,793.7728881835938
531,807.069580078125,796.5933837890625,794.1758422851562,807.069580078125
532,803.8461303710938,792.1611938476562,790.5494384765625,793.7728881835938
533,799.4139404296875,790.952392578125,788.1318969726562,784.1025390625
534,803.040283203125,795.7875366210938,789.3406372070312,790.952392578125
535,801.4285888671875,793.7728881835938,786.1171875,788.1318969726562
536,799.010986328125,790.952392578125,785.7142944335938,788.1318969726562
537,797.3992919921875,794.1758422851562,789.3406372070312,781.2820434570312
538,797.8021850585938,790.5494384765625,790.1465454101562,778.4615478515625
539,799.4139404296875,788.937744140625,792.1611938476562,784.5054931640625
540,794.981689453125,788.1318969726562,791.3552856445312,778.05859375
541,783.2966918945312,780.4761962890625,789.3406372070312,771.6116943359375
542,778.4615478515625,783.2966918945312,786.5201416015625,779.6703491210938
543,782.087890625,790.1465454101562,787.3259887695312,784.1025390625
544,787.7289428710938,790.952392578125,787.3259887695312,781.6849975585938
545,790.1465454101562,792.5640869140625,790.952392578125,781.6849975585938
546,788.937744140625,792.5640869140625,794.1758422851562,782.087890625
547,790.952392578125,792.5640869140625,792.1611938476562,782.087890625
548,792.1611938476562,787.7289428710938,788.5347900390625,781.2820434570312
549,791.3552856445312,785.7142944335938,788.937744140625,784.5054931640625
550,799.8168334960938,792.5640869140625,790.1465454101562,786.923095703125
551,803.8461303710938,794.5787353515625,788.937744140625,784.5054931640625
552,802.6373901367188,797.3992919921875,793.3699340820312,784.908447265625
553,804.2490844726562,800.2197875976562,794.1758422851562,787.3259887695312
554,809.4871826171875,799.8168334960938,792.1611938476562,796.996337890625
555,807.4725341796875,797.3992919921875,789.3406372070312,789.7435913085938
556,804.2490844726562,794.5787353515625,792.1611938476562,782.087890625
557,797.3992919921875,793.7728881835938,796.5933837890625,786.1171875
558,790.1465454101562,796.996337890625,793.7728881835938,791.7582397460938
559,790.952392578125,797.8021850585938,797.3992919921875,795.7875366210938
560,793.3699340820312,796.5933837890625,797.8021850585938,796.1904907226562
561,792.967041015625,794.5787353515625,796.1904907226562,796.1904907226562
562,794.1758422851562,796.996337890625,799.8168334960938,788.937744140625
563,792.5640869140625,793.7728881835938,797.8021850585938,782.4908447265625
564,786.923095703125,788.1318969726562,793.3699340820312,778.8644409179688
565,788.1318969726562,794.981689453125,797.3992919921875,785.7142944335938
566,789.3406372070312,798.2051391601562,796.1904907226562,788.1318969726562
567,786.5201416015625,792.5640869140625,792.5640869140625,780.0732421875
568,785.3113403320312,785.3113403320312,792.967041015625,779.2673950195312
569,791.7582397460938,784.5054931640625,791.3552856445312,783.6996459960938
570,795.7875366210938,783.6996459960938,796.1904907226562,784.1025390625
571,796.1904907226562,786.1171875,797.8021850585938,783.2966918945312
572,796.5933837890625,793.7728881835938,796.5933837890625,784.908447265625
573,793.3699340820312,796.1904907226562,798.6080322265625,786.1171875
574,789.7435913085938,793.7728881835938,794.981689453125,780.879150390625
575,794.1758422851562,792.5640869140625,794.1758422851562,782.4908447265625
576,797.3992919921875,796.1904907226562,794.981689453125,792.5640869140625
577,795.3846435546875,796.1904907226562,790.5494384765625,789.7435913085938
578,792.967041015625,796.1904907226562,789.3406372070312,780.879150390625
579,794.981689453125,794.1758422851562,790.1465454101562,783.6996459960938
580,798.2051391601562,793.3699340820312,789.7435913085938,786.923095703125
581,793.7728881835938,798.6080322265625,790.5494384765625,786.1171875
582,791.3552856445312,803.040283203125,796.1904907226562,785.7142944335938
583,791.7582397460938,808.6813354492188,797.8021850585938,787.3259887695312
584,788.1318969726562,805.4578857421875,794.1758422851562,786.5201416015625
585,791.7582397460938,801.025634765625,794.981689453125,790.1465454101562
586,796.996337890625,801.025634765625,799.010986328125,792.5640869140625
587,795.3846435546875,797.8021850585938,798.2051391601562,784.908447265625
588,785.3113403320312,794.981689453125,794.1758422851562,785.7142944335938
589,780.4761962890625,791.7582397460938,792.5640869140625,790.1465454101562
590,789.7435913085938,790.5494384765625,791.3552856445312,780.879150390625
591,794.981689453125,791.7582397460938,788.1318969726562,780.879150390625
592,794.981689453125,794.5787353515625,786.923095703125,786.1171875
593,791.3552856445312,796.996337890625,789.7435913085938,782.4908447265625
594,787.7289428710938,799.4139404296875,792.1611938476562,782.087890625
595,796.5933837890625,797.8021850585938,792.5640869140625,782.4908447265625
596,799.4139404296875,795.3846435546875,794.981689453125,782.4908447265625
597,797.8021850585938,792.1611938476562,798.2051391601562,788.1318969726562
598,799.8168334960938,791.7582397460938,794.5787353515625,785.3113403320312
599,797.8021850585938,792.1611938476562,794.1758422851562,784.908447265625
600,796.5933837890625,786.1171875,795.3846435546875,784.908447265625
601,797.3992919921875,788.5347900390625,790.952392578125,784.1025390625
602,794.5787353515625,793.7728881835938,788.937744140625,787.7289428710938
603,792.5640869140625,798.6080322265625,792.1611938476562,790.5494384765625
604,788.937744140625,797.8021850585938,791.7582397460938,789.7435913085938
605,793.3699340820312,794.5787353515625,787.7289428710938,788.5347900390625
606,795.7875366210938,790.5494384765625,787.7289428710938,783.6996459960938
607,795.7875366210938,791.3552856445312,788.937744140625,785.7142944335938
608,801.025634765625,791.3552856445312,792.5640869140625,790.1465454101562
609,797.8021850585938,786.1171875,791.3552856445312,784.5054931640625
610,796.1904907226562,785.7142944335938,788.5347900390625,784.5054931640625
611,797.8021850585938,785.7142944335938,788.5347900390625,787.3259887695312
612,795.3846435546875,785.3113403320312,789.7435913085938,788.1318969726562
613,793.3699340820312,792.5640869140625,790.1465454101562,786.923095703125
614,794.5787353515625,798.6080322265625,790.952392578125,784.1025390625
615,799.4139404296875,795.3846435546875,791.7582397460938,792.1611938476562
616,798.2051391601562,790.5494384765625,793.7728881835938,801.8314819335938
617,795.7875366210938,792.967041015625,793.7728881835938,792.967041015625
618,794.5787353515625,791.7582397460938,794.981689453125,789.7435913085938
619,786.923095703125,787.7289428710938,794.1758422851562,790.952392578125
620,784.5054931640625,785.3113403320312,794.1758422851562,786.1171875
621,788.1318969726562,785.3113403320312,791.7582397460938,784.908447265625
622,792.967041015625,786.923095703125,790.5494384765625,784.1025390625
623,792.1611938476562,786.1171875,790.952392578125,780.0732421875
624,784.5054931640625,784.1025390625,790.952392578125,778.05859375
625,788.937744140625,786.1171875,789.7435913085938,781.6849975585938
626,791.7582397460938,789.3406372070312,785.7142944335938,780.0732421875
627,786.923095703125,788.1318969726562,786.923095703125,780.0732421875
628,791.3552856445312,788.5347900390625,790.5494384765625,782.893798828125
629,792.967041015625,789.3406372070312,787.3259887695312,781.2820434570312
630,788.5347900390625,785.7142944335938,788.1318969726562,778.05859375
631,792.967041015625,788.1318969726562,787.3259887695312,784.1025390625
632,791.7582397460938,790.952392578125,786.923095703125,787.7289428710938
633,787.7289428710938,788.5347900390625,791.3552856445312,783.6996459960938
634,782.4908447265625,786.1171875,791.3552856445312,784.908447265625
635,779.2673950195312,785.7142944335938,792.5640869140625,793.3699340820312
636,786.923095703125,788.5347900390625,792.5640869140625,794.981689453125
637,793.3699340820312,786.923095703125,795.3846435546875,788.5347900390625
638,790.952392578125,781.2820434570312,794.5787353515625,783.2966918945312
639,785.3113403320312,778.05859375,791.3552856445312,778.4615478515625
640,786.923095703125,783.2966918945312,790.1465454101562,779.6703491210938
641,788.937744140625,785.7142944335938,787.7289428710938,783.6996459960938
642,793.3699340820312,787.3259887695312,790.952392578125,785.3113403320312
643,796.5933837890625,792.1611938476562,794.1758422851562,787.7289428710938
644,788.1318969726562,790.1465454101562,792.5640869140625,786.5201416015625
645,782.087890625,786.5201416015625,791.7582397460938,786.923095703125
646,784.1025390625,784.908447265625,790.952392578125,793.7728881835938
647,786.5201416015625,784.908447265625,784.5054931640625,789.3406372070312
648,791.3552856445312,788.937744140625,783.6996459960938,784.908447265625
649,788.5347900390625,792.967041015625,786.5201416015625,782.893798828125
650,786.923095703125,788.937744140625,787.7289428710938,789.3406372070312
651,785.3113403320312,781.2820434570312,786.5201416015625,789.3406372070312
652,789.7435913085938,786.1171875,786.5201416015625,785.7142944335938
653,793.3699340820312,787.7289428710938,792.1611938476562,786.923095703125
654,791.7582397460938,782.893798828125,792.967041015625,784.1025390625
655,790.952392578125,785.3113403320312,788.937744140625,786.1171875
656,789.7435913085938,786.1171875,786.5201416015625,787.3259887695312
657,792.5640869140625,785.3113403320312,785.3113403320312,790.952392578125
658,794.1758422851562,788.937744140625,788.937744140625,797.3992919921875
659,792.967041015625,793.3699340820312,792.967041015625,793.7728881835938
660,793.7728881835938,789.3406372070312,792.1611938476562,790.5494384765625
661,794.981689453125,787.3259887695312,789.3406372070312,797.8021850585938
662,796.1904907226562,794.5787353515625,789.3406372070312,796.1904907226562
663,799.8168334960938,798.2051391601562,794.981689453125,794.5787353515625
664,798.2051391601562,795.7875366210938,795.3846435546875,794.1758422851562
665,791.7582397460938,792.967041015625,790.5494384765625,791.7582397460938
666,791.3552856445312,790.1465454101562,790.5494384765625,791.3552856445312
667,794.1758422851562,788.1318969726562,790.952392578125,790.1465454101562
668,798.2051391601562,788.1318969726562,792.5640869140625,790.952392578125
669,794.1758422851562,788.1318969726562,792.967041015625,785.7142944335938
670,788.5347900390625,784.5054931640625,786.923095703125,776.0439453125
671,785.3113403320312,784.1025390625,789.3406372070312,772.8204956054688
672,786.1171875,787.3259887695312,794.5787353515625,780.4761962890625
673,788.937744140625,787.3259887695312,791.7582397460938,787.7289428710938
674,788.5347900390625,788.5347900390625,790.952392578125,784.1025390625
675,785.7142944335938,791.3552856445312,792.967041015625,776.4468994140625
676,785.7142944335938,791.3552856445312,794.981689453125,773.6264038085938
677,784.5054931640625,787.7289428710938,788.937744140625,774.8351440429688
678,789.7435913085938,792.1611938476562,785.3113403320312,777.2527465820312
679,796.5933837890625,796.996337890625,788.1318969726562,778.4615478515625
680,783.2966918945312,791.7582397460938,790.952392578125,782.4908447265625
681,782.4908447265625,787.7289428710938,795.7875366210938,789.3406372070312
682,792.1611938476562,791.3552856445312,796.5933837890625,788.5347900390625
683,792.967041015625,792.967041015625,794.1758422851562,788.937744140625
684,794.981689453125,793.7728881835938,798.6080322265625,792.5640869140625
685,792.967041015625,792.5640869140625,798.6080322265625,787.3259887695312
686,792.967041015625,793.7728881835938,793.3699340820312,783.2966918945312
687,797.3992919921875,794.1758422851562,793.3699340820312,788.5347900390625
688,800.6226806640625,789.3406372070312,797.3992919921875,793.3699340820312
689,800.2197875976562,787.7289428710938,796.5933837890625,791.7582397460938
690,796.1904907226562,786.1171875,791.7582397460938,788.1318969726562
691,791.7582397460938,785.7142944335938,789.3406372070312,782.4908447265625
692,790.5494384765625,785.3113403320312,787.3259887695312,780.0732421875
693,790.1465454101562,783.6996459960938,785.7142944335938,780.0732421875
694,792.1611938476562,784.908447265625,786.1171875,782.893798828125
695,792.5640869140625,786.1171875,786.1171875,784.5054931640625
696,788.937744140625,784.1025390625,782.893798828125,783.2966918945312
697,790.5494384765625,784.5054931640625,785.7142944335938,782.4908447265625
698,798.2051391601562,788.937744140625,792.5640869140625,783.6996459960938
699,799.010986328125,788.1318969726562,794.1758422851562,787.3259887695312
700,793.3699340820312,784.5054931640625,791.3552856445312,790.5494384765625
701,792.967041015625,785.3113403320312,793.3699340820312,781.2820434570312
702,797.3992919921875,784.5054931640625,796.1904907226562,779.2673950195312
703,802.2344360351562,787.3259887695312,790.952392578125,782.4908447265625
704,803.8461303710938,790.5494384765625,788.937744140625,781.6849975585938
705,801.8314819335938,791.7582397460938,790.1465454101562,784.908447265625
706,795.3846435546875,792.5640869140625,792.5640869140625,782.4908447265625
707,796.1904907226562,791.3552856445312,793.7728881835938,782.893798828125
708,797.8021850585938,790.5494384765625,792.1611938476562,784.5054931640625
709,788.937744140625,789.3406372070312,790.952392578125,778.05859375
710,783.2966918945312,786.1171875,790.1465454101562,778.05859375
711,782.087890625,787.3259887695312,787.3259887695312,778.8644409179688
712,781.6849975585938,788.1318969726562,782.4908447265625,767.1795043945312
713,778.4615478515625,787.7289428710938,782.4908447265625,764.3589477539062
714,779.6703491210938,789.7435913085938,786.923095703125,774.4322509765625
715,781.6849975585938,788.5347900390625,790.952392578125,777.2527465820312
716,780.4761962890625,789.3406372070312,793.7728881835938,778.05859375
717,776.8497924804688,788.937744140625,791.3552856445312,780.0732421875
718,778.05859375,783.2966918945312,786.1171875,781.2820434570312
719,785.3113403320312,780.0732421875,786.1171875,778.4615478515625
720,783.2966918945312,783.2966918945312,786.5201416015625,773.6264038085938
721,780.879150390625,792.1611938476562,791.3552856445312,775.2380981445312
722,788.5347900390625,792.967041015625,794.5787353515625,779.2673950195312
723,792.1611938476562,793.3699340820312,795.3846435546875,787.7289428710938
724,789.3406372070312,789.7435913085938,798.2051391601562,789.3406372070312
725,794.5787353515625,790.5494384765625,798.6080322265625,787.7289428710938
726,791.7582397460938,792.1611938476562,796.5933837890625,789.7435913085938
727,784.908447265625,786.923095703125,795.7875366210938,787.3259887695312
728,784.908447265625,788.937744140625,796.1904907226562,789.3406372070312
729,786.923095703125,790.952392578125,796.996337890625,797.3992919921875
730,788.1318969726562,789.3406372070312,794.5787353515625,795.3846435546875
731,790.5494384765625,790.5494384765625,793.7728881835938,791.3552856445312
732,788.937744140625,788.1318969726562,791.3552856445312,787.7289428710938
733,783.6996459960938,787.7289428710938,788.5347900390625,782.4908447265625
734,785.7142944335938,790.5494384765625,790.1465454101562,787.3259887695312
735,788.1318969726562,794.1758422851562,790.952392578125,791.3552856445312
736,788.937744140625,796.1904907226562,790.1465454101562,788.937744140625
737,786.5201416015625,795.3846435546875,790.952392578125,784.5054931640625
738,782.087890625,790.5494384765625,792.967041015625,782.4908447265625
739,786.923095703125,791.3552856445312,793.7728881835938,785.3113403320312
740,795.7875366210938,792.1611938476562,795.7875366210938,788.1318969726562
741,800.6226806640625,791.3552856445312,798.2051391601562,791.7582397460938
742,790.5494384765625,793.3699340820312,799.010986328125,790.5494384765625
743,785.3113403320312,790.1465454101562,798.6080322265625,790.5494384765625
744,783.2966918945312,788.1318969726562,794.1758422851562,789.3406372070312
745,783.6996459960938,789.3406372070312,794.5787353515625,790.5494384765625
746,787.3259887695312,789.3406372070312,795.7875366210938,790.1465454101562
747,785.7142944335938,792.1611938476562,799.010986328125,787.3259887695312
748,780.4761962890625,792.5640869140625,795.7875366210938,786.1171875
749,774.4322509765625,791.3552856445312,792.967041015625,784.1025390625
750,776.8497924804688,792.1611938476562,794.1758422851562,785.3113403320312
751,780.0732421875,790.5494384765625,793.3699340820312,783.2966918945312
752,774.4322509765625,785.7142944335938,799.010986328125,781.2820434570312
753,772.4176025390625,787.7289428710938,799.010986328125,784.908447265625
754,774.8351440429688,790.952392578125,796.5933837890625,786.5201416015625
755,782.087890625,788.1318969726562,796.996337890625,789.7435913085938
756,784.908447265625,787.7289428710938,796.5933837890625,790.5494384765625
757,784.5054931640625,788.937744140625,791.7582397460938,792.5640869140625
758,793.3699340820312,786.923095703125,792.1611938476562,795.7875366210938
759,796.1904907226562,787.3259887695312,795.7875366210938,791.7582397460938
760,797.3992919921875,784.5054931640625,794.981689453125,791.3552856445312
761,805.4578857421875,782.4908447265625,796.996337890625,790.1465454101562
762,803.8461303710938,785.7142944335938,800.2197875976562,790.952392578125
763,805.8607788085938,788.5347900390625,801.025634765625,799.010986328125
764,806.6666870117188,789.3406372070312,796.1904907226562,799.8168334960938
765,807.069580078125,792.967041015625,794.981689453125,792.967041015625
766,803.040283203125,795.3846435546875,795.7875366210938,789.7435913085938
767,793.7728881835938,792.1611938476562,797.3992919921875,790.5494384765625
768,793.3699340820312,794.1758422851562,796.5933837890625,789.7435913085938
769,794.5787353515625,798.2051391601562,796.5933837890625,793.3699340820312
770,792.5640869140625,795.7875366210938,796.5933837890625,788.1318969726562
771,790.5494384765625,792.5640869140625,794.5787353515625,783.2966918945312
772,786.1171875,789.3406372070312,794.1758422851562,786.5201416015625
773,783.6996459960938,791.3552856445312,792.5640869140625,786.5201416015625
774,788.1318969726562,796.5933837890625,796.996337890625,791.7582397460938
775,793.3699340820312,799.010986328125,799.4139404296875,793.3699340820312
776,792.967041015625,794.981689453125,797.3992919921875,791.3552856445312
777,789.3406372070312,791.3552856445312,793.3699340820312,787.7289428710938
778,791.7582397460938,794.1758422851562,796.996337890625,790.952392578125
779,796.996337890625,793.3699340820312,800.6226806640625,793.3699340820312
780,798.6080322265625,787.7289428710938,797.3992919921875,790.5494384765625
781,792.967041015625,786.5201416015625,792.967041015625,784.908447265625
782,790.1465454101562,787.7289428710938,790.5494384765625,784.1025390625
783,791.3552856445312,791.3552856445312,789.7435913085938,787.7289428710938
784,794.5787353515625,788.5347900390625,787.7289428710938,786.923095703125
785,800.2197875976562,785.7142944335938,787.7289428710938,788.5347900390625
786,802.2344360351562,792.5640869140625,790.1465454101562,794.981689453125
787,804.2490844726562,795.7875366210938,789.3406372070312,797.3992919921875
788,801.025634765625,793.7728881835938,786.923095703125,792.967041015625
789,798.6080322265625,794.1758422851562,788.5347900390625,785.3113403320312
790,798.2051391601562,793.7728881835938,786.923095703125,778.4615478515625
791,799.010986328125,794.1758422851562,789.7435913085938,780.879150390625
792,798.2051391601562,798.6080322265625,794.5787353515625,786.5201416015625
793,791.3552856445312,795.7875366210938,791.7582397460938,779.6703491210938
794,789.7435913085938,792.1611938476562,791.3552856445312,775.6410522460938
795,784.908447265625,792.1611938476562,792.1611938476562,772.0146484375
796,789.7435913085938,792.5640869140625,793.7728881835938,774.8351440429688
797,792.1611938476562,792.967041015625,799.4139404296875,778.4615478515625
798,782.893798828125,789.7435913085938,797.3992919921875,776.0439453125
799,782.893798828125,788.937744140625,796.5933837890625,781.2820434570312
800,787.3259887695312,788.1318969726562,801.025634765625,785.3113403320312
801,787.7289428710938,789.7435913085938,801.4285888671875,787.3259887695312
802,788.5347900390625,789.3406372070312,796.996337890625,792.967041015625
803,782.893798828125,786.1171875,791.3552856445312,793.7728881835938
804,783.6996459960938,790.1465454101562,796.5933837890625,792.967041015625
805,790.5494384765625,794.5787353515625,799.4139404296875,791.7582397460938
806,792.5640869140625,793.3699340820312,792.1611938476562,792.967041015625
807,796.5933837890625,789.7435913085938,792.5640869140625,801.8314819335938
808,799.010986328125,792.5640869140625,799.4139404296875,802.2344360351562
809,802.6373901367188,789.3406372070312,794.981689453125,793.3699340820312
810,802.2344360351562,785.7142944335938,792.967041015625,793.3699340820312
811,803.8461303710938,788.1318969726562,795.7875366210938,798.6080322265625
812,812.7106323242188,792.5640869140625,793.7728881835938,797.3992919921875
813,815.5311279296875,791.7582397460938,789.7435913085938,792.5640869140625
814,817.1428833007812,790.5494384765625,788.5347900390625,792.967041015625
815,816.7399291992188,792.967041015625,788.937744140625,793.7728881835938
816,811.90478515625,792.5640869140625,785.3113403320312,790.5494384765625
817,805.8607788085938,786.923095703125,782.4908447265625,788.5347900390625
818,799.4139404296875,786.923095703125,784.5054931640625,788.937744140625
819,791.3552856445312,783.6996459960938,788.5347900390625,787.7289428710938
820,790.5494384765625,783.2966918945312,791.3552856445312,784.1025390625
821,797.3992919921875,790.952392578125,788.937744140625,784.908447265625
822,794.5787353515625,789.7435913085938,784.908447265625,778.4615478515625
823,785.7142944335938,785.3113403320312,788.1318969726562,769.5970458984375
824,781.6849975585938,785.3113403320312,790.5494384765625,767.1795043945312
825,788.5347900390625,792.967041015625,792.1611938476562,771.6116943359375
826,793.7728881835938,799.010986328125,796.996337890625,776.4468994140625
827,791.7582397460938,794.1758422851562,790.5494384765625,775.6410522460938
828,785.7142944335938,785.3113403320312,785.7142944335938,777.6557006835938
829,779.2673950195312,784.908447265625,788.1318969726562,778.8644409179688
830,782.4908447265625,791.7582397460938,787.3259887695312,777.2527465820312
831,789.3406372070312,789.3406372070312,788.937744140625,781.6849975585938
832,795.3846435546875,789.7435913085938,790.1465454101562,786.923095703125
833,793.7728881835938,789.3406372070312,790.5494384765625,783.2966918945312
834,793.3699340820312,784.5054931640625,791.7582397460938,783.2966918945312
835,794.1758422851562,783.2966918945312,789.7435913085938,789.3406372070312
836,793.3699340820312,783.6996459960938,791.7582397460938,788.937744140625
837,796.996337890625,785.7142944335938,796.996337890625,789.3406372070312
838,794.1758422851562,780.4761962890625,798.2051391601562,795.3846435546875
839,790.952392578125,780.4761962890625,797.8021850585938,794.1758422851562
840,795.7875366210938,792.5640869140625,799.010986328125,794.981689453125
841,795.7875366210938,796.5933837890625,797.3992919921875,800.6226806640625
842,796.996337890625,795.7875366210938,792.5640869140625,807.069580078125
843,798.6080322265625,795.7875366210938,792.1611938476562,796.996337890625
844,796.996337890625,794.981689453125,790.1465454101562,784.908447265625
845,794.1758422851562,793.3699340820312,789.3406372070312,785.7142944335938
846,794.1758422851562,792.5640869140625,790.1465454101562,776.8497924804688
847,799.010986328125,791.7582397460938,790.5494384765625,774.4322509765625
848,790.5494384765625,790.952392578125,787.3259887695312,775.6410522460938
849,781.6849975585938,790.5494384765625,785.7142944335938,768.3883056640625
850,780.879150390625,790.5494384765625,790.5494384765625,773.2234497070312
851,776.0439453125,785.3113403320312,791.3552856445312,773.2234497070312
852,782.4908447265625,783.2966918945312,792.967041015625,775.6410522460938
853,796.1904907226562,788.1318969726562,800.6226806640625,790.5494384765625
854,796.1904907226562,789.3406372070312,798.2051391601562,779.2673950195312
855,788.5347900390625,784.5054931640625,792.967041015625,769.5970458984375
856,791.3552856445312,790.952392578125,795.7875366210938,779.6703491210938
857,796.5933837890625,795.3846435546875,795.3846435546875,790.5494384765625
858,796.5933837890625,789.7435913085938,792.967041015625,785.7142944335938
859,791.7582397460938,788.1318969726562,791.3552856445312,779.6703491210938
860,786.1171875,789.3406372070312,785.7142944335938,781.6849975585938
861,790.952392578125,790.1465454101562,784.908447265625,783.2966918945312
862,799.4139404296875,789.3406372070312,790.1465454101562,785.3113403320312
863,803.040283203125,789.7435913085938,796.1904907226562,791.7582397460938
864,803.8461303710938,788.1318969726562,796.996337890625,794.5787353515625
865,800.2197875976562,787.7289428710938,796.1904907226562,793.3699340820312
866,796.5933837890625,785.7142944335938,795.7875366210938,783.6996459960938
867,799.010986328125,781.2820434570312,792.5640869140625,776.8497924804688
868,796.996337890625,780.0732421875,790.5494384765625,781.2820434570312
869,788.1318969726562,788.937744140625,789.3406372070312,784.908447265625
870,788.1318969726562,794.1758422851562,790.1465454101562,786.1171875
871,791.7582397460938,790.952392578125,791.3552856445312,791.3552856445312
872,790.952392578125,790.952392578125,791.7582397460938,796.1904907226562
873,790.5494384765625,792.967041015625,790.1465454101562,794.5787353515625
874,786.5201416015625,790.1465454101562,794.981689453125,790.5494384765625
875,785.3113403320312,786.923095703125,794.981689453125,787.7289428710938
876,781.2820434570312,788.1318969726562,792.967041015625,788.5347900390625
877,774.4322509765625,788.1318969726562,792.5640869140625,788.1318969726562
878,777.2527465820312,788.1318969726562,791.3552856445312,783.2966918945312
879,780.879150390625,787.7289428710938,790.1465454101562,777.6557006835938
880,778.4615478515625,786.923095703125,785.7142944335938,774.8351440429688
881,783.6996459960938,790.5494384765625,788.1318969726562,774.8351440429688
882,786.1171875,791.3552856445312,787.7289428710938,776.8497924804688
883,787.7289428710938,786.923095703125,785.7142944335938,778.8644409179688
884,792.1611938476562,786.923095703125,788.5347900390625,779.6703491210938
885,792.5640869140625,787.3259887695312,790.1465454101562,784.5054931640625
886,795.7875366210938,784.5054931640625,790.1465454101562,788.5347900390625
887,796.5933837890625,790.5494384765625,792.967041015625,790.952392578125
888,797.3992919921875,790.952392578125,796.996337890625,795.3846435546875
889,792.5640869140625,787.7289428710938,799.010986328125,791.7582397460938
890,789.7435913085938,789.3406372070312,798.2051391601562,788.1318969726562
891,796.5933837890625,787.3259887695312,800.2197875976562,799.010986328125
892,801.025634765625,786.1171875,798.6080322265625,802.6373901367188
893,794.981689453125,788.1318969726562,796.5933837890625,795.7875366210938
894,790.1465454101562,791.7582397460938,791.7582397460938,790.952392578125
895,788.5347900390625,792.967041015625,790.952392578125,792.1611938476562
896,785.3113403320312,791.3552856445312,791.3552856445312,794.981689453125
897,790.5494384765625,790.5494384765625,790.952392578125,790.5494384765625
898,798.2051391601562,791.7582397460938,786.5201416015625,790.952392578125
899,792.967041015625,792.967041015625,786.923095703125,790.1465454101562
900,784.5054931640625,790.5494384765625,791.7582397460938,780.4761962890625
901,787.7289428710938,794.1758422851562,794.981689453125,775.6410522460938
902,789.7435913085938,788.1318969726562,793.3699340820312,784.5054931640625
903,787.7289428710938,784.5054931640625,790.5494384765625,788.937744140625
904,785.7142944335938,792.5640869140625,793.3699340820312,789.7435913085938
905,785.3113403320312,793.7728881835938,790.5494384765625,786.923095703125
906,789.7435913085938,789.7435913085938,790.952392578125,785.7142944335938
907,789.3406372070312,787.7289428710938,794.981689453125,784.908447265625
908,792.967041015625,791.3552856445312,791.7582397460938,787.7289428710938
909,794.981689453125,791.3552856445312,789.3406372070312,786.923095703125
910,793.3699340820312,785.3113403320312,793.3699340820312,786.923095703125
911,799.4139404296875,787.7289428710938,792.5640869140625,791.3552856445312
912,795.3846435546875,790.1465454101562,792.967041015625,788.5347900390625
913,789.7435913085938,787.7289428710938,795.3846435546875,786.923095703125
914,792.967041015625,786.5201416015625,794.981689453125,792.1611938476562
915,801.025634765625,793.7728881835938,800.2197875976562,803.040283203125
916,797.3992919921875,798.2051391601562,801.025634765625,799.8168334960938
917,787.3259887695312,791.3552856445312,797.3992919921875,792.5640869140625
918,789.3406372070312,790.5494384765625,795.3846435546875,795.3846435546875
919,799.010986328125,791.3552856445312,799.010986328125,795.3846435546875
920,805.054931640625,786.923095703125,795.7875366210938,794.981689453125
921,798.6080322265625,786.923095703125,796.5933837890625,795.7875366210938
922,794.1758422851562,788.937744140625,799.8168334960938,794.1758422851562
923,798.6080322265625,790.1465454101562,803.040283203125,801.025634765625
924,796.1904907226562,791.7582397460938,802.6373901367188,796.1904907226562
925,792.5640869140625,790.952392578125,796.5933837890625,787.3259887695312
926,791.3552856445312,786.5201416015625,792.1611938476562,794.5787353515625
927,784.1025390625,787.3259887695312,787.7289428710938,786.5201416015625
928,787.3259887695312,788.937744140625,788.1318969726562,778.8644409179688
929,789.3406372070312,784.1025390625,788.1318969726562,788.5347900390625
930,785.3113403320312,782.087890625,791.7582397460938,788.1318969726562
931,787.7289428710938,785.7142944335938,792.5640869140625,782.893798828125
932,792.1611938476562,789.7435913085938,791.3552856445312,783.6996459960938
933,793.3699340820312,789.7435913085938,790.5494384765625,786.1171875
934,794.1758422851562,789.3406372070312,791.7582397460938,791.3552856445312
935,801.8314819335938,791.7582397460938,797.3992919921875,798.2051391601562
936,803.040283203125,791.7582397460938,797.8021850585938,796.1904907226562
937,800.6226806640625,795.7875366210938,793.7728881835938,794.1758422851562
938,802.2344360351562,797.3992919921875,792.967041015625,798.2051391601562
939,803.8461303710938,798.2051391601562,793.7728881835938,788.1318969726562
940,800.6226806640625,798.6080322265625,791.3552856445312,784.5054931640625
941,800.2197875976562,797.8021850585938,790.952392578125,788.937744140625
942,796.996337890625,796.5933837890625,794.1758422851562,790.1465454101562
943,790.952392578125,792.5640869140625,794.5787353515625,789.3406372070312
944,798.2051391601562,794.981689453125,793.7728881835938,789.7435913085938
945,802.6373901367188,795.3846435546875,792.967041015625,793.3699340820312
946,793.3699340820312,792.967041015625,791.3552856445312,786.923095703125
947,792.5640869140625,791.7582397460938,796.996337890625,786.923095703125
948,794.981689453125,790.1465454101562,798.2051391601562,793.7728881835938
949,797.3992919921875,793.7728881835938,796.996337890625,800.2197875976562
950,798.2051391601562,794.1758422851562,800.2197875976562,799.8168334960938
951,798.2051391601562,788.1318969726562,798.6080322265625,790.5494384765625
952,791.3552856445312,784.908447265625,795.7875366210938,791.3552856445312
953,784.1025390625,791.3552856445312,798.6080322265625,792.1611938476562
954,787.3259887695312,788.5347900390625,801.4285888671875,792.1611938476562
955,792.967041015625,787.7289428710938,800.2197875976562,793.3699340820312
956,795.3846435546875,790.1465454101562,798.6080322265625,789.7435913085938
957,791.3552856445312,787.7289428710938,795.7875366210938,784.908447265625
958,794.5787353515625,789.3406372070312,792.967041015625,784.5054931640625
959,796.996337890625,791.3552856445312,792.967041015625,786.923095703125
960,796.996337890625,789.7435913085938,792.967041015625,780.879150390625
961,793.3699340820312,789.7435913085938,792.967041015625,780.4761962890625
962,786.5201416015625,793.7728881835938,793.7728881835938,778.4615478515625
963,787.7289428710938,794.1758422851562,793.3699340820312,775.6410522460938
964,788.937744140625,794.1758422851562,790.1465454101562,774.029296875
965,785.7142944335938,795.3846435546875,788.1318969726562,771.6116943359375
966,786.923095703125,794.981689453125,788.1318969726562,772.4176025390625
967,788.5347900390625,794.981689453125,785.7142944335938,774.029296875
968,786.923095703125,794.5787353515625,790.1465454101562,777.2527465820312
969,788.5347900390625,793.3699340820312,791.3552856445312,779.2673950195312
970,794.5787353515625,796.1904907226562,789.7435913085938,778.4615478515625
971,799.8168334960938,797.8021850585938,791.7582397460938,780.4761962890625
972,796.996337890625,793.7728881835938,789.3406372070312,778.4615478515625
973,793.7728881835938,789.7435913085938,788.5347900390625,776.8497924804688
974,792.5640869140625,790.1465454101562,789.3406372070312,782.4908447265625
975,785.7142944335938,790.5494384765625,790.1465454101562,788.1318969726562
976,783.2966918945312,788.937744140625,792.5640869140625,789.3406372070312
977,782.087890625,784.5054931640625,793.7728881835938,784.908447265625
978,781.2820434570312,786.1171875,798.2051391601562,784.5054931640625
979,786.5201416015625,790.952392578125,801.8314819335938,786.923095703125
980,791.7582397460938,794.981689453125,799.4139404296875,793.3699340820312
981,800.2197875976562,797.8021850585938,796.996337890625,791.3552856445312
982,803.040283203125,794.5787353515625,797.8021850585938,782.4908447265625
983,797.8021850585938,792.5640869140625,796.1904907226562,780.4761962890625
984,792.5640869140625,789.7435913085938,795.7875366210938,778.8644409179688
985,794.1758422851562,788.1318969726562,792.5640869140625,777.2527465820312
986,798.6080322265625,794.5787353515625,791.7582397460938,780.0732421875
987,793.7728881835938,791.7582397460938,789.3406372070312,777.2527465820312
988,790.1465454101562,790.952392578125,785.7142944335938,779.6703491210938
989,791.7582397460938,793.3699340820312,789.7435913085938,782.893798828125
990,799.4139404296875,795.7875366210938,792.967041015625,781.2820434570312
991,803.8461303710938,796.996337890625,798.2051391601562,785.7142944335938
992,804.6520385742188,793.7728881835938,800.6226806640625,789.3406372070312
993,797.3992919921875,788.937744140625,795.3846435546875,784.908447265625
994,787.7289428710938,789.3406372070312,794.5787353515625,786.1171875
995,791.3552856445312,794.5787353515625,800.2197875976562,794.981689453125
996,787.7289428710938,794.981689453125,798.2051391601562,791.7582397460938
997,782.893798828125,791.7582397460938,789.3406372070312,780.879150390625
998,786.923095703125,792.967041015625,790.952392578125,787.3259887695312
999,775.6410522460938,793.3699340820312,794.1758422851562,793.3699340820312
1000,767.9853515625,788.1318969726562,793.3699340820312,784.908447265625
1001,771.6116943359375,786.5201416015625,794.5787353515625,778.8644409179688
1002,774.8351440429688,787.7289428710938,796.996337890625,782.087890625
1003,778.4615478515625,785.3113403320312,797.8021850585938,781.6849975585938
1004,778.05859375,781.2820434570312,796.5933837890625,776.8497924804688
1005,773.6264038085938,782.087890625,791.3552856445312,772.8204956054688
1006,777.2527465820312,782.893798828125,790.5494384765625,780.4761962890625
1007,780.4761962890625,784.5054931640625,790.1465454101562,780.4761962890625
1008,778.05859375,785.7142944335938,785.7142944335938,766.3735961914062
1009,783.2966918945312,787.7289428710938,790.1465454101562,761.94140625
1010,792.5640869140625,791.7582397460938,793.7728881835938,768.7911987304688
1011,790.1465454101562,790.1465454101562,791.3552856445312,776.4468994140625
1012,785.7142944335938,788.937744140625,791.3552856445312,775.2380981445312
1013,785.7142944335938,791.7582397460938,790.5494384765625,772.0146484375
1014,782.087890625,790.952392578125,789.3406372070312,772.0146484375
1015,784.1025390625,794.1758422851562,789.7435913085938,779.2673950195312
1016,787.7289428710938,799.010986328125,790.5494384765625,781.6849975585938
1017,794.1758422851562,799.4139404296875,793.3699340820312,782.893798828125
1018,795.3846435546875,797.8021850585938,796.1904907226562,783.2966918945312
1019,786.1171875,793.3699340820312,793.3699340820312,779.6703491210938
1020,784.908447265625,790.5494384765625,786.923095703125,779.2673950195312
1021,794.5787353515625,791.3552856445312,789.7435913085938,782.4908447265625
1022,793.3699340820312,786.923095703125,789.3406372070312,788.5347900390625
1023,788.937744140625,790.1465454101562,785.7142944335938,789.3406372070312
1024,787.3259887695312,789.7435913085938,787.7289428710938,788.937744140625
1025,784.5054931640625,789.7435913085938,786.1171875,786.5201416015625
1026,786.923095703125,789.7435913085938,785.3113403320312,783.2966918945312
1027,790.1465454101562,790.1465454101562,782.893798828125,779.2673950195312
1028,794.981689453125,795.7875366210938,787.7289428710938,782.893798828125
1029,799.8168334960938,797.3992919921875,792.5640869140625,787.3259887695312
1030,794.5787353515625,791.7582397460938,788.937744140625,784.5054931640625
1031,788.5347900390625,787.7289428710938,786.1171875,782.893798828125
1032,797.3992919921875,790.1465454101562,785.3113403320312,784.5054931640625
1033,802.6373901367188,794.5787353515625,786.923095703125,787.3259887695312
1034,797.8021850585938,794.5787353515625,789.7435913085938,797.3992919921875
1035,792.5640869140625,790.952392578125,793.3699340820312,791.7582397460938
1036,790.5494384765625,785.3113403320312,790.1465454101562,784.1025390625
1037,787.3259887695312,784.5054931640625,791.7582397460938,787.7289428710938
1038,789.7435913085938,791.3552856445312,793.7728881835938,788.1318969726562
1039,790.952392578125,790.5494384765625,791.3552856445312,787.3259887695312
1040,794.1758422851562,790.952392578125,791.7582397460938,791.3552856445312
1041,796.5933837890625,793.7728881835938,791.7582397460938,794.981689453125
1042,794.5787353515625,795.3846435546875,790.1465454101562,794.981689453125
1043,794.5787353515625,792.5640869140625,789.3406372070312,788.1318969726562
1044,793.7728881835938,790.5494384765625,790.952392578125,783.6996459960938
1045,788.937744140625,789.7435913085938,788.5347900390625,787.7289428710938
1046,788.5347900390625,789.7435913085938,786.5201416015625,789.7435913085938
1047,794.5787353515625,791.7582397460938,788.5347900390625,784.908447265625
1048,786.1171875,789.3406372070312,783.6996459960938,778.4615478515625
1049,776.0439453125,788.1318969726562,784.908447265625,778.05859375
1050,771.6116943359375,790.1465454101562,788.5347900390625,772.8204956054688
1051,778.4615478515625,794.1758422851562,789.3406372070312,773.2234497070312
1052,786.5201416015625,795.7875366210938,790.1465454101562,778.8644409179688
1053,786.923095703125,792.967041015625,790.1465454101562,778.8644409179688
1054,790.5494384765625,792.1611938476562,790.5494384765625,782.893798828125
1055,784.5054931640625,785.7142944335938,788.5347900390625,779.6703491210938
1056,790.5494384765625,788.1318969726562,789.3406372070312,780.0732421875
1057,799.010986328125,791.7582397460938,789.3406372070312,789.3406372070312
1058,793.3699340820312,788.937744140625,787.7289428710938,785.7142944335938
1059,792.1611938476562,790.5494384765625,783.6996459960938,774.8351440429688
1060,790.5494384765625,787.7289428710938,780.4761962890625,774.029296875
1061,787.3259887695312,785.7142944335938,784.908447265625,777.6557006835938
1062,794.1758422851562,786.1171875,788.1318969726562,782.087890625
1063,792.967041015625,782.893798828125,790.952392578125,786.1171875
1064,787.7289428710938,786.1171875,793.7728881835938,786.923095703125
1065,788.1318969726562,788.937744140625,793.3699340820312,788.1318969726562
1066,787.7289428710938,784.908447265625,794.1758422851562,790.5494384765625
1067,786.1171875,782.893798828125,794.5787353515625,793.7728881835938
1068,784.908447265625,783.2966918945312,798.2051391601562,797.3992919921875
1069,784.1025390625,784.5054931640625,796.996337890625,794.1758422851562
1070,777.2527465820312,784.1025390625,793.3699340820312,784.5054931640625
1071,780.0732421875,786.1171875,796.1904907226562,785.7142944335938
1072,790.952392578125,788.1318969726562,797.8021850585938,790.952392578125
1073,794.981689453125,789.7435913085938,793.7728881835938,783.2966918945312
1074,792.1611938476562,788.5347900390625,794.5787353515625,778.4615478515625
1075,782.893798828125,784.908447265625,797.3992919921875,779.6703491210938
1076,777.6557006835938,784.908447265625,795.3846435546875,784.5054931640625
1077,776.8497924804688,784.5054931640625,793.7728881835938,784.1025390625
1078,780.4761962890625,787.3259887695312,794.1758422851562,784.1025390625
1079,782.4908447265625,783.6996459960938,793.3699340820312,784.1025390625
1080,780.4761962890625,781.6849975585938,791.3552856445312,779.2673950195312
1081,786.5201416015625,785.7142944335938,796.1904907226562,782.893798828125
1082,788.937744140625,786.1171875,799.4139404296875,784.1025390625
1083,790.5494384765625,786.1171875,798.2051391601562,783.2966918945312
1084,788.1318969726562,785.3113403320312,797.8021850585938,789.3406372070312
1085,780.879150390625,781.6849975585938,797.8021850585938,785.7142944335938
1086,790.5494384765625,781.6849975585938,797.8021850585938,786.923095703125
1087,800.2197875976562,782.087890625,797.3992919921875,790.1465454101562
1088,794.5787353515625,783.6996459960938,796.996337890625,787.3259887695312
1089,788.937744140625,783.2966918945312,799.4139404296875,788.937744140625
1090,785.3113403320312,780.4761962890625,794.981689453125,782.087890625
1091,781.6849975585938,783.6996459960938,790.5494384765625,782.893798828125
1092,784.5054931640625,788.1318969726562,794.1758422851562,790.1465454101562
1093,792.967041015625,788.1318969726562,796.5933837890625,782.087890625
1094,794.981689453125,786.5201416015625,798.6080322265625,779.6703491210938
1095,787.7289428710938,785.7142944335938,794.981689453125,783.2966918945312
1096,788.5347900390625,788.5347900390625,793.3699340820312,778.8644409179688
1097,795.3846435546875,791.7582397460938,801.4285888671875,776.4468994140625
1098,792.967041015625,790.5494384765625,797.8021850585938,780.4761962890625
1099,784.908447265625,789.3406372070312,794.1758422851562,784.908447265625
1100,783.6996459960938,789.3406372070312,799.010986328125,785.3113403320312
1101,782.893798828125,786.5201416015625,796.1904907226562,780.4761962890625
1102,782.893798828125,784.908447265625,792.967041015625,778.4615478515625
1103,791.3552856445312,782.087890625,791.7582397460938,783.2966918945312
1104,794.5787353515625,787.7289428710938,788.5347900390625,787.7289428710938
1105,792.967041015625,791.3552856445312,789.7435913085938,786.1171875
1106,789.3406372070312,790.1465454101562,793.3699340820312,784.908447265625
1107,791.3552856445312,790.952392578125,795.3846435546875,793.7728881835938
1108,794.1758422851562,787.3259887695312,791.7582397460938,790.952392578125
1109,791.3552856445312,788.1318969726562,790.1465454101562,786.1171875
1110,792.5640869140625,792.967041015625,791.3552856445312,788.937744140625
1111,792.5640869140625,791.3552856445312,788.5347900390625,784.5054931640625
1112,791.7582397460938,786.5201416015625,787.7289428710938,784.1025390625
1113,793.7728881835938,786.1171875,786.5201416015625,781.2820434570312
1114,796.5933837890625,786.1171875,784.5054931640625,779.2673950195312
1115,794.1758422851562,786.5201416015625,782.893798828125,779.2673950195312
1116,791.7582397460938,789.7435913085938,784.5054931640625,777.2527465820312
1117,791.7582397460938,789.7435913085938,788.1318969726562,780.0732421875
1118,792.5640869140625,787.7289428710938,790.952392578125,790.1465454101562
1119,791.7582397460938,788.937744140625,791.3552856445312,792.1611938476562
1120,788.5347900390625,788.5347900390625,789.7435913085938,786.923095703125
1121,788.1318969726562,784.908447265625,786.923095703125,786.923095703125
1122,792.1611938476562,780.879150390625,787.3259887695312,783.6996459960938
1123,794.5787353515625,785.7142944335938,792.967041015625,790.5494384765625
1124,791.7582397460938,786.5201416015625,790.5494384765625,790.952392578125
1125,789.7435913085938,783.2966918945312,788.5347900390625,789.3406372070312
1126,785.3113403320312,783.6996459960938,791.3552856445312,788.5347900390625
1127,781.6849975585938,783.2966918945312,794.1758422851562,782.4908447265625
1128,785.3113403320312,784.1025390625,795.7875366210938,783.2966918945312
1129,792.5640869140625,787.3259887695312,796.1904907226562,791.3552856445312
1130,805.054931640625,788.937744140625,794.981689453125,803.040283203125
1131,802.6373901367188,787.7289428710938,791.7582397460938,795.3846435546875
1132,795.3846435546875,784.908447265625,790.952392578125,780.879150390625
1133,799.010986328125,784.5054931640625,790.5494384765625,780.4761962890625
1134,798.2051391601562,787.7289428710938,790.1465454101562,785.3113403320312
1135,791.7582397460938,788.5347900390625,786.1171875,781.6849975585938
1136,792.5640869140625,788.937744140625,785.7142944335938,781.2820434570312
1137,792.967041015625,791.7582397460938,787.3259887695312,788.937744140625
1138,792.967041015625,792.967041015625,793.7728881835938,789.7435913085938
1139,792.1611938476562,791.3552856445312,796.5933837890625,784.5054931640625
1140,793.7728881835938,790.1465454101562,792.967041015625,784.908447265625
1141,791.7582397460938,786.1171875,792.1611938476562,789.7435913085938
1142,779.6703491210938,782.893798828125,790.5494384765625,788.5347900390625
1143,776.4468994140625,782.893798828125,790.1465454101562,778.8644409179688
1144,783.2966918945312,780.4761962890625,790.1465454101562,779.2673950195312
1145,786.5201416015625,780.0732421875,787.3259887695312,782.893798828125
1146,786.5201416015625,784.5054931640625,792.967041015625,786.923095703125
1147,785.7142944335938,787.7289428710938,794.981689453125,793.3699340820312
1148,788.1318969726562,788.1318969726562,792.1611938476562,795.3846435546875
1149,795.3846435546875,788.5347900390625,792.5640869140625,794.981689453125
1150,801.025634765625,789.3406372070312,795.3846435546875,800.2197875976562
1151,795.3846435546875,789.3406372070312,796.5933837890625,799.010986328125
1152,793.7728881835938,788.5347900390625,796.5933837890625,796.5933837890625
1153,793.7728881835938,791.3552856445312,795.3846435546875,798.2051391601562
1154,784.1025390625,791.3552856445312,789.7435913085938,788.5347900390625
1155,782.087890625,788.937744140625,792.1611938476562,782.4908447265625
1156,782.4908447265625,782.893798828125,794.1758422851562,777.6557006835938
1157,777.6557006835938,782.893798828125,792.1611938476562,777.2527465820312
1158,781.2820434570312,789.7435913085938,793.7728881835938,780.0732421875
1159,784.5054931640625,790.5494384765625,792.5640869140625,780.4761962890625
1160,786.923095703125,789.3406372070312,794.5787353515625,783.2966918945312
1161,790.952392578125,792.5640869140625,796.5933837890625,780.879150390625
1162,784.1025390625,793.3699340820312,796.1904907226562,782.087890625
1163,788.1318969726562,792.1611938476562,799.4139404296875,788.937744140625
1164,796.1904907226562,789.3406372070312,799.4139404296875,790.1465454101562
1165,792.5640869140625,792.967041015625,799.4139404296875,793.3699340820312
1166,795.7875366210938,798.2051391601562,798.6080322265625,792.5640869140625
1167,792.5640869140625,796.1904907226562,796.1904907226562,788.5347900390625
1168,784.1025390625,793.3699340820312,795.7875366210938,792.1611938476562
1169,788.5347900390625,786.1171875,796.5933837890625,789.3406372070312
1170,794.5787353515625,788.937744140625,797.8021850585938,787.3259887695312
1171,801.4285888671875,797.8021850585938,800.2197875976562,792.1611938476562
1172,794.981689453125,795.3846435546875,801.025634765625,788.5347900390625
1173,790.1465454101562,793.3699340820312,799.010986328125,786.1171875
1174,791.3552856445312,790.952392578125,796.1904907226562,790.5494384765625
1175,795.3846435546875,788.937744140625,793.7728881835938,794.5787353515625
1176,803.8461303710938,790.952392578125,795.3846435546875,795.3846435546875
1177,799.4139404296875,792.5640869140625,801.4285888671875,786.5201416015625
1178,795.3846435546875,788.5347900390625,797.3992919921875,778.4615478515625
1179,796.1904907226562,790.5494384765625,794.981689453125,781.2820434570312
1180,796.996337890625,791.7582397460938,796.1904907226562,784.5054931640625
1181,796.1904907226562,784.5054931640625,790.1465454101562,784.908447265625
1182,799.010986328125,785.3113403320312,792.1611938476562,784.908447265625
1183,799.8168334960938,788.5347900390625,796.1904907226562,784.908447265625
1184,795.7875366210938,788.1318969726562,792.967041015625,786.5201416015625
1185,796.1904907226562,789.3406372070312,791.3552856445312,784.5054931640625
1186,798.2051391601562,791.3552856445312,793.3699340820312,785.3113403320312
1187,793.7728881835938,787.3259887695312,791.3552856445312,786.923095703125
1188,792.5640869140625,788.5347900390625,790.952392578125,786.1171875
1189,788.937744140625,790.5494384765625,791.7582397460938,776.0439453125
1190,790.952392578125,791.3552856445312,792.5640869140625,774.8351440429688
1191,796.5933837890625,792.1611938476562,795.3846435546875,788.1318969726562
1192,794.5787353515625,792.5640869140625,794.5787353515625,790.952392578125
1193,787.3259887695312,790.1465454101562,788.1318969726562,785.3113403320312
1194,784.5054931640625,790.952392578125,786.5201416015625,778.05859375
1195,789.7435913085938,794.981689453125,790.952392578125,781.6849975585938
1196,796.996337890625,794.5787353515625,788.5347900390625,789.3406372070312
1197,794.981689453125,791.7582397460938,782.4908447265625,782.893798828125
1198,789.3406372070312,790.952392578125,787.3259887695312,784.5054931640625
1199,789.3406372070312,791.7582397460938,792.1611938476562,792.1611938476562
1200,787.7289428710938,790.1465454101562,789.7435913085938,788.1318969726562
1201,786.923095703125,782.4908447265625,789.7435913085938,786.1171875
1202,788.5347900390625,778.05859375,790.952392578125,793.7728881835938
1203,786.5201416015625,781.6849975585938,785.3113403320312,792.1611938476562
1204,784.908447265625,780.879150390625,785.3113403320312,779.6703491210938
1205,792.5640869140625,781.6849975585938,790.952392578125,781.2820434570312
1206,801.4285888671875,787.7289428710938,792.1611938476562,788.1318969726562
1207,796.1904907226562,788.5347900390625,791.3552856445312,785.7142944335938
1208,783.6996459960938,791.7582397460938,789.3406372070312,780.4761962890625
1209,783.6996459960938,792.5640869140625,790.1465454101562,782.4908447265625
1210,785.3113403320312,792.967041015625,787.3259887695312,788.5347900390625
1211,785.7142944335938,791.7582397460938,788.5347900390625,790.5494384765625
1212,788.1318969726562,789.3406372070312,791.7582397460938,787.7289428710938
1213,785.7142944335938,788.937744140625,789.7435913085938,786.923095703125
1214,784.5054931640625,784.908447265625,788.1318969726562,788.5347900390625
1215,788.5347900390625,784.908447265625,792.967041015625,788.937744140625
1216,790.952392578125,782.893798828125,792.5640869140625,789.3406372070312
1217,787.7289428710938,786.1171875,792.1611938476562,790.1465454101562
1218,788.5347900390625,789.3406372070312,795.3846435546875,788.937744140625
1219,794.5787353515625,789.3406372070312,791.3552856445312,784.1025390625
1220,795.3846435546875,793.3699340820312,790.952392578125,783.6996459960938
1221,794.1758422851562,794.5787353515625,793.3699340820312,793.3699340820312
1222,794.981689453125,791.3552856445312,791.3552856445312,796.996337890625
1223,796.996337890625,788.937744140625,793.7728881835938,796.996337890625
1224,794.5787353515625,789.7435913085938,793.7728881835938,794.1758422851562
1225,796.5933837890625,788.937744140625,792.5640869140625,794.981689453125
1226,796.1904907226562,784.5054931640625,795.3846435546875,796.1904907226562
1227,800.2197875976562,787.3259887695312,796.1904907226562,794.981689453125
1228,805.054931640625,790.5494384765625,794.981689453125,791.3552856445312
1229,794.981689453125,786.923095703125,795.3846435546875,784.1025390625
1230,784.908447265625,783.2966918945312,793.7728881835938,784.908447265625
1231,782.4908447265625,782.4908447265625,791.7582397460938,788.5347900390625
1232,781.6849975585938,784.908447265625,788.5347900390625,785.3113403320312
1233,776.8497924804688,785.7142944335938,787.3259887695312,782.893798828125
1234,773.2234497070312,786.1171875,788.937744140625,780.0732421875
1235,775.6410522460938,791.3552856445312,792.967041015625,780.4761962890625
1236,782.893798828125,794.1758422851562,792.1611938476562,778.8644409179688
1237,788.5347900390625,787.7289428710938,788.937744140625,782.087890625
1238,791.3552856445312,783.2966918945312,790.5494384765625,784.908447265625
1239,797.8021850585938,783.6996459960938,794.1758422851562,783.2966918945312
1240,797.8021850585938,788.1318969726562,796.5933837890625,782.087890625
1241,794.5787353515625,790.952392578125,794.5787353515625,783.6996459960938
1242,796.1904907226562,790.952392578125,792.1611938476562,783.2966918945312
1243,796.5933837890625,787.7289428710938,788.5347900390625,779.2673950195312
1244,798.2051391601562,782.087890625,787.3259887695312,780.0732421875
1245,792.5640869140625,782.4908447265625,783.2966918945312,773.2234497070312
1246,792.1611938476562,785.7142944335938,786.5201416015625,775.2380981445312
1247,799.4139404296875,787.3259887695312,792.5640869140625,789.3406372070312
1248,794.1758422851562,782.893798828125,791.3552856445312,788.5347900390625
1249,788.1318969726562,783.2966918945312,792.1611938476562,794.981689453125
1250,785.7142944335938,788.5347900390625,794.5787353515625,791.7582397460938
1251,792.1611938476562,792.5640869140625,796.5933837890625,788.937744140625
1252,799.010986328125,790.5494384765625,796.996337890625,791.3552856445312
1253,800.6226806640625,792.5640869140625,794.5787353515625,790.5494384765625
1254,801.8314819335938,792.5640869140625,790.952392578125,785.3113403320312
1255,803.040283203125,790.5494384765625,789.7435913085938,783.2966918945312
1256,800.2197875976562,793.3699340820312,790.952392578125,784.908447265625
1257,799.010986328125,789.7435913085938,788.5347900390625,783.2966918945312
1258,803.040283203125,791.3552856445312,789.3406372070312,790.1465454101562
1259,801.8314819335938,796.1904907226562,794.1758422851562,791.7582397460938
1260,794.5787353515625,793.3699340820312,795.7875366210938,792.1611938476562
1261,792.1611938476562,793.3699340820312,795.7875366210938,793.3699340820312
1262,790.952392578125,792.1611938476562,795.7875366210938,789.7435913085938
1263,786.923095703125,787.7289428710938,790.1465454101562,784.908447265625
1264,784.1025390625,786.1171875,786.5201416015625,776.8497924804688
1265,782.4908447265625,786.5201416015625,789.3406372070312,776.4468994140625
1266,783.6996459960938,787.3259887695312,791.7582397460938,778.05859375
1267,794.1758422851562,792.1611938476562,792.967041015625,779.6703491210938
1268,798.6080322265625,796.5933837890625,794.981689453125,782.087890625
1269,797.8021850585938,796.1904907226562,799.8168334960938,782.893798828125
1270,792.1611938476562,792.5640869140625,796.996337890625,779.6703491210938
1271,786.1171875,787.7289428710938,793.3699340820312,778.8644409179688
1272,789.3406372070312,789.7435913085938,791.3552856445312,782.4908447265625
1273,796.1904907226562,788.937744140625,793.7728881835938,781.2820434570312
1274,794.1758422851562,790.1465454101562,794.5787353515625,780.879150390625
1275,790.952392578125,790.5494384765625,791.7582397460938,784.5054931640625
1276,793.7728881835938,789.3406372070312,788.937744140625,789.7435913085938
1277,796.5933837890625,790.952392578125,786.5201416015625,788.5347900390625
1278,806.2637329101562,791.7582397460938,789.3406372070312,793.3699340820312
1279,807.069580078125,792.5640869140625,792.5640869140625,792.967041015625
1280,800.2197875976562,792.967041015625,793.7728881835938,791.7582397460938
1281,798.6080322265625,792.1611938476562,797.3992919921875,794.5787353515625
1282,800.6226806640625,792.1611938476562,798.2051391601562,794.5787353515625
1283,803.4432373046875,792.1611938476562,798.2051391601562,801.8314819335938
1284,797.3992919921875,790.952392578125,798.6080322265625,796.996337890625
1285,789.7435913085938,788.5347900390625,796.1904907226562,783.2966918945312
1286,790.952392578125,790.1465454101562,794.1758422851562,781.6849975585938
1287,790.952392578125,794.5787353515625,794.981689453125,789.3406372070312
1288,793.7728881835938,794.981689453125,794.981689453125,791.7582397460938
1289,794.1758422851562,792.967041015625,796.1904907226562,785.3113403320312
1290,791.3552856445312,792.967041015625,801.4285888671875,783.6996459960938
1291,792.5640869140625,796.5933837890625,797.8021850585938,782.4908447265625
1292,789.7435913085938,794.1758422851562,790.952392578125,782.087890625
1293,785.7142944335938,790.952392578125,793.3699340820312,790.1465454101562
1294,793.7728881835938,800.6226806640625,798.2051391601562,801.4285888671875
1295,795.3846435546875,801.025634765625,796.996337890625,796.5933837890625
1296,788.937744140625,790.5494384765625,791.7582397460938,786.923095703125
1297,785.3113403320312,789.3406372070312,797.3992919921875,791.7582397460938
1298,786.923095703125,790.5494384765625,801.025634765625,802.2344360351562
1299,791.7582397460938,792.1611938476562,795.7875366210938,804.2490844726562
1300,786.1171875,793.3699340820312,794.5787353515625,791.7582397460938
1301,788.1318969726562,789.3406372070312,796.1904907226562,788.1318969726562
1302,789.7435913085938,788.1318969726562,796.5933837890625,789.7435913085938
1303,794.1758422851562,792.5640869140625,796.996337890625,789.3406372070312
1304,796.5933837890625,795.7875366210938,797.3992919921875,789.7435913085938
1305,793.3699340820312,799.010986328125,796.996337890625,790.5494384765625
1306,790.1465454101562,795.3846435546875,794.981689453125,788.5347900390625
1307,793.3699340820312,792.5640869140625,795.7875366210938,784.908447265625
1308,796.1904907226562,794.1758422851562,799.010986328125,784.5054931640625
1309,792.967041015625,795.7875366210938,793.7728881835938,784.908447265625
1310,791.7582397460938,792.1611938476562,793.3699340820312,794.5787353515625
1311,788.1318969726562,792.1611938476562,797.8021850585938,799.4139404296875
1312,784.5054931640625,792.5640869140625,795.3846435546875,789.7435913085938
1313,789.3406372070312,791.7582397460938,794.5787353515625,788.5347900390625
1314,791.7582397460938,790.1465454101562,791.3552856445312,791.7582397460938
1315,787.3259887695312,788.1318969726562,791.3552856445312,789.3406372070312
1316,788.1318969726562,792.967041015625,792.967041015625,784.5054931640625
1317,790.952392578125,789.7435913085938,791.7582397460938,786.5201416015625
1318,796.1904907226562,788.5347900390625,794.5787353515625,788.937744140625
1319,802.2344360351562,791.7582397460938,795.3846435546875,784.908447265625
1320,804.6520385742188,788.5347900390625,792.5640869140625,782.893798828125
1321,801.8314819335938,787.3259887695312,792.1611938476562,786.1171875
1322,790.1465454101562,787.3259887695312,791.7582397460938,794.1758422851562
1323,784.1025390625,787.3259887695312,790.5494384765625,792.5640869140625
1324,790.1465454101562,785.7142944335938,791.3552856445312,786.1171875
1325,790.5494384765625,788.1318969726562,790.5494384765625,784.5054931640625
1326,783.6996459960938,788.937744140625,789.7435913085938,782.087890625
1327,776.8497924804688,785.7142944335938,790.5494384765625,776.8497924804688
1328,773.2234497070312,779.6703491210938,792.967041015625,770.8058471679688
1329,781.6849975585938,784.5054931640625,793.7728881835938,778.8644409179688
1330,790.5494384765625,792.967041015625,794.1758422851562,789.7435913085938
1331,789.3406372070312,790.5494384765625,790.1465454101562,786.5201416015625
1332,786.923095703125,789.3406372070312,789.3406372070312,784.908447265625
1333,787.7289428710938,793.3699340820312,790.952392578125,790.952392578125
1334,790.1465454101562,792.5640869140625,790.1465454101562,789.3406372070312
1335,792.967041015625,790.952392578125,786.5201416015625,787.3259887695312
1336,790.952392578125,790.1465454101562,788.1318969726562,786.5201416015625
1337,786.1171875,786.5201416015625,789.3406372070312,780.4761962890625
1338,786.1171875,787.3259887695312,787.3259887695312,778.05859375
1339,792.1611938476562,785.7142944335938,793.3699340820312,782.893798828125
1340,794.981689453125,783.6996459960938,792.5640869140625,786.923095703125
1341,791.7582397460938,787.3259887695312,787.3259887695312,785.7142944335938
1342,787.3259887695312,788.1318969726562,787.3259887695312,780.4761962890625
1343,789.7435913085938,790.5494384765625,790.5494384765625,782.893798828125
1344,794.5787353515625,794.1758422851562,793.3699340820312,790.5494384765625
1345,800.6226806640625,790.1465454101562,794.5787353515625,789.7435913085938
1346,799.8168334960938,789.7435913085938,794.5787353515625,785.3113403320312
1347,794.5787353515625,792.5640869140625,792.5640869140625,786.1171875
1348,793.7728881835938,787.7289428710938,791.7582397460938,783.6996459960938
1349,792.5640869140625,782.4908447265625,792.967041015625,782.087890625
1350,792.5640869140625,783.6996459960938,788.937744140625,786.1171875
1351,792.1611938476562,784.1025390625,788.1318969726562,786.923095703125
1352,793.3699340820312,787.3259887695312,788.937744140625,785.3113403320312
1353,789.3406372070312,788.1318969726562,788.937744140625,785.3113403320312
1354,788.937744140625,786.923095703125,786.923095703125,780.4761962890625
1355,788.5347900390625,788.5347900390625,784.908447265625,778.05859375
1356,788.1318969726562,796.996337890625,784.908447265625,782.893798828125
1357,790.952392578125,794.1758422851562,793.3699340820312,784.1025390625
1358,793.7728881835938,789.3406372070312,795.3846435546875,777.2527465820312
1359,792.967041015625,790.5494384765625,793.7728881835938,780.4761962890625
1360,790.1465454101562,789.3406372070312,793.7728881835938,783.2966918945312
1361,794.5787353515625,789.7435913085938,794.1758422851562,783.6996459960938
1362,791.3552856445312,794.981689453125,795.3846435546875,782.893798828125
1363,787.3259887695312,798.2051391601562,795.7875366210938,778.4615478515625
1364,789.3406372070312,794.1758422851562,794.981689453125,777.2527465820312
1365,786.923095703125,787.3259887695312,791.7582397460938,774.029296875
1366,786.5201416015625,786.5201416015625,792.1611938476562,777.6557006835938
1367,787.3259887695312,786.923095703125,792.1611938476562,781.2820434570312
1368,786.923095703125,786.1171875,791.7582397460938,783.2966918945312
1369,788.937744140625,785.3113403320312,792.967041015625,782.893798828125
1370,797.3992919921875,783.2966918945312,791.7582397460938,786.5201416015625
1371,800.6226806640625,781.6849975585938,789.3406372070312,790.952392578125
1372,795.7875366210938,786.923095703125,790.5494384765625,790.5494384765625
1373,794.1758422851562,789.7435913085938,790.952392578125,785.7142944335938
1374,792.967041015625,788.1318969726562,787.3259887695312,783.2966918945312
1375,796.5933837890625,789.7435913085938,790.1465454101562,786.5201416015625
1376,796.5933837890625,787.3259887695312,793.3699340820312,792.1611938476562
1377,791.3552856445312,787.3259887695312,794.981689453125,786.923095703125
1378,794.5787353515625,791.7582397460938,795.7875366210938,782.087890625
1379,798.2051391601562,790.952392578125,796.5933837890625,786.923095703125
1380,796.1904907226562,788.5347900390625,793.3699340820312,787.3259887695312
1381,796.1904907226562,789.7435913085938,789.7435913085938,787.3259887695312
1382,796.5933837890625,791.3552856445312,789.3406372070312,786.5201416015625
1383,791.3552856445312,792.1611938476562,789.3406372070312,790.1465454101562
1384,788.5347900390625,788.937744140625,792.967041015625,791.3552856445312
1385,790.5494384765625,786.923095703125,797.3992919921875,786.923095703125
1386,790.1465454101562,788.5347900390625,797.3992919921875,790.1465454101562
1387,787.7289428710938,787.3259887695312,799.4139404296875,786.923095703125
1388,784.908447265625,788.5347900390625,796.1904907226562,782.893798828125
1389,783.2966918945312,790.1465454101562,792.967041015625,787.3259887695312
1390,781.2820434570312,784.1025390625,794.5787353515625,787.3259887695312
1391,783.6996459960938,780.4761962890625,795.3846435546875,784.1025390625
1392,789.7435913085938,787.7289428710938,793.3699340820312,783.6996459960938
1393,794.1758422851562,792.5640869140625,796.996337890625,783.2966918945312
1394,799.010986328125,790.5494384765625,803.040283203125,783.6996459960938
1395,796.996337890625,788.5347900390625,800.2197875976562,791.7582397460938
1396,800.6226806640625,788.5347900390625,799.4139404296875,791.7582397460938
1397,796.5933837890625,788.937744140625,796.996337890625,780.879150390625
1398,794.5787353515625,789.7435913085938,798.2051391601562,783.2966918945312
1399,792.5640869140625,790.1465454101562,798.2051391601562,784.908447265625
1400,789.3406372070312,786.5201416015625,794.981689453125,788.5347900390625
1401,792.967041015625,789.7435913085938,793.3699340820312,790.1465454101562
1402,797.3992919921875,792.5640869140625,794.1758422851562,791.7582397460938
1403,799.4139404296875,789.7435913085938,792.967041015625,797.3992919921875
1404,799.4139404296875,790.1465454101562,793.3699340820312,793.3699340820312
1405,795.3846435546875,787.7289428710938,793.3699340820312,790.1465454101562
1406,795.7875366210938,786.923095703125,790.5494384765625,797.3992919921875
1407,795.7875366210938,794.981689453125,791.7582397460938,792.5640869140625
1408,797.3992919921875,791.7582397460938,790.952392578125,786.5201416015625
1409,794.1758422851562,790.1465454101562,789.3406372070312,787.3259887695312
1410,790.1465454101562,791.7582397460938,790.5494384765625,794.981689453125
1411,792.967041015625,792.1611938476562,788.5347900390625,797.8021850585938
1412,792.1611938476562,789.3406372070312,782.893798828125,788.5347900390625
1413,793.7728881835938,792.5640869140625,786.1171875,789.3406372070312
1414,793.7728881835938,794.981689453125,790.952392578125,794.5787353515625
1415,798.2051391601562,793.3699340820312,790.1465454101562,796.5933837890625
1416,799.4139404296875,792.1611938476562,786.5201416015625,796.996337890625
1417,794.5787353515625,788.5347900390625,786.1171875,796.996337890625
1418,795.7875366210938,789.7435913085938,790.5494384765625,801.8314819335938
1419,795.3846435546875,792.1611938476562,788.937744140625,795.3846435546875
1420,792.967041015625,790.1465454101562,786.5201416015625,790.1465454101562
1421,792.1611938476562,789.3406372070312,783.6996459960938,793.3699340820312
1422,793.7728881835938,788.5347900390625,784.908447265625,790.5494384765625
1423,801.025634765625,794.5787353515625,786.5201416015625,792.5640869140625
1424,803.4432373046875,798.6080322265625,787.7289428710938,795.3846435546875
1425,807.87548828125,799.010986328125,789.7435913085938,799.8168334960938
1426,811.90478515625,800.6226806640625,791.3552856445312,802.6373901367188
1427,814.3223266601562,800.6226806640625,794.5787353515625,796.996337890625
1428,816.3369750976562,801.025634765625,796.1904907226562,797.3992919921875
1429,806.2637329101562,797.8021850585938,794.5787353515625,795.3846435546875
1430,799.4139404296875,799.010986328125,792.1611938476562,793.7728881835938
1431,792.967041015625,800.6226806640625,790.952392578125,792.967041015625
1432,789.3406372070312,797.8021850585938,791.3552856445312,791.3552856445312
1433,790.5494384765625,789.3406372070312,792.967041015625,788.1318969726562
1434,786.923095703125,786.1171875,793.7728881835938,785.3113403320312
1435,784.5054931640625,792.1611938476562,792.967041015625,784.908447265625
1436,787.7289428710938,791.3552856445312,791.3552856445312,784.5054931640625
1437,793.3699340820312,788.937744140625,796.1904907226562,790.952392578125
1438,787.7289428710938,785.7142944335938,798.2051391601562,790.1465454101562
1439,785.3113403320312,786.923095703125,792.967041015625,785.3113403320312
1440,788.1318969726562,788.5347900390625,787.3259887695312,783.2966918945312
1441,787.7289428710938,787.7289428710938,790.5494384765625,793.3699340820312
1442,792.1611938476562,788.5347900390625,796.1904907226562,793.7728881835938
1443,797.8021850585938,786.1171875,795.3846435546875,788.937744140625
1444,800.6226806640625,789.7435913085938,793.3699340820312,789.3406372070312
1445,797.8021850585938,789.7435913085938,796.1904907226562,788.937744140625
1446,799.010986328125,792.5640869140625,794.5787353515625,787.3259887695312
1447,804.6520385742188,796.5933837890625,793.3699340820312,786.923095703125
1448,800.6226806640625,792.5640869140625,797.8021850585938,786.5201416015625
1449,792.5640869140625,793.7728881835938,795.7875366210938,786.1171875
1450,790.5494384765625,796.5933837890625,797.8021850585938,786.923095703125
1451,796.996337890625,794.5787353515625,801.8314819335938,787.3259887695312
1452,800.2197875976562,792.967041015625,799.010986328125,793.3699340820312
1453,794.981689453125,792.1611938476562,796.996337890625,794.5787353515625
1454,789.7435913085938,788.5347900390625,796.1904907226562,788.937744140625
1455,797.8021850585938,789.3406372070312,797.8021850585938,788.5347900390625
1456,793.7728881835938,790.1465454101562,801.025634765625,791.7582397460938
1457,787.3259887695312,790.952392578125,802.6373901367188,792.5640869140625
1458,793.7728881835938,792.967041015625,801.8314819335938,792.1611938476562
1459,793.3699340820312,788.937744140625,798.2051391601562,783.6996459960938
1460,788.5347900390625,786.1171875,794.981689453125,777.2527465820312
1461,778.05859375,787.7289428710938,790.5494384765625,776.4468994140625
1462,779.2673950195312,788.1318969726562,793.7728881835938,782.893798828125
1463,786.1171875,786.1171875,796.996337890625,788.1318969726562
1464,783.2966918945312,787.3259887695312,795.3846435546875,783.6996459960938
1465,779.6703491210938,785.7142944335938,794.981689453125,779.6703491210938
1466,773.6264038085938,785.7142944335938,795.3846435546875,775.6410522460938
1467,779.6703491210938,788.1318969726562,794.981689453125,783.2966918945312
1468,782.893798828125,783.6996459960938,785.3113403320312,782.893798828125
1469,773.2234497070312,781.2820434570312,784.908447265625,777.6557006835938
1470,773.2234497070312,784.5054931640625,788.937744140625,782.087890625
1471,775.6410522460938,784.1025390625,789.7435913085938,783.2966918945312
1472,777.6557006835938,785.3113403320312,796.5933837890625,782.4908447265625
1473,788.5347900390625,792.5640869140625,796.996337890625,784.1025390625
1474,789.3406372070312,788.5347900390625,791.3552856445312,780.4761962890625
1475,786.923095703125,780.879150390625,789.3406372070312,775.2380981445312
1476,788.1318969726562,785.3113403320312,786.1171875,778.4615478515625
1477,792.967041015625,792.1611938476562,786.923095703125,782.4908447265625
1478,795.7875366210938,794.5787353515625,789.3406372070312,785.7142944335938
1479,794.1758422851562,791.3552856445312,791.3552856445312,793.3699340820312
1480,791.3552856445312,790.5494384765625,796.996337890625,792.967041015625
1481,789.3406372070312,790.952392578125,800.6226806640625,784.908447265625
1482,793.7728881835938,788.1318969726562,801.025634765625,788.1318969726562
1483,795.7875366210938,790.1465454101562,795.7875366210938,789.7435913085938
1484,795.3846435546875,787.7289428710938,789.3406372070312,786.5201416015625
1485,794.981689453125,786.923095703125,789.7435913085938,783.6996459960938
1486,790.952392578125,788.937744140625,790.1465454101562,784.1025390625
1487,793.3699340820312,787.3259887695312,788.937744140625,782.4908447265625
1488,794.981689453125,789.7435913085938,788.5347900390625,782.893798828125
1489,793.7728881835938,791.3552856445312,786.923095703125,785.3113403320312
1490,793.3699340820312,792.5640869140625,788.1318969726562,789.7435913085938
1491,792.967041015625,792.1611938476562,786.5201416015625,789.3406372070312
1492,795.3846435546875,791.7582397460938,788.1318969726562,782.087890625
1493,793.7728881835938,790.1465454101562,792.1611938476562,776.8497924804688
1494,799.4139404296875,788.1318969726562,790.952392578125,781.6849975585938
1495,796.1904907226562,787.3259887695312,791.7582397460938,784.5054931640625
1496,789.3406372070312,787.7289428710938,792.5640869140625,782.087890625
1497,791.7582397460938,787.3259887695312,792.1611938476562,784.5054931640625
1498,794.1758422851562,792.5640869140625,792.1611938476562,788.5347900390625
1499,796.1904907226562,794.1758422851562,791.7582397460938,790.5494384765625
1500,793.3699340820312,792.5640869140625,791.7582397460938,792.5640869140625
1501,785.3113403320312,790.5494384765625,791.7582397460938,789.3406372070312
1502,786.923095703125,792.5640869140625,793.7728881835938,794.5787353515625
1503,792.1611938476562,794.1758422851562,792.967041015625,793.3699340820312
1504,793.3699340820312,793.3699340820312,793.7728881835938,785.3113403320312
1505,792.5640869140625,792.967041015625,794.1758422851562,786.923095703125
1506,796.5933837890625,793.7728881835938,793.3699340820312,788.5347900390625
1507,799.8168334960938,792.967041015625,794.981689453125,787.7289428710938
1508,799.8168334960938,793.3699340820312,792.967041015625,790.1465454101562
1509,796.5933837890625,792.1611938476562,790.5494384765625,793.3699340820312
1510,795.3846435546875,791.7582397460938,792.967041015625,793.7728881835938
1511,788.5347900390625,792.5640869140625,794.5787353515625,788.1318969726562
1512,781.2820434570312,792.5640869140625,792.967041015625,782.893798828125
1513,782.087890625,792.5640869140625,793.3699340820312,784.1025390625
1514,784.908447265625,789.7435913085938,794.5787353515625,792.5640869140625
1515,784.908447265625,786.1171875,793.7728881835938,786.923095703125
1516,784.5054931640625,788.5347900390625,796.5933837890625,783.2966918945312
1517,786.1171875,791.3552856445312,795.7875366210938,787.7289428710938
1518,792.1611938476562,785.3113403320312,794.981689453125,787.3259887695312
1519,796.5933837890625,787.7289428710938,802.6373901367188,786.923095703125
1520,792.967041015625,791.7582397460938,796.5933837890625,783.6996459960938
1521,788.937744140625,789.3406372070312,791.3552856445312,784.1025390625
1522,788.937744140625,792.1611938476562,797.3992919921875,786.923095703125
1523,790.5494384765625,792.1611938476562,798.6080322265625,790.952392578125
1524,794.1758422851562,785.3113403320312,796.5933837890625,797.3992919921875
1525,798.2051391601562,784.5054931640625,792.1611938476562,804.6520385742188
1526,801.8314819335938,792.5640869140625,794.1758422851562,805.8607788085938
1527,796.5933837890625,794.981689453125,791.7582397460938,791.7582397460938
1528,793.7728881835938,788.937744140625,790.1465454101562,784.1025390625
1529,799.8168334960938,790.952392578125,795.3846435546875,790.5494384765625
1530,801.4285888671875,794.5787353515625,796.996337890625,792.5640869140625
1531,796.5933837890625,791.7582397460938,794.5787353515625,782.893798828125
1532,790.5494384765625,794.1758422851562,793.7728881835938,780.879150390625
1533,790.5494384765625,796.1904907226562,794.981689453125,782.893798828125
1534,794.1758422851562,794.5787353515625,793.3699340820312,782.087890625
1535,794.981689453125,792.1611938476562,792.967041015625,782.087890625
1536,787.7289428710938,794.981689453125,790.5494384765625,780.4761962890625
1537,787.3259887695312,792.967041015625,790.952392578125,783.2966918945312
1538,790.5494384765625,790.1465454101562,791.3552856445312,781.6849975585938
1539,784.1025390625,786.5201416015625,789.3406372070312,778.05859375
1540,784.5054931640625,783.6996459960938,791.7582397460938,785.7142944335938
1541,789.3406372070312,788.937744140625,794.5787353515625,781.6849975585938
1542,782.893798828125,790.5494384765625,794.1758422851562,775.2380981445312
1543,778.05859375,788.937744140625,790.952392578125,776.4468994140625
1544,785.7142944335938,791.3552856445312,790.1465454101562,784.1025390625
1545,785.7142944335938,792.5640869140625,790.1465454101562,786.5201416015625
1546,786.923095703125,792.5640869140625,790.952392578125,783.6996459960938
1547,790.1465454101562,791.3552856445312,794.5787353515625,777.2527465820312
1548,790.952392578125,789.7435913085938,792.967041015625,782.087890625
1549,788.1318969726562,788.1318969726562,792.1611938476562,786.923095703125
1550,788.937744140625,788.5347900390625,794.981689453125,782.087890625
1551,794.981689453125,792.1611938476562,796.5933837890625,782.087890625
1552,791.3552856445312,791.7582397460938,794.1758422851562,784.1025390625
1553,790.5494384765625,789.7435913085938,789.7435913085938,779.6703491210938
1554,797.8021850585938,788.937744140625,789.7435913085938,778.8644409179688
1555,794.1758422851562,789.3406372070312,790.952392578125,782.087890625
1556,790.5494384765625,787.7289428710938,792.5640869140625,781.6849975585938
1557,789.3406372070312,788.1318969726562,794.5787353515625,782.087890625
1558,789.3406372070312,790.5494384765625,788.937744140625,781.2820434570312
1559,795.3846435546875,788.937744140625,789.7435913085938,780.0732421875
1560,797.8021850585938,789.7435913085938,795.3846435546875,784.5054931640625
1561,801.4285888671875,792.5640869140625,795.3846435546875,786.5201416015625
1562,798.6080322265625,790.1465454101562,794.1758422851562,781.2820434570312
1563,789.3406372070312,789.7435913085938,792.1611938476562,783.2966918945312
1564,786.923095703125,789.7435913085938,787.7289428710938,784.908447265625
1565,796.5933837890625,791.3552856445312,790.1465454101562,783.2966918945312
1566,801.4285888671875,794.981689453125,792.967041015625,786.923095703125
1567,802.2344360351562,797.8021850585938,792.967041015625,790.5494384765625
1568,798.2051391601562,798.2051391601562,792.5640869140625,792.5640869140625
1569,793.7728881835938,796.1904907226562,790.1465454101562,786.923095703125
1570,799.4139404296875,795.7875366210938,788.1318969726562,786.5201416015625
1571,798.6080322265625,793.3699340820312,785.7142944335938,788.1318969726562
1572,789.3406372070312,791.7582397460938,788.5347900390625,784.5054931640625
1573,785.3113403320312,794.1758422851562,793.3699340820312,782.893798828125
1574,782.087890625,792.5640869140625,794.1758422851562,783.6996459960938
1575,788.937744140625,791.3552856445312,792.5640869140625,792.967041015625
1576,790.1465454101562,788.937744140625,790.952392578125,786.1171875
1577,788.937744140625,788.5347900390625,795.7875366210938,784.1025390625
1578,787.7289428710938,791.3552856445312,795.3846435546875,790.1465454101562
1579,784.5054931640625,789.7435913085938,793.3699340820312,785.3113403320312
1580,785.3113403320312,788.5347900390625,794.5787353515625,786.5201416015625
1581,793.3699340820312,789.7435913085938,790.952392578125,790.1465454101562
1582,795.3846435546875,789.7435913085938,792.5640869140625,790.1465454101562
1583,791.3552856445312,789.3406372070312,796.5933837890625,791.3552856445312
1584,789.3406372070312,784.908447265625,792.5640869140625,791.3552856445312
1585,794.5787353515625,783.2966918945312,790.5494384765625,794.5787353515625
1586,801.8314819335938,784.908447265625,792.5640869140625,795.7875366210938
