timestamp,RAW_TP9,RAW_AF7,RAW_AF8,RAW_TP10
1,800.6226806640625,795.7875366210938,789.7435913085938,788.1318969726562
2,788.5347900390625,786.923095703125,786.923095703125,785.7142944335938
3,787.3259887695312,784.5054931640625,786.1171875,788.1318969726562
4,790.952392578125,787.3259887695312,789.3406372070312,789.3406372070312
5,793.7728881835938,793.7728881835938,789.7435913085938,799.4139404296875
6,793.3699340820312,799.010986328125,790.5494384765625,803.4432373046875
7,788.937744140625,797.8021850585938,792.5640869140625,802.6373901367188
8,788.1318969726562,795.7875366210938,795.7875366210938,796.1904907226562
9,793.7728881835938,793.3699340820312,797.3992919921875,793.7728881835938
10,798.6080322265625,793.7728881835938,792.5640869140625,796.996337890625
11,798.2051391601562,790.952392578125,788.1318969726562,782.893798828125
12,801.025634765625,797.3992919921875,787.7289428710938,775.6410522460938
13,801.8314819335938,793.7728881835938,784.1025390625,780.0732421875
14,793.3699340820312,784.1025390625,785.7142944335938,780.0732421875
15,792.5640869140625,787.7289428710938,786.1171875,783.6996459960938
16,792.967041015625,785.7142944335938,785.7142944335938,790.1465454101562
17,793.7728881835938,788.1318969726562,793.3699340820312,802.6373901367188
18,791.3552856445312,793.3699340820312,799.010986328125,798.2051391601562
19,793.3699340820312,794.1758422851562,792.5640869140625,794.1758422851562
20,797.3992919921875,796.5933837890625,790.952392578125,796.5933837890625
21,789.3406372070312,794.981689453125,792.967041015625,794.5787353515625
22,787.7289428710938,792.5640869140625,792.5640869140625,797.8021850585938
23,786.1171875,790.5494384765625,789.7435913085938,796.5933837890625
24,784.5054931640625,789.7435913085938,790.1465454101562,796.1904907226562
25,787.3259887695312,792.1611938476562,794.5787353515625,794.5787353515625
26,789.7435913085938,791.7582397460938,796.996337890625,787.7289428710938
27,791.3552856445312,790.5494384765625,791.3552856445312,790.952392578125
28,788.1318969726562,790.1465454101562,788.5347900390625,793.3699340820312
29,788.5347900390625,790.952392578125,792.967041015625,784.908447265625
30,790.5494384765625,792.1611938476562,794.5787353515625,783.6996459960938
31,789.3406372070312,786.1171875,790.1465454101562,784.908447265625
32,788.5347900390625,788.937744140625,787.3259887695312,782.893798828125
33,784.908447265625,790.952392578125,788.5347900390625,780.0732421875
34,786.1171875,790.5494384765625,789.7435913085938,779.2673950195312
35,789.3406372070312,792.5640869140625,790.952392578125,786.5201416015625
36,788.937744140625,787.7289428710938,788.5347900390625,793.7728881835938
37,786.923095703125,786.5201416015625,793.3699340820312,788.937744140625
38,787.3259887695312,789.7435913085938,792.967041015625,790.952392578125
39,790.1465454101562,786.5201416015625,787.7289428710938,794.5787353515625
40,790.952392578125,789.3406372070312,786.5201416015625,791.7582397460938
41,790.952392578125,795.3846435546875,786.923095703125,792.5640869140625
42,791.3552856445312,788.937744140625,788.937744140625,790.5494384765625
43,795.7875366210938,784.5054931640625,790.5494384765625,801.025634765625
44,795.7875366210938,789.3406372070312,791.7582397460938,811.098876953125
45,791.7582397460938,797.8021850585938,790.952392578125,799.010986328125
46,787.7289428710938,796.1904907226562,788.1318969726562,787.7289428710938
47,788.1318969726562,788.1318969726562,788.937744140625,788.5347900390625
48,788.1318969726562,790.1465454101562,788.937744140625,785.3113403320312
49,788.1318969726562,795.7875366210938,789.3406372070312,784.1025390625
50,793.7728881835938,796.1904907226562,790.5494384765625,787.7289428710938
51,796.1904907226562,790.1465454101562,788.1318969726562,782.4908447265625
52,798.6080322265625,791.3552856445312,790.952392578125,779.6703491210938
53,796.5933837890625,795.3846435546875,794.981689453125,785.3113403320312
54,796.996337890625,795.7875366210938,794.5787353515625,788.5347900390625
55,802.2344360351562,797.8021850585938,794.981689453125,798.6080322265625
56,798.6080322265625,799.8168334960938,799.4139404296875,798.6080322265625
57,801.8314819335938,805.054931640625,796.5933837890625,794.1758422851562
58,802.2344360351562,797.8021850585938,797.8021850585938,797.3992919921875
59,798.6080322265625,790.1465454101562,801.025634765625,805.054931640625
60,795.3846435546875,794.1758422851562,798.2051391601562,805.4578857421875
61,799.8168334960938,799.8168334960938,796.5933837890625,801.8314819335938
62,803.8461303710938,796.5933837890625,798.2051391601562,812.3076782226562
63,794.5787353515625,789.7435913085938,801.025634765625,804.6520385742188
64,795.7875366210938,794.1758422851562,799.4139404296875,799.4139404296875
65,797.8021850585938,794.981689453125,797.3992919921875,803.4432373046875
66,788.1318969726562,782.893798828125,794.5787353515625,797.8021850585938
67,778.4615478515625,783.2966918945312,793.3699340820312,788.1318969726562
68,776.0439453125,793.7728881835938,792.967041015625,790.5494384765625
69,785.7142944335938,796.1904907226562,796.996337890625,800.2197875976562
70,785.7142944335938,789.3406372070312,799.4139404296875,801.8314819335938
71,782.087890625,782.893798828125,796.996337890625,788.937744140625
72,786.5201416015625,782.893798828125,795.3846435546875,781.6849975585938
73,787.3259887695312,786.923095703125,796.1904907226562,784.5054931640625
74,788.1318969726562,789.3406372070312,793.7728881835938,790.1465454101562
75,788.937744140625,788.937744140625,790.952392578125,789.3406372070312
76,786.5201416015625,787.7289428710938,790.5494384765625,780.4761962890625
77,789.3406372070312,784.1025390625,787.3259887695312,782.4908447265625
78,789.3406372070312,782.4908447265625,786.5201416015625,791.3552856445312
79,782.4908447265625,786.1171875,790.952392578125,784.5054931640625
80,782.087890625,789.7435913085938,789.7435913085938,779.2673950195312
81,788.937744140625,791.7582397460938,791.3552856445312,786.923095703125
82,793.3699340820312,794.981689453125,792.5640869140625,793.3699340820312
83,789.7435913085938,795.3846435546875,795.7875366210938,795.3846435546875
84,790.952392578125,792.967041015625,800.6226806640625,797.3992919921875
85,794.5787353515625,792.1611938476562,794.1758422851562,796.1904907226562
86,794.5787353515625,790.952392578125,791.7582397460938,796.996337890625
87,794.5787353515625,794.5787353515625,797.8021850585938,805.054931640625
88,801.8314819335938,793.3699340820312,801.8314819335938,808.6813354492188
89,802.6373901367188,788.1318969726562,796.5933837890625,807.4725341796875
90,799.010986328125,796.1904907226562,794.1758422851562,801.4285888671875
91,800.6226806640625,795.7875366210938,796.996337890625,791.3552856445312
92,801.4285888671875,795.7875366210938,797.3992919921875,791.3552856445312
93,795.7875366210938,800.2197875976562,796.996337890625,795.3846435546875
94,791.3552856445312,798.6080322265625,796.1904907226562,795.3846435546875
95,790.952392578125,794.1758422851562,798.6080322265625,789.3406372070312
96,792.967041015625,793.7728881835938,792.967041015625,786.1171875
97,795.7875366210938,794.1758422851562,785.7142944335938,789.7435913085938
98,793.3699340820312,786.5201416015625,784.908447265625,790.1465454101562
99,788.5347900390625,785.3113403320312,785.7142944335938,791.7582397460938
100,790.5494384765625,788.1318969726562,788.5347900390625,798.2051391601562
101,786.5201416015625,788.1318969726562,788.1318969726562,802.2344360351562
102,782.087890625,794.1758422851562,789.7435913085938,789.3406372070312
103,787.7289428710938,797.8021850585938,792.5640869140625,779.6703491210938
104,786.923095703125,793.7728881835938,788.937744140625,789.3406372070312
105,786.923095703125,792.5640869140625,792.1611938476562,793.7728881835938
106,790.952392578125,797.3992919921875,796.996337890625,794.981689453125
107,795.3846435546875,794.981689453125,793.3699340820312,790.952392578125
108,794.981689453125,796.1904907226562,790.5494384765625,786.1171875
109,789.3406372070312,799.8168334960938,793.7728881835938,790.1465454101562
110,791.3552856445312,795.3846435546875,795.3846435546875,791.7582397460938
111,794.5787353515625,791.3552856445312,797.3992919921875,789.7435913085938
112,794.981689453125,788.937744140625,797.8021850585938,790.952392578125
113,800.2197875976562,785.3113403320312,795.7875366210938,799.010986328125
114,793.7728881835938,790.1465454101562,799.8168334960938,794.981689453125
115,787.3259887695312,792.1611938476562,798.6080322265625,785.3113403320312
116,793.3699340820312,792.5640869140625,791.7582397460938,784.908447265625
117,792.1611938476562,794.5787353515625,792.967041015625,790.1465454101562
118,788.937744140625,797.3992919921875,795.7875366210938,791.7582397460938
119,789.7435913085938,793.3699340820312,796.1904907226562,783.6996459960938
120,792.1611938476562,789.3406372070312,797.3992919921875,786.5201416015625
121,790.5494384765625,791.7582397460938,797.8021850585938,796.5933837890625
122,788.937744140625,792.1611938476562,798.6080322265625,794.981689453125
123,795.7875366210938,788.5347900390625,798.6080322265625,803.8461303710938
124,799.010986328125,782.087890625,798.2051391601562,813.113525390625
125,792.1611938476562,784.5054931640625,800.2197875976562,802.6373901367188
126,789.7435913085938,794.981689453125,800.2197875976562,793.3699340820312
127,796.1904907226562,792.5640869140625,798.2051391601562,795.3846435546875
128,796.996337890625,792.1611938476562,796.1904907226562,801.025634765625
129,794.5787353515625,798.6080322265625,795.3846435546875,792.5640869140625
130,793.7728881835938,794.5787353515625,795.7875366210938,790.5494384765625
131,795.3846435546875,790.5494384765625,798.6080322265625,794.981689453125
132,792.1611938476562,790.5494384765625,797.3992919921875,792.5640869140625
133,786.923095703125,785.7142944335938,796.5933837890625,792.1611938476562
134,787.7289428710938,783.2966918945312,791.7582397460938,792.1611938476562
135,790.1465454101562,788.1318969726562,791.7582397460938,790.1465454101562
136,791.3552856445312,792.5640869140625,796.5933837890625,792.1611938476562
137,786.1171875,799.8168334960938,800.6226806640625,791.7582397460938
138,783.6996459960938,800.2197875976562,801.025634765625,787.7289428710938
139,785.3113403320312,796.1904907226562,793.7728881835938,790.5494384765625
140,786.923095703125,796.996337890625,791.7582397460938,796.5933837890625
141,784.5054931640625,794.5787353515625,793.3699340820312,794.981689453125
142,786.1171875,787.3259887695312,794.1758422851562,792.1611938476562
143,784.5054931640625,789.7435913085938,792.5640869140625,797.8021850585938
144,779.6703491210938,792.1611938476562,791.3552856445312,792.967041015625
145,790.5494384765625,788.937744140625,796.1904907226562,788.937744140625
146,795.3846435546875,786.923095703125,795.7875366210938,793.7728881835938
147,797.8021850585938,785.7142944335938,793.7728881835938,789.3406372070312
148,803.8461303710938,788.1318969726562,796.5933837890625,786.5201416015625
149,797.3992919921875,788.1318969726562,794.981689453125,788.5347900390625
150,796.5933837890625,792.5640869140625,792.5640869140625,784.908447265625
151,799.8168334960938,793.3699340820312,795.3846435546875,786.923095703125
152,798.2051391601562,789.7435913085938,795.7875366210938,786.5201416015625
153,791.3552856445312,789.3406372070312,791.7582397460938,782.087890625
154,793.7728881835938,788.1318969726562,788.1318969726562,780.4761962890625
155,799.8168334960938,788.937744140625,793.7728881835938,784.1025390625
156,791.7582397460938,788.1318969726562,797.3992919921875,784.908447265625
157,792.5640869140625,790.952392578125,795.3846435546875,781.6849975585938
158,799.4139404296875,794.5787353515625,795.3846435546875,784.1025390625
159,800.6226806640625,794.5787353515625,793.7728881835938,788.1318969726562
160,796.996337890625,785.7142944335938,793.7728881835938,786.5201416015625
161,788.937744140625,785.3113403320312,795.3846435546875,786.1171875
162,789.7435913085938,798.6080322265625,794.981689453125,801.8314819335938
163,792.1611938476562,798.2051391601562,794.1758422851562,808.2783813476562
164,787.7289428710938,798.2051391601562,793.3699340820312,798.2051391601562
165,794.1758422851562,799.010986328125,794.1758422851562,796.5933837890625
166,799.4139404296875,792.967041015625,794.981689453125,799.4139404296875
167,797.8021850585938,796.1904907226562,795.7875366210938,799.4139404296875
168,793.3699340820312,794.5787353515625,795.3846435546875,795.7875366210938
169,795.3846435546875,789.3406372070312,794.981689453125,794.981689453125
170,797.3992919921875,790.952392578125,795.7875366210938,792.5640869140625
171,794.981689453125,795.3846435546875,797.3992919921875,794.5787353515625
172,794.5787353515625,791.3552856445312,794.1758422851562,797.8021850585938
173,794.981689453125,786.5201416015625,794.1758422851562,794.1758422851562
174,794.1758422851562,789.3406372070312,797.8021850585938,797.3992919921875
175,790.5494384765625,796.1904907226562,798.6080322265625,796.996337890625
176,782.4908447265625,792.5640869140625,794.981689453125,797.8021850585938
177,780.4761962890625,782.893798828125,790.5494384765625,793.3699340820312
178,787.3259887695312,788.5347900390625,796.5933837890625,786.5201416015625
179,786.5201416015625,793.7728881835938,801.8314819335938,786.5201416015625
180,790.5494384765625,792.5640869140625,802.2344360351562,794.1758422851562
181,799.010986328125,788.1318969726562,802.2344360351562,800.6226806640625
182,788.937744140625,787.7289428710938,799.4139404296875,795.7875366210938
183,785.7142944335938,792.967041015625,798.6080322265625,800.6226806640625
184,794.1758422851562,792.967041015625,794.981689453125,814.7252807617188
185,796.996337890625,794.5787353515625,794.1758422851562,817.1428833007812
186,794.1758422851562,797.8021850585938,796.5933837890625,806.6666870117188
187,782.893798828125,794.981689453125,799.8168334960938,791.3552856445312
188,785.7142944335938,788.1318969726562,800.6226806640625,788.5347900390625
189,789.3406372070312,786.923095703125,793.3699340820312,789.7435913085938
190,792.1611938476562,790.952392578125,789.3406372070312,797.8021850585938
191,796.996337890625,788.937744140625,788.937744140625,796.5933837890625
192,799.4139404296875,790.1465454101562,787.3259887695312,789.3406372070312
193,792.967041015625,791.3552856445312,787.3259887695312,779.2673950195312
194,792.5640869140625,790.5494384765625,785.7142944335938,776.8497924804688
195,796.5933837890625,789.3406372070312,786.5201416015625,780.879150390625
196,792.5640869140625,785.7142944335938,791.3552856445312,784.908447265625
197,784.908447265625,789.7435913085938,789.7435913085938,798.2051391601562
198,782.893798828125,789.3406372070312,787.7289428710938,804.6520385742188
199,780.879150390625,786.5201416015625,789.7435913085938,797.8021850585938
200,788.937744140625,787.3259887695312,789.7435913085938,791.7582397460938
201,794.1758422851562,790.5494384765625,790.1465454101562,791.7582397460938
202,786.923095703125,793.3699340820312,789.7435913085938,790.5494384765625
203,784.1025390625,798.2051391601562,787.7289428710938,794.1758422851562
204,790.952392578125,795.7875366210938,788.1318969726562,801.025634765625
205,792.5640869140625,789.7435913085938,785.3113403320312,803.040283203125
206,791.7582397460938,790.952392578125,786.5201416015625,794.5787353515625
207,790.5494384765625,792.1611938476562,795.7875366210938,785.7142944335938
208,784.5054931640625,790.952392578125,793.7728881835938,790.952392578125
209,792.1611938476562,790.5494384765625,788.5347900390625,805.054931640625
210,795.7875366210938,793.3699340820312,794.5787353515625,797.3992919921875
211,797.8021850585938,793.3699340820312,799.010986328125,799.010986328125
212,799.4139404296875,787.3259887695312,800.6226806640625,808.6813354492188
213,794.5787353515625,789.3406372070312,796.996337890625,798.6080322265625
214,789.7435913085938,792.967041015625,793.3699340820312,789.3406372070312
215,790.952392578125,789.3406372070312,792.967041015625,787.7289428710938
216,794.5787353515625,792.1611938476562,795.7875366210938,791.3552856445312
217,788.1318969726562,801.025634765625,798.2051391601562,793.7728881835938
218,784.1025390625,798.6080322265625,795.3846435546875,791.7582397460938
219,789.3406372070312,791.7582397460938,793.7728881835938,788.5347900390625
220,794.1758422851562,794.5787353515625,792.1611938476562,793.7728881835938
221,793.3699340820312,796.1904907226562,794.981689453125,792.5640869140625
222,788.1318969726562,790.1465454101562,794.5787353515625,787.7289428710938
223,785.7142944335938,784.908447265625,792.5640869140625,790.1465454101562
224,785.3113403320312,785.7142944335938,795.3846435546875,788.5347900390625
225,787.7289428710938,791.7582397460938,796.1904907226562,786.5201416015625
226,790.1465454101562,792.1611938476562,792.967041015625,788.5347900390625
227,792.967041015625,790.1465454101562,792.967041015625,792.1611938476562
228,796.1904907226562,787.7289428710938,791.7582397460938,795.7875366210938
229,797.8021850585938,786.5201416015625,788.1318969726562,795.7875366210938
230,798.2051391601562,791.7582397460938,790.1465454101562,799.8168334960938
231,796.5933837890625,790.5494384765625,790.1465454101562,807.87548828125
232,795.7875366210938,786.5201416015625,792.5640869140625,811.098876953125
233,799.8168334960938,786.1171875,797.8021850585938,813.91943359375
234,800.6226806640625,790.952392578125,795.3846435546875,808.2783813476562
235,804.2490844726562,790.5494384765625,793.7728881835938,800.6226806640625
236,801.8314819335938,788.5347900390625,794.981689453125,796.1904907226562
237,796.5933837890625,788.1318969726562,796.1904907226562,791.7582397460938
238,799.010986328125,787.3259887695312,796.5933837890625,799.010986328125
239,798.6080322265625,790.952392578125,796.5933837890625,802.6373901367188
240,801.025634765625,790.952392578125,797.8021850585938,800.2197875976562
241,802.6373901367188,787.7289428710938,801.8314819335938,798.6080322265625
242,804.6520385742188,792.1611938476562,801.8314819335938,803.8461303710938
243,811.098876953125,799.4139404296875,803.4432373046875,809.4871826171875
244,804.2490844726562,795.7875366210938,803.8461303710938,806.6666870117188
245,797.3992919921875,789.7435913085938,801.025634765625,803.4432373046875
246,799.8168334960938,789.3406372070312,799.4139404296875,803.4432373046875
247,799.010986328125,787.7289428710938,797.3992919921875,804.6520385742188
248,796.996337890625,792.1611938476562,798.2051391601562,794.1758422851562
249,796.996337890625,798.2051391601562,796.5933837890625,784.908447265625
250,800.6226806640625,794.981689453125,792.967041015625,788.5347900390625
251,806.6666870117188,792.967041015625,792.5640869140625,790.5494384765625
252,799.010986328125,794.5787353515625,792.1611938476562,783.2966918945312
253,787.7289428710938,794.1758422851562,791.7582397460938,778.05859375
254,794.1758422851562,792.5640869140625,792.967041015625,786.5201416015625
255,794.1758422851562,795.7875366210938,791.3552856445312,791.7582397460938
256,790.1465454101562,794.981689453125,788.5347900390625,792.5640869140625
257,793.3699340820312,788.937744140625,796.1904907226562,799.010986328125
258,799.8168334960938,786.5201416015625,797.3992919921875,806.2637329101562
259,799.8168334960938,792.1611938476562,792.967041015625,804.6520385742188
260,797.3992919921875,792.967041015625,794.981689453125,797.8021850585938
261,801.025634765625,793.7728881835938,796.5933837890625,799.010986328125
262,795.7875366210938,797.3992919921875,794.1758422851562,790.5494384765625
263,788.1318969726562,799.010986328125,790.952392578125,784.5054931640625
264,791.3552856445312,796.5933837890625,794.981689453125,791.7582397460938
265,793.7728881835938,793.7728881835938,796.1904907226562,794.981689453125
266,788.937744140625,792.1611938476562,792.5640869140625,792.5640869140625
267,789.3406372070312,786.5201416015625,796.1904907226562,794.1758422851562
268,791.3552856445312,783.2966918945312,799.010986328125,794.5787353515625
269,792.5640869140625,791.7582397460938,794.981689453125,792.967041015625
270,791.7582397460938,790.952392578125,791.3552856445312,791.3552856445312
271,784.1025390625,786.923095703125,791.3552856445312,783.6996459960938
272,787.3259887695312,792.5640869140625,791.3552856445312,784.1025390625
273,787.7289428710938,792.1611938476562,789.3406372070312,784.1025390625
274,790.1465454101562,790.1465454101562,789.3406372070312,782.893798828125
275,795.3846435546875,788.937744140625,790.952392578125,783.6996459960938
276,790.5494384765625,790.1465454101562,787.3259887695312,780.879150390625
277,784.5054931640625,792.967041015625,785.7142944335938,780.0732421875
278,791.3552856445312,793.3699340820312,786.923095703125,786.1171875
279,796.996337890625,792.1611938476562,791.7582397460938,799.010986328125
280,792.1611938476562,793.7728881835938,792.1611938476562,801.4285888671875
281,786.5201416015625,794.981689453125,786.5201416015625,807.069580078125
282,792.5640869140625,791.7582397460938,791.7582397460938,821.97802734375
283,793.7728881835938,793.7728881835938,793.3699340820312,811.90478515625
284,784.908447265625,789.7435913085938,788.5347900390625,796.1904907226562
285,784.1025390625,792.5640869140625,792.967041015625,792.967041015625
286,791.7582397460938,797.8021850585938,795.7875366210938,792.5640869140625
287,793.7728881835938,792.5640869140625,794.5787353515625,796.1904907226562
288,799.4139404296875,792.967041015625,789.7435913085938,799.010986328125
289,801.8314819335938,795.7875366210938,789.3406372070312,803.8461303710938
290,796.996337890625,791.3552856445312,791.7582397460938,799.010986328125
291,794.1758422851562,788.5347900390625,792.5640869140625,791.7582397460938
292,795.3846435546875,795.3846435546875,797.3992919921875,798.2051391601562
293,799.4139404296875,796.996337890625,796.996337890625,804.6520385742188
294,793.3699340820312,790.5494384765625,792.5640869140625,793.3699340820312
295,788.937744140625,793.3699340820312,796.1904907226562,788.5347900390625
296,786.5201416015625,794.5787353515625,798.2051391601562,795.7875366210938
297,779.6703491210938,788.937744140625,793.7728881835938,792.967041015625
298,784.908447265625,795.7875366210938,793.7728881835938,790.952392578125
299,790.1465454101562,794.981689453125,795.3846435546875,801.025634765625
300,783.6996459960938,785.3113403320312,792.967041015625,797.3992919921875
301,786.923095703125,785.3113403320312,793.7728881835938,790.5494384765625
302,790.952392578125,790.5494384765625,793.7728881835938,792.967041015625
303,790.1465454101562,789.3406372070312,790.1465454101562,790.952392578125
304,794.1758422851562,783.2966918945312,790.1465454101562,793.7728881835938
305,801.025634765625,789.7435913085938,796.1904907226562,804.2490844726562
306,795.7875366210938,795.7875366210938,799.010986328125,796.5933837890625
307,790.5494384765625,788.937744140625,798.6080322265625,787.3259887695312
308,799.4139404296875,785.7142944335938,796.5933837890625,799.010986328125
309,799.8168334960938,790.952392578125,793.3699340820312,803.8461303710938
310,786.1171875,789.3406372070312,795.3846435546875,794.981689453125
311,777.6557006835938,788.5347900390625,794.1758422851562,791.3552856445312
312,777.2527465820312,791.7582397460938,790.952392578125,793.7728881835938
313,784.5054931640625,794.1758422851562,794.981689453125,792.1611938476562
314,792.1611938476562,796.5933837890625,797.8021850585938,788.937744140625
315,794.1758422851562,801.4285888671875,800.2197875976562,791.7582397460938
316,796.1904907226562,802.2344360351562,804.6520385742188,803.040283203125
317,784.908447265625,795.3846435546875,798.6080322265625,797.8021850585938
318,778.4615478515625,795.3846435546875,797.8021850585938,783.6996459960938
319,778.4615478515625,792.5640869140625,794.1758422851562,784.5054931640625
320,782.087890625,789.3406372070312,794.981689453125,793.7728881835938
321,778.05859375,794.981689453125,796.1904907226562,785.7142944335938
322,770.0,793.3699340820312,794.1758422851562,773.6264038085938
323,774.029296875,799.4139404296875,806.2637329101562,781.6849975585938
324,773.6264038085938,811.098876953125,813.5164794921875,781.2820434570312
325,761.94140625,810.6959838867188,804.2490844726562,766.7765502929688
326,744.6153564453125,804.6520385742188,793.7728881835938,753.076904296875
327,735.7509155273438,809.084228515625,803.4432373046875,747.4359130859375
328,732.5274658203125,813.91943359375,815.5311279296875,740.989013671875
329,727.2893676757812,819.5604248046875,809.89013671875,720.8424682617188
330,720.4395751953125,826.8131713867188,805.054931640625,703.113525390625
331,714.7985229492188,819.1575317382812,817.5457763671875,708.7545776367188
332,702.7106323242188,821.1721801757812,829.6337280273438,704.7252807617188
333,693.040283203125,820.3662719726562,823.99267578125,689.4139404296875
334,705.93408203125,820.3662719726562,824.3956298828125,697.4725341796875
335,703.113525390625,819.96337890625,817.94873046875,689.4139404296875
336,694.6520385742188,816.3369750976562,813.113525390625,691.025634765625
337,691.8314819335938,819.96337890625,819.5604248046875,697.87548828125
338,690.2197875976562,823.5897216796875,817.5457763671875,691.8314819335938
339,704.3223266601562,826.4102783203125,814.3223266601562,702.3076782226562
340,708.7545776367188,823.5897216796875,817.5457763671875,701.5018310546875
341,692.6373901367188,819.5604248046875,820.3662719726562,693.040283203125
342,693.040283203125,817.1428833007812,815.93408203125,697.87548828125
343,705.93408203125,815.93408203125,814.7252807617188,706.3369750976562
344,707.5457763671875,812.7106323242188,814.3223266601562,708.7545776367188
345,709.96337890625,817.94873046875,812.7106323242188,714.7985229492188
346,718.8278198242188,815.93408203125,811.90478515625,724.4688720703125
347,725.2747192382812,811.90478515625,806.6666870117188,725.2747192382812
348,729.3040161132812,810.6959838867188,804.6520385742188,734.945068359375
349,735.7509155273438,809.084228515625,811.5018310546875,748.6447143554688
350,746.6300659179688,811.5018310546875,809.084228515625,759.9267578125
351,757.106201171875,805.054931640625,805.054931640625,768.3883056640625
352,763.1502075195312,800.2197875976562,805.054931640625,772.4176025390625
353,770.0,803.4432373046875,801.4285888671875,778.4615478515625
354,779.6703491210938,803.4432373046875,791.3552856445312,782.4908447265625
355,795.3846435546875,801.8314819335938,788.1318969726562,797.3992919921875
356,805.054931640625,794.981689453125,790.952392578125,800.2197875976562
357,804.6520385742188,789.3406372070312,781.2820434570312,796.1904907226562
358,805.054931640625,796.1904907226562,780.4761962890625,807.4725341796875
359,805.054931640625,794.5787353515625,782.893798828125,815.93408203125
360,811.098876953125,783.2966918945312,778.05859375,821.97802734375
361,813.91943359375,781.6849975585938,777.6557006835938,829.6337280273438
362,817.5457763671875,782.087890625,776.0439453125,830.8424682617188
363,823.5897216796875,776.0439453125,780.0732421875,833.6630249023438
364,826.8131713867188,773.6264038085938,778.8644409179688,830.4395751953125
365,830.8424682617188,775.6410522460938,772.4176025390625,828.8278198242188
366,834.8717651367188,774.8351440429688,772.0146484375,835.6776733398438
367,834.8717651367188,772.0146484375,772.4176025390625,841.3186645507812
368,833.2600708007812,771.2088012695312,769.5970458984375,841.7216186523438
369,833.2600708007812,770.8058471679688,772.4176025390625,846.1538696289062
370,829.2307739257812,774.8351440429688,774.8351440429688,849.7802124023438
371,827.6190185546875,779.6703491210938,776.4468994140625,849.7802124023438
372,828.4249267578125,780.4761962890625,776.0439453125,841.3186645507812
373,832.4542236328125,772.8204956054688,774.029296875,833.6630249023438
374,837.2893676757812,771.6116943359375,769.5970458984375,837.6923217773438
375,833.2600708007812,773.2234497070312,772.4176025390625,835.2747192382812
376,833.2600708007812,777.6557006835938,776.4468994140625,826.00732421875
377,842.12451171875,780.0732421875,771.6116943359375,829.6337280273438
378,842.930419921875,776.8497924804688,771.2088012695312,835.6776733398438
379,836.4835205078125,777.6557006835938,772.0146484375,831.6483764648438
380,832.05126953125,775.2380981445312,769.1941528320312,830.03662109375
381,834.4688720703125,774.029296875,768.3883056640625,829.6337280273438
382,833.6630249023438,781.6849975585938,772.4176025390625,826.00732421875
383,834.06591796875,784.908447265625,774.029296875,826.00732421875
384,833.6630249023438,780.879150390625,767.9853515625,824.3956298828125
385,829.2307739257812,780.4761962890625,767.9853515625,823.99267578125
386,836.08056640625,779.2673950195312,773.2234497070312,828.8278198242188
387,837.2893676757812,781.2820434570312,773.6264038085938,828.4249267578125
388,836.4835205078125,782.4908447265625,776.4468994140625,828.8278198242188
389,836.08056640625,780.4761962890625,776.8497924804688,834.8717651367188
390,833.6630249023438,783.6996459960938,778.8644409179688,828.8278198242188
391,840.10986328125,789.7435913085938,779.2673950195312,824.7985229492188
392,840.10986328125,782.4908447265625,777.2527465820312,832.4542236328125
393,830.4395751953125,784.1025390625,778.4615478515625,837.2893676757812
394,825.2014770507812,790.952392578125,781.2820434570312,834.06591796875
395,825.2014770507812,790.5494384765625,781.6849975585938,830.8424682617188
396,824.3956298828125,788.5347900390625,786.923095703125,833.2600708007812
397,820.3662719726562,782.893798828125,790.952392578125,834.4688720703125
398,820.3662719726562,789.7435913085938,788.1318969726562,825.2014770507812
399,829.2307739257812,792.967041015625,788.937744140625,811.90478515625
400,831.6483764648438,784.908447265625,790.1465454101562,810.6959838867188
401,822.7838745117188,784.908447265625,787.3259887695312,811.5018310546875
402,823.1868286132812,788.5347900390625,789.7435913085938,805.8607788085938
403,827.2161254882812,786.5201416015625,793.7728881835938,805.054931640625
404,825.2014770507812,791.3552856445312,798.2051391601562,809.084228515625
405,818.3516235351562,791.3552856445312,798.2051391601562,811.90478515625
406,812.7106323242188,790.5494384765625,793.3699340820312,815.1282348632812
407,814.3223266601562,792.5640869140625,794.1758422851562,813.113525390625
408,813.5164794921875,788.1318969726562,791.7582397460938,808.6813354492188
409,811.5018310546875,784.908447265625,787.3259887695312,804.2490844726562
410,810.2930297851562,785.7142944335938,786.1171875,804.2490844726562
411,804.6520385742188,783.6996459960938,784.1025390625,802.2344360351562
412,805.054931640625,780.879150390625,785.7142944335938,808.2783813476562
413,804.6520385742188,782.4908447265625,787.7289428710938,811.5018310546875
414,807.069580078125,780.879150390625,785.3113403320312,802.6373901367188
415,809.084228515625,782.4908447265625,786.1171875,800.6226806640625
416,804.6520385742188,785.3113403320312,789.3406372070312,799.8168334960938
417,807.4725341796875,785.3113403320312,792.1611938476562,803.4432373046875
418,807.4725341796875,782.893798828125,788.937744140625,807.4725341796875
419,801.025634765625,786.923095703125,786.5201416015625,807.069580078125
420,802.2344360351562,790.5494384765625,789.3406372070312,810.6959838867188
421,807.87548828125,787.3259887695312,791.3552856445312,813.5164794921875
422,807.069580078125,781.2820434570312,788.5347900390625,808.6813354492188
423,806.2637329101562,780.4761962890625,788.1318969726562,806.2637329101562
424,808.6813354492188,784.1025390625,790.5494384765625,810.6959838867188
425,811.098876953125,783.2966918945312,795.3846435546875,809.4871826171875
426,814.3223266601562,788.937744140625,795.3846435546875,801.025634765625
427,815.5311279296875,790.952392578125,794.981689453125,803.040283203125
428,811.90478515625,787.3259887695312,797.8021850585938,803.4432373046875
429,808.6813354492188,787.3259887695312,794.981689453125,794.5787353515625
430,801.025634765625,786.5201416015625,792.5640869140625,795.3846435546875
431,802.2344360351562,787.7289428710938,788.5347900390625,799.8168334960938
432,801.4285888671875,790.952392578125,787.3259887695312,802.2344360351562
433,801.4285888671875,794.1758422851562,793.7728881835938,800.2197875976562
434,798.6080322265625,789.3406372070312,794.5787353515625,791.3552856445312
435,798.6080322265625,786.5201416015625,793.3699340820312,792.5640869140625
436,799.4139404296875,784.5054931640625,794.981689453125,799.8168334960938
437,790.5494384765625,784.1025390625,791.7582397460938,791.7582397460938
438,788.5347900390625,792.5640869140625,792.5640869140625,785.7142944335938
439,795.3846435546875,791.7582397460938,790.952392578125,799.010986328125
440,789.3406372070312,789.7435913085938,784.1025390625,791.7582397460938
441,790.952392578125,791.3552856445312,783.2966918945312,787.3259887695312
442,804.6520385742188,794.5787353515625,784.5054931640625,792.1611938476562
443,807.87548828125,797.8021850585938,785.7142944335938,779.6703491210938
444,803.4432373046875,791.3552856445312,789.3406372070312,774.8351440429688
445,800.6226806640625,790.1465454101562,790.1465454101562,785.7142944335938
446,801.8314819335938,793.7728881835938,787.3259887695312,792.5640869140625
447,798.6080322265625,788.1318969726562,788.5347900390625,791.7582397460938
448,795.7875366210938,786.1171875,791.3552856445312,786.5201416015625
449,795.7875366210938,792.967041015625,793.7728881835938,776.8497924804688
450,801.8314819335938,784.908447265625,796.1904907226562,794.981689453125
451,802.2344360351562,779.6703491210938,794.5787353515625,799.010986328125
452,798.2051391601562,792.5640869140625,794.1758422851562,780.879150390625
453,799.4139404296875,793.7728881835938,799.010986328125,791.7582397460938
454,792.967041015625,789.7435913085938,796.1904907226562,792.967041015625
455,787.3259887695312,792.967041015625,792.967041015625,785.3113403320312
456,788.5347900390625,792.5640869140625,795.3846435546875,793.3699340820312
457,789.7435913085938,793.7728881835938,793.7728881835938,792.1611938476562
458,789.3406372070312,793.3699340820312,790.1465454101562,782.087890625
459,788.937744140625,782.893798828125,791.7582397460938,786.923095703125
460,787.7289428710938,781.6849975585938,792.5640869140625,793.3699340820312
461,791.7582397460938,788.937744140625,788.5347900390625,792.967041015625
462,796.1904907226562,792.1611938476562,792.5640869140625,799.8168334960938
463,794.5787353515625,790.1465454101562,799.8168334960938,800.6226806640625
464,794.5787353515625,784.1025390625,797.8021850585938,794.5787353515625
465,785.7142944335938,790.5494384765625,792.1611938476562,794.1758422851562
466,789.3406372070312,793.7728881835938,791.7582397460938,792.5640869140625
467,797.3992919921875,790.1465454101562,790.5494384765625,789.3406372070312
468,792.5640869140625,788.5347900390625,786.923095703125,788.5347900390625
469,794.5787353515625,792.1611938476562,785.7142944335938,788.937744140625
470,799.010986328125,795.7875366210938,788.5347900390625,793.7728881835938
471,797.3992919921875,794.981689453125,788.937744140625,796.996337890625
472,803.4432373046875,789.3406372070312,791.3552856445312,796.996337890625
473,805.8607788085938,789.7435913085938,786.923095703125,797.3992919921875
474,800.2197875976562,792.1611938476562,781.2820434570312,797.3992919921875
475,797.8021850585938,790.5494384765625,786.1171875,793.3699340820312
476,799.4139404296875,783.6996459960938,786.5201416015625,790.1465454101562
477,804.2490844726562,784.908447265625,787.3259887695312,794.1758422851562
478,800.2197875976562,792.1611938476562,790.1465454101562,791.7582397460938
479,790.952392578125,785.7142944335938,790.1465454101562,790.5494384765625
480,789.7435913085938,782.087890625,790.1465454101562,798.2051391601562
481,792.967041015625,784.5054931640625,790.5494384765625,803.8461303710938
482,787.7289428710938,786.5201416015625,794.1758422851562,799.010986328125
483,787.7289428710938,788.937744140625,793.3699340820312,798.2051391601562
484,793.3699340820312,790.1465454101562,788.5347900390625,802.6373901367188
485,791.7582397460938,784.1025390625,787.7289428710938,805.4578857421875
486,790.5494384765625,783.2966918945312,792.967041015625,799.8168334960938
487,792.967041015625,788.937744140625,791.7582397460938,793.3699340820312
488,785.7142944335938,790.1465454101562,790.952392578125,792.1611938476562
489,780.4761962890625,783.2966918945312,791.7582397460938,792.5640869140625
490,786.5201416015625,784.908447265625,792.1611938476562,796.996337890625
491,784.5054931640625,786.923095703125,791.7582397460938,797.3992919921875
492,783.2966918945312,783.2966918945312,792.967041015625,796.996337890625
493,788.5347900390625,788.937744140625,796.1904907226562,794.1758422851562
494,790.1465454101562,786.923095703125,790.952392578125,793.7728881835938
495,796.1904907226562,781.2820434570312,792.1611938476562,797.3992919921875
496,798.2051391601562,781.6849975585938,792.5640869140625,795.7875366210938
497,794.981689453125,783.2966918945312,787.3259887695312,799.8168334960938
498,794.1758422851562,790.5494384765625,794.981689453125,795.7875366210938
499,796.996337890625,791.7582397460938,795.7875366210938,784.908447265625
500,797.3992919921875,786.923095703125,788.5347900390625,785.7142944335938
501,792.5640869140625,789.3406372070312,791.3552856445312,788.937744140625
502,790.952392578125,795.7875366210938,796.1904907226562,784.908447265625
503,792.5640869140625,798.2051391601562,795.3846435546875,787.3259887695312
504,792.5640869140625,791.3552856445312,796.996337890625,796.5933837890625
505,789.7435913085938,790.1465454101562,795.7875366210938,798.2051391601562
506,795.7875366210938,796.996337890625,797.3992919921875,795.7875366210938
507,792.5640869140625,798.6080322265625,801.025634765625,797.3992919921875
508,788.1318969726562,793.3699340820312,796.996337890625,801.4285888671875
509,794.1758422851562,788.1318969726562,797.8021850585938,800.6226806640625
510,801.8314819335938,792.5640869140625,797.3992919921875,799.8168334960938
511,803.4432373046875,799.8168334960938,788.5347900390625,799.010986328125
512,794.5787353515625,794.981689453125,788.937744140625,793.7728881835938
513,786.5201416015625,791.7582397460938,794.1758422851562,780.4761962890625
514,782.893798828125,792.967041015625,792.5640869140625,780.0732421875
515,784.5054931640625,792.1611938476562,793.3699340820312,787.3259887695312
516,786.5201416015625,790.952392578125,796.5933837890625,784.908447265625
517,781.2820434570312,789.7435913085938,798.6080322265625,780.879150390625
518,784.908447265625,793.7728881835938,798.6080322265625,786.1171875
519,789.7435913085938,794.5787353515625,796.996337890625,787.7289428710938
520,791.7582397460938,787.3259887695312,793.3699340820312,784.5054931640625
521,792.5640869140625,783.6996459960938,795.3846435546875,796.1904907226562
522,793.3699340820312,787.3259887695312,798.6080322265625,806.2637329101562
523,787.3259887695312,789.3406372070312,795.3846435546875,807.87548828125
524,788.5347900390625,793.3699340820312,796.5933837890625,811.098876953125
525,794.981689453125,796.996337890625,796.5933837890625,806.6666870117188
526,792.967041015625,794.981689453125,798.6080322265625,792.5640869140625
527,790.952392578125,789.3406372070312,799.4139404296875,778.05859375
528,793.3699340820312,782.4908447265625,797.8021850585938,779.6703491210938
529,794.5787353515625,788.1318969726562,803.4432373046875,780.879150390625
530,793.3699340820312,794.1758422851562,800.6226806640625,772.0146484375
531,795.7875366210938,788.5347900390625,797.8021850585938,774.029296875
532,796.1904907226562,786.1171875,798.2051391601562,778.8644409179688
533,793.7728881835938,791.7582397460938,796.5933837890625,779.6703491210938
534,794.5787353515625,794.1758422851562,801.4285888671875,781.2820434570312
535,794.5787353515625,794.1758422851562,797.3992919921875,791.7582397460938
536,791.7582397460938,797.3992919921875,797.3992919921875,793.3699340820312
537,790.952392578125,796.996337890625,801.4285888671875,788.937744140625
538,794.981689453125,796.5933837890625,801.025634765625,790.952392578125
539,793.7728881835938,796.1904907226562,800.6226806640625,792.967041015625
540,793.7728881835938,792.1611938476562,796.5933837890625,799.010986328125
541,796.5933837890625,794.1758422851562,792.1611938476562,799.010986328125
542,796.5933837890625,794.5787353515625,794.1758422851562,796.1904907226562
543,799.8168334960938,787.3259887695312,794.5787353515625,795.3846435546875
544,799.8168334960938,788.1318969726562,792.1611938476562,792.967041015625
545,790.1465454101562,791.7582397460938,793.7728881835938,796.5933837890625
546,787.7289428710938,794.1758422851562,792.5640869140625,801.025634765625
547,789.7435913085938,798.6080322265625,788.937744140625,797.8021850585938
548,787.3259887695312,794.981689453125,788.5347900390625,788.937744140625
549,792.5640869140625,789.7435913085938,792.1611938476562,787.7289428710938
550,798.2051391601562,793.3699340820312,789.7435913085938,794.1758422851562
551,793.7728881835938,796.5933837890625,786.1171875,789.7435913085938
552,783.6996459960938,785.7142944335938,787.3259887695312,780.4761962890625
553,780.879150390625,787.7289428710938,788.5347900390625,776.0439453125
554,786.5201416015625,791.3552856445312,789.3406372070312,779.2673950195312
555,792.5640869140625,786.5201416015625,787.7289428710938,785.7142944335938
556,789.7435913085938,790.952392578125,781.2820434570312,781.6849975585938
557,783.2966918945312,793.7728881835938,784.908447265625,786.5201416015625
558,781.2820434570312,793.3699340820312,791.7582397460938,800.6226806640625
559,778.05859375,792.1611938476562,794.981689453125,793.7728881835938
560,774.8351440429688,793.3699340820312,793.3699340820312,786.1171875
561,778.8644409179688,795.3846435546875,788.5347900390625,786.923095703125
562,779.2673950195312,789.7435913085938,788.937744140625,782.893798828125
563,779.2673950195312,784.5054931640625,786.1171875,782.893798828125
564,784.908447265625,786.1171875,782.893798828125,784.908447265625
565,790.1465454101562,788.1318969726562,784.1025390625,791.7582397460938
566,792.1611938476562,784.908447265625,788.937744140625,790.5494384765625
567,792.967041015625,780.879150390625,789.3406372070312,789.3406372070312
568,794.981689453125,788.5347900390625,791.3552856445312,790.5494384765625
569,793.7728881835938,791.3552856445312,792.967041015625,794.1758422851562
570,790.5494384765625,792.1611938476562,793.7728881835938,798.2051391601562
571,796.1904907226562,800.2197875976562,794.5787353515625,792.967041015625
572,796.1904907226562,801.025634765625,792.1611938476562,794.1758422851562
573,798.2051391601562,795.3846435546875,791.7582397460938,796.5933837890625
574,799.4139404296875,795.7875366210938,795.7875366210938,791.3552856445312
575,792.1611938476562,796.996337890625,796.996337890625,794.1758422851562
576,794.981689453125,794.981689453125,795.7875366210938,796.1904907226562
577,799.8168334960938,795.7875366210938,794.981689453125,792.967041015625
578,794.981689453125,791.3552856445312,793.7728881835938,790.952392578125
579,794.5787353515625,789.7435913085938,792.5640869140625,788.937744140625
580,797.8021850585938,790.5494384765625,790.1465454101562,789.7435913085938
581,795.3846435546875,792.1611938476562,794.5787353515625,794.5787353515625
582,785.3113403320312,792.5640869140625,794.1758422851562,786.5201416015625
583,779.6703491210938,791.3552856445312,789.3406372070312,780.879150390625
584,786.5201416015625,792.1611938476562,792.5640869140625,788.937744140625
585,790.1465454101562,792.1611938476562,791.7582397460938,790.952392578125
586,790.1465454101562,791.7582397460938,790.1465454101562,789.7435913085938
587,789.3406372070312,797.3992919921875,795.7875366210938,785.3113403320312
588,791.3552856445312,796.996337890625,796.5933837890625,790.5494384765625
589,796.996337890625,788.937744140625,793.7728881835938,806.6666870117188
590,789.7435913085938,789.3406372070312,796.5933837890625,799.010986328125
591,790.952392578125,788.937744140625,801.4285888671875,800.6226806640625
592,793.3699340820312,793.7728881835938,800.2197875976562,809.084228515625
593,784.908447265625,795.7875366210938,797.8021850585938,808.2783813476562
594,782.087890625,794.981689453125,802.2344360351562,801.4285888671875
595,782.4908447265625,796.1904907226562,801.025634765625,799.010986328125
596,786.5201416015625,794.5787353515625,796.996337890625,799.4139404296875
597,786.5201416015625,796.996337890625,799.8168334960938,798.6080322265625
598,785.3113403320312,794.5787353515625,798.2051391601562,794.1758422851562
599,785.3113403320312,790.5494384765625,796.1904907226562,787.3259887695312
600,789.7435913085938,791.7582397460938,799.8168334960938,785.7142944335938
601,792.967041015625,790.952392578125,799.4139404296875,790.1465454101562
602,792.1611938476562,787.3259887695312,796.1904907226562,791.3552856445312
603,791.3552856445312,786.5201416015625,795.3846435546875,786.5201416015625
604,793.7728881835938,782.4908447265625,794.5787353515625,792.5640869140625
605,791.3552856445312,782.893798828125,790.952392578125,789.7435913085938
606,786.1171875,795.3846435546875,791.3552856445312,784.1025390625
607,786.923095703125,799.4139404296875,794.1758422851562,791.3552856445312
608,788.5347900390625,795.7875366210938,794.1758422851562,793.3699340820312
609,788.937744140625,790.952392578125,795.7875366210938,788.1318969726562
610,791.3552856445312,789.3406372070312,795.3846435546875,790.1465454101562
611,799.010986328125,792.1611938476562,792.967041015625,796.1904907226562
612,806.2637329101562,797.8021850585938,794.1758422851562,797.3992919921875
613,805.4578857421875,801.4285888671875,796.996337890625,793.7728881835938
614,799.8168334960938,796.996337890625,790.952392578125,794.981689453125
615,796.996337890625,790.952392578125,786.923095703125,797.8021850585938
616,793.7728881835938,787.7289428710938,790.952392578125,796.996337890625
617,792.1611938476562,786.1171875,794.981689453125,792.5640869140625
618,794.5787353515625,788.1318969726562,795.3846435546875,788.1318969726562
619,794.1758422851562,790.1465454101562,794.981689453125,792.5640869140625
620,792.967041015625,794.1758422851562,794.981689453125,797.3992919921875
621,793.7728881835938,794.1758422851562,794.5787353515625,793.7728881835938
622,793.7728881835938,794.981689453125,795.7875366210938,793.7728881835938
623,791.7582397460938,796.1904907226562,796.996337890625,801.8314819335938
624,794.5787353515625,794.1758422851562,799.010986328125,798.6080322265625
625,802.6373901367188,788.5347900390625,797.3992919921875,798.6080322265625
626,802.2344360351562,786.5201416015625,796.5933837890625,798.6080322265625
627,795.3846435546875,786.5201416015625,799.4139404296875,797.8021850585938
628,793.7728881835938,789.3406372070312,792.1611938476562,801.8314819335938
629,795.3846435546875,794.1758422851562,791.3552856445312,794.1758422851562
630,796.5933837890625,792.5640869140625,798.2051391601562,787.3259887695312
631,795.3846435546875,792.1611938476562,800.2197875976562,794.981689453125
632,794.1758422851562,799.010986328125,794.5787353515625,794.5787353515625
633,796.5933837890625,798.6080322265625,793.7728881835938,786.923095703125
634,799.010986328125,793.3699340820312,795.3846435546875,787.7289428710938
635,801.025634765625,795.3846435546875,798.6080322265625,792.967041015625
636,800.6226806640625,801.8314819335938,803.4432373046875,799.8168334960938
637,799.010986328125,803.4432373046875,799.010986328125,801.4285888671875
638,796.5933837890625,803.4432373046875,795.3846435546875,802.6373901367188
639,795.7875366210938,799.010986328125,796.996337890625,804.6520385742188
640,798.2051391601562,798.2051391601562,797.8021850585938,807.4725341796875
641,793.7728881835938,799.010986328125,794.981689453125,803.040283203125
642,793.3699340820312,791.3552856445312,790.5494384765625,797.8021850585938
643,797.8021850585938,786.5201416015625,790.5494384765625,802.6373901367188
644,794.981689453125,787.3259887695312,797.3992919921875,796.5933837890625
645,794.1758422851562,796.5933837890625,794.981689453125,790.1465454101562
646,791.3552856445312,796.5933837890625,791.3552856445312,795.3846435546875
647,795.3846435546875,791.7582397460938,795.3846435546875,795.7875366210938
648,798.2051391601562,790.952392578125,796.1904907226562,788.1318969726562
649,795.7875366210938,792.967041015625,793.3699340820312,791.7582397460938
650,799.010986328125,792.1611938476562,794.1758422851562,804.6520385742188
651,794.5787353515625,791.7582397460938,794.981689453125,802.2344360351562
652,786.923095703125,792.967041015625,793.7728881835938,797.8021850585938
653,783.2966918945312,787.3259887695312,795.7875366210938,799.4139404296875
654,786.1171875,784.908447265625,797.3992919921875,804.2490844726562
655,782.4908447265625,786.1171875,795.3846435546875,796.5933837890625
656,786.923095703125,785.7142944335938,793.3699340820312,790.952392578125
657,794.981689453125,788.5347900390625,792.967041015625,792.1611938476562
658,794.1758422851562,788.5347900390625,794.5787353515625,790.952392578125
659,796.1904907226562,786.1171875,796.5933837890625,793.7728881835938
660,794.1758422851562,792.967041015625,796.5933837890625,793.7728881835938
661,791.3552856445312,801.025634765625,796.5933837890625,794.981689453125
662,792.967041015625,801.4285888671875,795.7875366210938,793.3699340820312
663,795.7875366210938,794.5787353515625,793.3699340820312,791.3552856445312
664,796.1904907226562,789.7435913085938,792.1611938476562,794.5787353515625
665,796.1904907226562,790.5494384765625,790.952392578125,795.7875366210938
666,800.2197875976562,788.5347900390625,793.7728881835938,801.025634765625
667,801.4285888671875,789.3406372070312,797.3992919921875,800.6226806640625
668,798.2051391601562,787.7289428710938,792.1611938476562,803.040283203125
669,793.3699340820312,788.937744140625,789.7435913085938,799.8168334960938
670,790.1465454101562,790.5494384765625,794.1758422851562,796.5933837890625
671,792.967041015625,787.3259887695312,791.7582397460938,800.2197875976562
672,799.010986328125,793.7728881835938,792.1611938476562,803.4432373046875
673,798.2051391601562,796.5933837890625,795.7875366210938,805.054931640625
674,799.8168334960938,796.5933837890625,794.5787353515625,803.4432373046875
675,799.8168334960938,794.1758422851562,796.5933837890625,799.4139404296875
676,785.3113403320312,786.923095703125,793.7728881835938,788.937744140625
677,790.1465454101562,787.3259887695312,790.952392578125,786.5201416015625
678,795.3846435546875,790.5494384765625,794.1758422851562,781.6849975585938
679,788.5347900390625,791.3552856445312,794.1758422851562,778.4615478515625
680,786.5201416015625,790.1465454101562,792.5640869140625,784.1025390625
681,784.5054931640625,784.908447265625,793.3699340820312,788.5347900390625
682,780.4761962890625,789.3406372070312,795.3846435546875,791.7582397460938
683,782.893798828125,794.981689453125,799.010986328125,789.7435913085938
684,794.1758422851562,789.3406372070312,804.2490844726562,792.1611938476562
685,796.5933837890625,791.7582397460938,802.6373901367188,792.5640869140625
686,792.5640869140625,793.7728881835938,797.3992919921875,788.937744140625
687,793.3699340820312,792.1611938476562,792.967041015625,788.937744140625
688,799.4139404296875,794.1758422851562,794.1758422851562,794.1758422851562
689,801.8314819335938,791.7582397460938,799.010986328125,800.6226806640625
690,797.8021850585938,787.3259887695312,803.4432373046875,794.1758422851562
691,799.4139404296875,786.1171875,805.4578857421875,794.1758422851562
692,794.981689453125,781.6849975585938,801.025634765625,795.3846435546875
693,794.1758422851562,776.8497924804688,792.1611938476562,786.5201416015625
694,796.1904907226562,782.087890625,787.7289428710938,790.5494384765625
695,790.5494384765625,783.6996459960938,787.7289428710938,795.7875366210938
696,793.3699340820312,787.3259887695312,786.5201416015625,796.1904907226562
697,793.7728881835938,787.7289428710938,788.1318969726562,794.981689453125
698,793.3699340820312,788.5347900390625,788.937744140625,795.3846435546875
699,794.1758422851562,792.1611938476562,785.7142944335938,795.7875366210938
700,798.6080322265625,787.7289428710938,784.1025390625,801.025634765625
701,803.8461303710938,788.5347900390625,784.1025390625,805.054931640625
702,799.8168334960938,792.1611938476562,785.7142944335938,796.1904907226562
703,802.2344360351562,791.7582397460938,794.5787353515625,786.5201416015625
704,793.7728881835938,788.1318969726562,792.5640869140625,779.6703491210938
705,790.1465454101562,792.5640869140625,789.3406372070312,788.5347900390625
706,795.7875366210938,799.010986328125,796.5933837890625,795.3846435546875
707,794.1758422851562,792.967041015625,799.4139404296875,796.5933837890625
708,791.7582397460938,786.923095703125,796.996337890625,797.8021850585938
709,788.937744140625,787.7289428710938,795.7875366210938,791.7582397460938
710,791.3552856445312,786.923095703125,794.1758422851562,790.1465454101562
711,795.7875366210938,791.3552856445312,793.3699340820312,799.010986328125
712,797.3992919921875,790.1465454101562,792.967041015625,798.6080322265625
713,805.8607788085938,787.3259887695312,794.981689453125,792.1611938476562
714,807.87548828125,793.7728881835938,796.1904907226562,792.967041015625
715,801.8314819335938,791.7582397460938,792.1611938476562,793.7728881835938
716,798.2051391601562,792.5640869140625,794.5787353515625,797.3992919921875
717,796.1904907226562,793.7728881835938,796.5933837890625,791.3552856445312
718,790.5494384765625,787.7289428710938,791.3552856445312,784.908447265625
719,787.7289428710938,785.7142944335938,789.7435913085938,787.7289428710938
720,791.7582397460938,788.5347900390625,787.3259887695312,790.5494384765625
721,790.5494384765625,789.7435913085938,787.7289428710938,791.3552856445312
722,782.893798828125,788.1318969726562,788.1318969726562,786.5201416015625
723,785.3113403320312,786.1171875,786.5201416015625,792.1611938476562
724,788.5347900390625,788.1318969726562,790.1465454101562,794.1758422851562
725,787.7289428710938,788.5347900390625,792.1611938476562,790.952392578125
726,791.3552856445312,785.7142944335938,793.7728881835938,796.996337890625
727,791.7582397460938,788.5347900390625,792.967041015625,802.2344360351562
728,788.5347900390625,790.5494384765625,788.1318969726562,790.1465454101562
729,790.5494384765625,791.7582397460938,792.1611938476562,786.923095703125
730,792.1611938476562,791.3552856445312,799.4139404296875,790.5494384765625
731,792.1611938476562,791.3552856445312,801.4285888671875,784.5054931640625
732,788.5347900390625,792.1611938476562,799.8168334960938,782.4908447265625
733,786.1171875,789.7435913085938,799.4139404296875,785.3113403320312
734,790.952392578125,783.2966918945312,799.8168334960938,794.981689453125
735,794.5787353515625,786.5201416015625,797.8021850585938,799.010986328125
736,790.5494384765625,788.937744140625,796.5933837890625,789.7435913085938
737,785.3113403320312,788.5347900390625,799.010986328125,783.2966918945312
738,790.952392578125,791.7582397460938,796.5933837890625,786.923095703125
739,795.7875366210938,789.3406372070312,792.5640869140625,789.7435913085938
740,791.7582397460938,791.3552856445312,794.981689453125,782.087890625
741,792.1611938476562,797.3992919921875,795.7875366210938,782.893798828125
742,796.1904907226562,795.3846435546875,795.3846435546875,786.5201416015625
743,795.3846435546875,791.7582397460938,797.3992919921875,783.2966918945312
744,796.996337890625,792.967041015625,798.6080322265625,787.7289428710938
745,796.1904907226562,791.7582397460938,799.010986328125,795.3846435546875
746,796.5933837890625,792.967041015625,799.4139404296875,801.4285888671875
747,797.8021850585938,792.5640869140625,795.3846435546875,797.3992919921875
748,793.7728881835938,786.5201416015625,793.7728881835938,792.1611938476562
749,790.952392578125,790.952392578125,797.3992919921875,795.3846435546875
750,788.937744140625,796.1904907226562,802.6373901367188,793.3699340820312
751,784.908447265625,794.1758422851562,800.6226806640625,783.2966918945312
752,784.908447265625,788.937744140625,795.7875366210938,781.6849975585938
753,783.6996459960938,784.908447265625,790.5494384765625,780.4761962890625
754,783.6996459960938,786.5201416015625,792.1611938476562,781.6849975585938
755,790.5494384765625,786.5201416015625,794.1758422851562,787.3259887695312
756,794.5787353515625,784.1025390625,792.967041015625,787.7289428710938
757,799.4139404296875,787.7289428710938,794.981689453125,794.1758422851562
758,798.6080322265625,793.7728881835938,795.3846435546875,799.4139404296875
759,792.5640869140625,788.5347900390625,792.967041015625,788.937744140625
760,792.967041015625,781.2820434570312,795.7875366210938,788.5347900390625
761,801.4285888671875,790.1465454101562,800.6226806640625,803.8461303710938
762,803.040283203125,795.7875366210938,801.4285888671875,805.8607788085938
763,800.2197875976562,794.981689453125,801.8314819335938,796.5933837890625
764,801.025634765625,790.952392578125,800.6226806640625,794.1758422851562
765,800.6226806640625,788.1318969726562,796.996337890625,794.5787353515625
766,798.2051391601562,788.937744140625,798.2051391601562,792.5640869140625
767,800.2197875976562,791.7582397460938,800.6226806640625,794.5787353515625
768,799.4139404296875,790.952392578125,799.010986328125,796.1904907226562
769,797.8021850585938,791.7582397460938,797.3992919921875,796.5933837890625
770,801.8314819335938,791.3552856445312,796.1904907226562,794.5787353515625
771,800.6226806640625,790.5494384765625,798.2051391601562,798.2051391601562
772,794.981689453125,786.5201416015625,796.1904907226562,800.6226806640625
773,794.981689453125,787.3259887695312,790.952392578125,803.8461303710938
774,791.7582397460938,790.952392578125,789.3406372070312,794.1758422851562
775,786.923095703125,787.3259887695312,786.923095703125,781.2820434570312
776,784.1025390625,784.5054931640625,786.1171875,782.4908447265625
777,790.1465454101562,789.3406372070312,792.5640869140625,787.3259887695312
778,794.1758422851562,791.7582397460938,797.8021850585938,793.3699340820312
779,788.1318969726562,789.7435913085938,792.967041015625,788.937744140625
780,789.7435913085938,794.981689453125,792.5640869140625,789.7435913085938
781,787.3259887695312,791.3552856445312,790.952392578125,788.937744140625
782,780.879150390625,784.5054931640625,791.3552856445312,787.3259887695312
783,776.8497924804688,786.5201416015625,792.5640869140625,788.1318969726562
784,778.8644409179688,785.3113403320312,791.3552856445312,792.5640869140625
785,778.05859375,775.2380981445312,789.3406372070312,797.3992919921875
786,773.2234497070312,778.8644409179688,782.087890625,792.1611938476562
787,777.6557006835938,784.908447265625,784.908447265625,790.952392578125
788,780.0732421875,784.908447265625,790.1465454101562,793.7728881835938
789,779.2673950195312,786.5201416015625,791.3552856445312,793.7728881835938
790,775.6410522460938,783.6996459960938,789.3406372070312,786.1171875
791,773.2234497070312,780.0732421875,781.2820434570312,782.087890625
792,779.6703491210938,784.5054931640625,787.3259887695312,790.5494384765625
793,782.087890625,791.7582397460938,792.5640869140625,792.5640869140625
794,786.5201416015625,792.967041015625,790.5494384765625,788.1318969726562
795,792.1611938476562,790.1465454101562,791.7582397460938,789.3406372070312
796,793.7728881835938,782.4908447265625,792.1611938476562,795.3846435546875
797,790.5494384765625,789.7435913085938,792.967041015625,790.1465454101562
798,792.1611938476562,796.996337890625,794.981689453125,788.1318969726562
799,795.3846435546875,794.5787353515625,796.1904907226562,800.2197875976562
800,791.3552856445312,784.5054931640625,790.5494384765625,800.2197875976562
801,792.967041015625,784.1025390625,788.937744140625,796.1904907226562
802,794.5787353515625,790.5494384765625,794.5787353515625,795.3846435546875
803,793.3699340820312,788.937744140625,799.8168334960938,800.6226806640625
804,795.3846435546875,789.7435913085938,799.4139404296875,801.4285888671875
805,793.3699340820312,789.7435913085938,791.7582397460938,795.3846435546875
806,792.967041015625,786.923095703125,791.7582397460938,796.996337890625
807,796.996337890625,781.2820434570312,794.1758422851562,802.6373901367188
808,795.3846435546875,782.893798828125,793.7728881835938,803.4432373046875
809,793.7728881835938,789.3406372070312,799.010986328125,793.3699340820312
810,791.7582397460938,785.7142944335938,802.2344360351562,792.967041015625
811,788.5347900390625,785.3113403320312,796.5933837890625,792.967041015625
812,791.7582397460938,795.3846435546875,794.1758422851562,790.952392578125
813,793.3699340820312,799.010986328125,792.1611938476562,784.5054931640625
814,788.5347900390625,796.5933837890625,792.1611938476562,776.0439453125
815,789.7435913085938,788.1318969726562,797.3992919921875,780.4761962890625
816,796.1904907226562,786.923095703125,792.5640869140625,785.7142944335938
817,797.3992919921875,794.5787353515625,790.1465454101562,779.6703491210938
818,794.981689453125,793.7728881835938,790.1465454101562,780.879150390625
819,797.8021850585938,790.5494384765625,792.1611938476562,787.3259887695312
820,793.3699340820312,788.1318969726562,794.1758422851562,786.923095703125
821,788.5347900390625,783.2966918945312,792.5640869140625,795.7875366210938
822,792.967041015625,785.3113403320312,790.1465454101562,802.2344360351562
823,795.7875366210938,788.937744140625,789.7435913085938,806.6666870117188
824,786.1171875,790.952392578125,795.7875366210938,799.010986328125
825,782.087890625,790.5494384765625,799.4139404296875,789.7435913085938
826,792.5640869140625,791.3552856445312,800.2197875976562,794.1758422851562
827,792.5640869140625,796.5933837890625,801.4285888671875,798.6080322265625
828,793.7728881835938,797.8021850585938,802.6373901367188,802.2344360351562
829,797.8021850585938,799.010986328125,802.6373901367188,803.040283203125
830,797.8021850585938,796.5933837890625,801.8314819335938,804.2490844726562
831,796.996337890625,794.5787353515625,801.4285888671875,806.6666870117188
832,797.8021850585938,794.981689453125,800.6226806640625,802.2344360351562
833,802.6373901367188,793.3699340820312,796.5933837890625,798.2051391601562
834,796.1904907226562,792.967041015625,795.7875366210938,795.7875366210938
835,789.3406372070312,794.981689453125,796.1904907226562,797.3992919921875
836,793.3699340820312,800.2197875976562,795.7875366210938,793.7728881835938
837,798.2051391601562,799.8168334960938,794.981689453125,789.3406372070312
838,798.6080322265625,795.3846435546875,794.1758422851562,788.937744140625
839,796.1904907226562,794.5787353515625,799.010986328125,792.5640869140625
840,798.2051391601562,789.7435913085938,799.8168334960938,794.1758422851562
841,801.8314819335938,791.7582397460938,797.3992919921875,792.967041015625
842,801.025634765625,799.010986328125,794.5787353515625,794.5787353515625
843,805.054931640625,799.010986328125,790.5494384765625,796.996337890625
844,807.87548828125,794.5787353515625,794.981689453125,797.8021850585938
845,803.8461303710938,791.3552856445312,796.996337890625,796.1904907226562
846,801.025634765625,794.1758422851562,796.1904907226562,800.2197875976562
847,798.6080322265625,797.3992919921875,795.7875366210938,797.3992919921875
848,794.1758422851562,794.1758422851562,794.981689453125,789.3406372070312
849,797.3992919921875,793.3699340820312,796.1904907226562,790.5494384765625
850,799.010986328125,794.5787353515625,793.3699340820312,797.8021850585938
851,795.3846435546875,792.967041015625,794.981689453125,798.2051391601562
852,795.7875366210938,788.5347900390625,795.7875366210938,796.996337890625
853,796.1904907226562,787.7289428710938,794.981689453125,798.6080322265625
854,796.5933837890625,792.1611938476562,796.996337890625,802.2344360351562
855,795.7875366210938,794.1758422851562,792.5640869140625,800.6226806640625
856,796.1904907226562,794.5787353515625,794.981689453125,795.3846435546875
857,797.3992919921875,795.3846435546875,798.6080322265625,796.996337890625
858,797.8021850585938,794.5787353515625,794.981689453125,801.8314819335938
859,790.5494384765625,790.952392578125,794.1758422851562,795.3846435546875
860,782.893798828125,786.5201416015625,792.5640869140625,790.5494384765625
861,792.5640869140625,784.1025390625,791.3552856445312,791.3552856445312
862,800.2197875976562,784.908447265625,789.3406372070312,794.5787353515625
863,795.7875366210938,786.5201416015625,789.3406372070312,793.7728881835938
864,790.5494384765625,783.6996459960938,793.3699340820312,794.5787353515625
865,790.5494384765625,779.6703491210938,791.3552856445312,796.1904907226562
866,789.7435913085938,782.4908447265625,790.1465454101562,793.3699340820312
867,790.1465454101562,786.5201416015625,794.1758422851562,788.937744140625
868,798.6080322265625,789.3406372070312,793.7728881835938,786.923095703125
869,801.025634765625,789.3406372070312,789.3406372070312,794.5787353515625
870,798.6080322265625,799.010986328125,790.1465454101562,790.5494384765625
871,795.3846435546875,798.6080322265625,794.5787353515625,784.5054931640625
872,793.7728881835938,792.1611938476562,790.952392578125,786.1171875
873,789.7435913085938,792.5640869140625,790.5494384765625,786.1171875
874,790.1465454101562,792.1611938476562,789.7435913085938,789.7435913085938
875,796.1904907226562,796.5933837890625,792.1611938476562,788.5347900390625
876,798.6080322265625,791.7582397460938,798.6080322265625,788.1318969726562
877,799.010986328125,790.5494384765625,792.5640869140625,787.7289428710938
878,801.4285888671875,794.981689453125,792.5640869140625,786.1171875
879,804.6520385742188,793.7728881835938,798.2051391601562,788.1318969726562
880,802.6373901367188,796.1904907226562,797.3992919921875,796.5933837890625
881,796.5933837890625,794.981689453125,796.5933837890625,802.2344360351562
882,791.7582397460938,793.3699340820312,793.3699340820312,790.952392578125
883,799.8168334960938,796.5933837890625,792.1611938476562,797.8021850585938
884,805.4578857421875,800.6226806640625,794.981689453125,804.6520385742188
885,802.2344360351562,796.5933837890625,796.5933837890625,799.010986328125
886,798.6080322265625,796.5933837890625,797.3992919921875,800.6226806640625
887,800.6226806640625,796.1904907226562,792.967041015625,799.8168334960938
888,799.4139404296875,791.3552856445312,787.3259887695312,794.1758422851562
889,794.981689453125,790.952392578125,786.5201416015625,786.923095703125
890,797.3992919921875,788.937744140625,786.923095703125,790.1465454101562
891,796.1904907226562,786.1171875,788.937744140625,796.1904907226562
892,796.1904907226562,786.923095703125,788.5347900390625,804.2490844726562
893,794.1758422851562,791.7582397460938,790.1465454101562,805.054931640625
894,791.7582397460938,795.7875366210938,793.7728881835938,795.7875366210938
895,788.1318969726562,793.7728881835938,790.5494384765625,786.5201416015625
896,789.3406372070312,792.967041015625,794.1758422851562,784.5054931640625
897,788.937744140625,794.1758422851562,795.7875366210938,789.3406372070312
898,785.7142944335938,791.7582397460938,794.1758422851562,790.952392578125
899,786.5201416015625,790.952392578125,795.7875366210938,795.7875366210938
900,784.908447265625,792.1611938476562,794.981689453125,791.3552856445312
901,781.6849975585938,794.1758422851562,792.1611938476562,780.0732421875
902,780.879150390625,791.3552856445312,788.5347900390625,786.1171875
903,789.7435913085938,782.893798828125,790.5494384765625,798.2051391601562
904,794.981689453125,786.923095703125,798.6080322265625,802.2344360351562
905,792.1611938476562,790.952392578125,800.2197875976562,802.2344360351562
906,794.1758422851562,793.3699340820312,795.3846435546875,797.8021850585938
907,796.1904907226562,791.7582397460938,794.5787353515625,795.3846435546875
908,796.5933837890625,791.3552856445312,798.6080322265625,797.8021850585938
909,797.8021850585938,792.967041015625,799.4139404296875,791.7582397460938
910,790.952392578125,786.5201416015625,793.7728881835938,791.7582397460938
911,787.7289428710938,784.5054931640625,788.1318969726562,795.3846435546875
912,791.3552856445312,786.5201416015625,793.7728881835938,794.981689453125
913,794.5787353515625,787.3259887695312,797.3992919921875,794.981689453125
914,797.8021850585938,787.3259887695312,794.5787353515625,790.952392578125
915,798.2051391601562,786.5201416015625,796.1904907226562,794.1758422851562
916,799.010986328125,785.3113403320312,802.6373901367188,801.025634765625
917,795.3846435546875,792.5640869140625,801.8314819335938,791.3552856445312
918,795.3846435546875,799.4139404296875,797.8021850585938,787.7289428710938
919,797.8021850585938,799.8168334960938,796.1904907226562,796.996337890625
920,791.3552856445312,796.5933837890625,802.2344360351562,793.7728881835938
921,784.1025390625,792.1611938476562,803.4432373046875,785.7142944335938
922,785.3113403320312,789.7435913085938,794.1758422851562,782.4908447265625
923,786.5201416015625,789.7435913085938,789.7435913085938,782.087890625
924,789.7435913085938,792.1611938476562,790.1465454101562,780.879150390625
925,796.1904907226562,792.967041015625,792.5640869140625,783.2966918945312
926,795.3846435546875,790.952392578125,794.981689453125,787.3259887695312
927,792.1611938476562,788.1318969726562,793.7728881835938,787.3259887695312
928,785.7142944335938,785.7142944335938,793.3699340820312,789.7435913085938
929,784.5054931640625,787.3259887695312,794.5787353515625,788.5347900390625
930,790.1465454101562,791.7582397460938,796.5933837890625,788.937744140625
931,788.937744140625,794.5787353515625,797.3992919921875,793.7728881835938
932,785.7142944335938,794.981689453125,797.3992919921875,797.8021850585938
933,793.7728881835938,791.3552856445312,798.2051391601562,801.8314819335938
934,798.6080322265625,794.1758422851562,799.010986328125,804.2490844726562
935,789.7435913085938,794.5787353515625,799.4139404296875,796.996337890625
936,780.0732421875,790.5494384765625,796.5933837890625,792.1611938476562
937,780.4761962890625,784.5054931640625,794.1758422851562,789.3406372070312
938,789.3406372070312,778.8644409179688,792.967041015625,797.3992919921875
939,792.967041015625,784.908447265625,792.1611938476562,804.2490844726562
940,790.952392578125,788.5347900390625,795.7875366210938,797.8021850585938
941,790.1465454101562,790.5494384765625,799.010986328125,799.4139404296875
942,785.7142944335938,790.952392578125,796.5933837890625,791.3552856445312
943,777.2527465820312,788.5347900390625,793.7728881835938,777.6557006835938
944,780.879150390625,789.7435913085938,794.5787353515625,782.4908447265625
945,781.2820434570312,788.5347900390625,793.3699340820312,780.879150390625
946,779.6703491210938,784.908447265625,794.5787353515625,778.8644409179688
947,784.1025390625,784.1025390625,796.5933837890625,783.6996459960938
948,783.6996459960938,782.893798828125,795.3846435546875,783.6996459960938
949,791.3552856445312,779.6703491210938,794.5787353515625,789.3406372070312
950,800.2197875976562,780.879150390625,794.1758422851562,793.3699340820312
951,801.8314819335938,786.5201416015625,795.7875366210938,796.996337890625
952,800.2197875976562,788.1318969726562,792.967041015625,796.1904907226562
953,797.8021850585938,788.1318969726562,792.5640869140625,798.6080322265625
954,792.1611938476562,791.3552856445312,792.1611938476562,802.6373901367188
955,792.1611938476562,798.6080322265625,790.952392578125,794.981689453125
956,794.1758422851562,793.7728881835938,790.5494384765625,793.3699340820312
957,788.5347900390625,788.1318969726562,792.1611938476562,797.3992919921875
958,788.937744140625,788.937744140625,796.996337890625,793.7728881835938
959,790.5494384765625,790.1465454101562,797.8021850585938,791.7582397460938
960,782.087890625,792.967041015625,797.8021850585938,793.7728881835938
961,780.4761962890625,787.7289428710938,796.5933837890625,794.981689453125
962,783.6996459960938,786.5201416015625,798.2051391601562,792.967041015625
963,784.1025390625,794.981689453125,799.4139404296875,790.1465454101562
964,786.5201416015625,798.2051391601562,796.1904907226562,789.3406372070312
965,789.7435913085938,796.996337890625,793.7728881835938,800.6226806640625
966,791.7582397460938,796.1904907226562,792.1611938476562,802.2344360351562
967,794.5787353515625,794.981689453125,791.7582397460938,794.5787353515625
968,793.7728881835938,792.967041015625,790.1465454101562,792.1611938476562
969,792.5640869140625,790.952392578125,791.3552856445312,786.5201416015625
970,795.7875366210938,789.3406372070312,790.1465454101562,790.952392578125
971,798.6080322265625,788.1318969726562,792.967041015625,799.010986328125
972,797.8021850585938,785.7142944335938,793.3699340820312,796.1904907226562
973,795.3846435546875,786.1171875,792.5640869140625,792.5640869140625
974,799.010986328125,784.908447265625,794.5787353515625,804.2490844726562
975,801.4285888671875,779.2673950195312,791.7582397460938,802.2344360351562
976,798.2051391601562,784.1025390625,786.923095703125,797.3992919921875
977,796.5933837890625,787.3259887695312,788.937744140625,802.2344360351562
978,796.996337890625,791.3552856445312,794.981689453125,803.8461303710938
979,801.4285888671875,793.3699340820312,796.5933837890625,800.2197875976562
980,801.4285888671875,792.967041015625,793.7728881835938,799.010986328125
981,788.937744140625,794.1758422851562,790.1465454101562,794.5787353515625
982,786.923095703125,791.3552856445312,791.3552856445312,785.3113403320312
983,792.967041015625,790.952392578125,794.981689453125,787.7289428710938
984,794.981689453125,791.7582397460938,793.7728881835938,796.5933837890625
985,795.3846435546875,790.5494384765625,796.1904907226562,803.8461303710938
986,789.3406372070312,786.923095703125,796.1904907226562,796.996337890625
987,791.3552856445312,786.1171875,796.5933837890625,796.996337890625
988,793.3699340820312,789.7435913085938,801.4285888671875,805.054931640625
989,785.7142944335938,794.1758422851562,803.040283203125,803.4432373046875
990,782.4908447265625,798.2051391601562,803.8461303710938,800.2197875976562
991,792.5640869140625,796.1904907226562,801.8314819335938,801.4285888671875
992,796.5933837890625,792.967041015625,798.2051391601562,802.2344360351562
993,794.1758422851562,792.967041015625,793.3699340820312,800.2197875976562
994,794.5787353515625,791.3552856445312,792.1611938476562,806.6666870117188
995,794.1758422851562,789.7435913085938,795.7875366210938,811.90478515625
996,797.3992919921875,792.967041015625,790.1465454101562,811.5018310546875
997,794.981689453125,790.952392578125,791.3552856445312,803.040283203125
998,786.1171875,791.7582397460938,799.4139404296875,792.1611938476562
999,789.3406372070312,792.1611938476562,796.5933837890625,792.1611938476562
1000,791.7582397460938,790.952392578125,794.981689453125,797.8021850585938
1001,791.3552856445312,792.5640869140625,796.996337890625,792.1611938476562
1002,796.1904907226562,793.7728881835938,794.5787353515625,782.4908447265625
1003,790.5494384765625,788.5347900390625,791.3552856445312,789.3406372070312
1004,783.2966918945312,789.7435913085938,788.937744140625,793.3699340820312
1005,782.893798828125,793.3699340820312,790.5494384765625,788.5347900390625
1006,786.1171875,791.7582397460938,794.1758422851562,787.3259887695312
1007,792.1611938476562,791.7582397460938,794.5787353515625,789.3406372070312
1008,794.981689453125,792.1611938476562,796.1904907226562,792.5640869140625
1009,789.3406372070312,786.5201416015625,791.3552856445312,796.5933837890625
1010,787.3259887695312,784.1025390625,788.1318969726562,794.5787353515625
1011,790.5494384765625,786.923095703125,790.952392578125,791.3552856445312
1012,790.1465454101562,791.7582397460938,790.5494384765625,796.1904907226562
1013,791.7582397460938,790.5494384765625,789.3406372070312,796.5933837890625
1014,796.1904907226562,786.923095703125,792.967041015625,794.5787353515625
1015,796.5933837890625,788.937744140625,791.3552856445312,799.4139404296875
1016,792.1611938476562,787.7289428710938,790.1465454101562,795.3846435546875
1017,789.7435913085938,790.952392578125,791.7582397460938,788.5347900390625
1018,790.5494384765625,792.967041015625,787.7289428710938,790.1465454101562
1019,790.952392578125,788.1318969726562,786.923095703125,793.7728881835938
1020,792.967041015625,783.2966918945312,788.1318969726562,781.6849975585938
1021,798.6080322265625,786.1171875,788.937744140625,774.029296875
1022,798.6080322265625,788.5347900390625,788.1318969726562,781.6849975585938
1023,798.2051391601562,790.5494384765625,788.1318969726562,796.5933837890625
1024,799.010986328125,790.952392578125,789.7435913085938,800.6226806640625
1025,796.1904907226562,792.5640869140625,790.5494384765625,798.6080322265625
1026,795.3846435546875,794.5787353515625,791.3552856445312,804.6520385742188
1027,796.5933837890625,794.5787353515625,794.1758422851562,808.2783813476562
1028,797.3992919921875,794.981689453125,796.5933837890625,803.040283203125
1029,794.981689453125,794.1758422851562,794.5787353515625,794.5787353515625
1030,794.981689453125,794.1758422851562,793.7728881835938,800.2197875976562
1031,791.3552856445312,784.5054931640625,793.7728881835938,807.069580078125
1032,788.937744140625,785.7142944335938,792.5640869140625,801.025634765625
1033,793.7728881835938,792.1611938476562,794.1758422851562,800.6226806640625
1034,793.3699340820312,790.1465454101562,793.3699340820312,807.4725341796875
1035,788.937744140625,794.1758422851562,788.1318969726562,801.8314819335938
1036,786.923095703125,790.952392578125,786.5201416015625,792.5640869140625
1037,785.3113403320312,786.923095703125,791.3552856445312,792.1611938476562
1038,782.893798828125,787.3259887695312,792.5640869140625,796.5933837890625
1039,783.6996459960938,788.937744140625,796.1904907226562,796.1904907226562
1040,787.3259887695312,790.1465454101562,794.981689453125,790.1465454101562
1041,790.952392578125,791.7582397460938,792.5640869140625,790.5494384765625
1042,788.937744140625,789.7435913085938,793.7728881835938,790.5494384765625
1043,786.5201416015625,786.1171875,794.5787353515625,788.5347900390625
1044,792.1611938476562,786.923095703125,799.010986328125,792.1611938476562
1045,800.2197875976562,788.5347900390625,798.2051391601562,794.1758422851562
1046,795.7875366210938,788.1318969726562,790.952392578125,787.3259887695312
1047,792.967041015625,792.1611938476562,794.981689453125,787.7289428710938
1048,799.010986328125,794.5787353515625,799.010986328125,797.8021850585938
1049,799.010986328125,788.1318969726562,799.010986328125,800.2197875976562
1050,797.3992919921875,786.923095703125,800.2197875976562,799.4139404296875
1051,793.3699340820312,791.3552856445312,801.025634765625,792.1611938476562
1052,788.1318969726562,791.7582397460938,797.8021850585938,788.5347900390625
1053,790.952392578125,790.5494384765625,796.996337890625,791.7582397460938
1054,790.952392578125,797.3992919921875,798.2051391601562,793.3699340820312
1055,788.937744140625,796.5933837890625,799.4139404296875,790.1465454101562
1056,792.1611938476562,788.1318969726562,799.010986328125,790.952392578125
1057,798.2051391601562,790.5494384765625,793.7728881835938,790.952392578125
1058,801.8314819335938,792.1611938476562,796.1904907226562,787.7289428710938
1059,799.4139404296875,789.3406372070312,796.5933837890625,791.3552856445312
1060,792.5640869140625,789.3406372070312,795.3846435546875,794.1758422851562
1061,797.3992919921875,791.3552856445312,798.2051391601562,798.6080322265625
1062,802.2344360351562,792.5640869140625,798.2051391601562,800.6226806640625
1063,794.1758422851562,795.7875366210938,798.6080322265625,792.5640869140625
1064,793.7728881835938,795.7875366210938,795.3846435546875,793.3699340820312
1065,792.5640869140625,791.7582397460938,794.981689453125,800.6226806640625
1066,788.1318969726562,789.7435913085938,796.1904907226562,796.996337890625
1067,790.1465454101562,791.3552856445312,797.3992919921875,792.1611938476562
1068,794.5787353515625,786.5201416015625,799.4139404296875,801.025634765625
1069,793.3699340820312,786.923095703125,801.8314819335938,804.6520385742188
1070,792.1611938476562,794.5787353515625,803.4432373046875,799.010986328125
1071,794.981689453125,797.8021850585938,792.967041015625,792.5640869140625
1072,792.1611938476562,799.010986328125,784.908447265625,786.923095703125
1073,786.5201416015625,796.5933837890625,790.1465454101562,785.7142944335938
1074,779.2673950195312,792.967041015625,791.3552856445312,780.879150390625
1075,779.6703491210938,791.3552856445312,786.923095703125,783.2966918945312
1076,786.923095703125,792.967041015625,788.5347900390625,791.3552856445312
1077,787.3259887695312,794.981689453125,792.5640869140625,788.5347900390625
1078,783.6996459960938,794.1758422851562,792.1611938476562,778.4615478515625
1079,784.908447265625,791.7582397460938,793.3699340820312,781.6849975585938
1080,781.6849975585938,787.3259887695312,792.5640869140625,782.4908447265625
1081,778.8644409179688,788.1318969726562,795.3846435546875,780.4761962890625
1082,788.1318969726562,789.7435913085938,796.1904907226562,785.3113403320312
1083,791.3552856445312,790.5494384765625,792.5640869140625,786.5201416015625
1084,793.7728881835938,790.1465454101562,788.5347900390625,790.1465454101562
1085,800.2197875976562,795.3846435546875,796.996337890625,789.3406372070312
1086,795.3846435546875,801.025634765625,801.8314819335938,792.1611938476562
1087,793.3699340820312,802.2344360351562,798.6080322265625,795.3846435546875
1088,796.5933837890625,800.6226806640625,793.7728881835938,793.3699340820312
1089,793.3699340820312,794.981689453125,794.5787353515625,795.3846435546875
1090,791.3552856445312,791.7582397460938,794.981689453125,792.967041015625
1091,792.967041015625,788.937744140625,792.1611938476562,793.3699340820312
1092,793.7728881835938,788.1318969726562,794.981689453125,795.3846435546875
1093,794.5787353515625,787.3259887695312,795.3846435546875,797.3992919921875
1094,795.7875366210938,790.5494384765625,794.1758422851562,801.8314819335938
1095,794.1758422851562,793.7728881835938,792.967041015625,799.010986328125
1096,797.8021850585938,792.967041015625,795.7875366210938,799.010986328125
1097,797.8021850585938,788.937744140625,797.8021850585938,803.8461303710938
1098,790.5494384765625,788.1318969726562,795.3846435546875,804.6520385742188
1099,791.7582397460938,792.1611938476562,791.7582397460938,805.054931640625
1100,789.7435913085938,796.5933837890625,792.1611938476562,806.6666870117188
1101,782.087890625,792.967041015625,797.8021850585938,799.4139404296875
1102,784.1025390625,786.5201416015625,795.7875366210938,789.7435913085938
1103,786.1171875,786.1171875,793.3699340820312,793.3699340820312
1104,784.1025390625,787.7289428710938,796.5933837890625,796.996337890625
1105,785.7142944335938,788.937744140625,801.8314819335938,798.2051391601562
1106,786.923095703125,784.1025390625,800.2197875976562,794.1758422851562
1107,792.5640869140625,782.893798828125,798.6080322265625,795.7875366210938
1108,794.1758422851562,785.7142944335938,800.2197875976562,800.6226806640625
1109,788.937744140625,790.1465454101562,796.1904907226562,793.7728881835938
1110,791.3552856445312,787.7289428710938,791.7582397460938,792.5640869140625
1111,792.1611938476562,784.908447265625,792.1611938476562,807.87548828125
1112,787.7289428710938,788.1318969726562,795.7875366210938,803.4432373046875
1113,788.937744140625,790.5494384765625,795.7875366210938,794.5787353515625
1114,792.967041015625,790.952392578125,794.981689453125,794.5787353515625
1115,792.5640869140625,792.5640869140625,792.1611938476562,789.7435913085938
1116,784.908447265625,790.952392578125,789.3406372070312,784.908447265625
1117,786.923095703125,787.3259887695312,789.3406372070312,786.923095703125
1118,797.8021850585938,788.5347900390625,789.7435913085938,792.5640869140625
1119,795.7875366210938,791.3552856445312,791.3552856445312,792.967041015625
1120,788.937744140625,789.7435913085938,790.952392578125,794.1758422851562
1121,787.3259887695312,793.3699340820312,792.5640869140625,795.3846435546875
1122,786.1171875,797.8021850585938,792.967041015625,795.7875366210938
1123,788.1318969726562,794.5787353515625,795.3846435546875,798.6080322265625
1124,791.3552856445312,793.3699340820312,796.1904907226562,790.1465454101562
1125,791.7582397460938,797.8021850585938,794.981689453125,790.952392578125
1126,789.3406372070312,791.7582397460938,792.967041015625,793.3699340820312
1127,785.3113403320312,792.967041015625,793.3699340820312,786.5201416015625
1128,784.908447265625,794.981689453125,794.981689453125,784.5054931640625
1129,786.5201416015625,792.967041015625,791.7582397460938,786.923095703125
1130,790.5494384765625,794.1758422851562,790.5494384765625,786.1171875
1131,795.3846435546875,793.7728881835938,790.5494384765625,786.1171875
1132,792.1611938476562,790.952392578125,794.5787353515625,790.5494384765625
1133,787.7289428710938,786.1171875,795.3846435546875,792.967041015625
1134,794.5787353515625,790.952392578125,788.937744140625,794.5787353515625
1135,794.1758422851562,789.7435913085938,787.7289428710938,795.3846435546875
1136,794.1758422851562,785.7142944335938,791.7582397460938,796.996337890625
1137,799.4139404296875,792.967041015625,794.5787353515625,800.2197875976562
1138,794.5787353515625,796.1904907226562,794.981689453125,794.5787353515625
1139,790.952392578125,795.3846435546875,794.981689453125,794.981689453125
1140,794.1758422851562,801.025634765625,795.3846435546875,801.025634765625
1141,796.1904907226562,800.2197875976562,794.981689453125,800.2197875976562
1142,798.6080322265625,795.3846435546875,797.8021850585938,799.4139404296875
1143,799.8168334960938,794.5787353515625,799.4139404296875,799.010986328125
1144,795.7875366210938,793.7728881835938,794.5787353515625,792.1611938476562
1145,789.3406372070312,790.1465454101562,796.996337890625,791.7582397460938
1146,791.3552856445312,793.3699340820312,804.2490844726562,796.996337890625
1147,791.7582397460938,794.5787353515625,805.4578857421875,795.7875366210938
1148,787.3259887695312,794.1758422851562,804.6520385742188,799.010986328125
1149,786.5201416015625,795.7875366210938,804.2490844726562,801.4285888671875
1150,787.3259887695312,800.6226806640625,797.8021850585938,799.010986328125
1151,789.7435913085938,803.040283203125,798.2051391601562,800.6226806640625
1152,786.923095703125,799.8168334960938,803.040283203125,805.054931640625
1153,788.1318969726562,797.8021850585938,800.6226806640625,811.90478515625
1154,791.7582397460938,794.981689453125,801.8314819335938,810.6959838867188
1155,786.1171875,796.5933837890625,801.8314819335938,793.3699340820312
1156,788.1318969726562,796.1904907226562,799.4139404296875,789.7435913085938
1157,791.7582397460938,790.5494384765625,796.996337890625,801.025634765625
1158,790.5494384765625,789.7435913085938,798.2051391601562,799.4139404296875
1159,786.923095703125,788.937744140625,796.1904907226562,793.3699340820312
1160,788.937744140625,781.6849975585938,791.7582397460938,796.996337890625
1161,792.1611938476562,784.5054931640625,794.1758422851562,800.6226806640625
1162,787.7289428710938,793.7728881835938,796.5933837890625,801.4285888671875
1163,785.7142944335938,791.7582397460938,794.5787353515625,794.5787353515625
1164,786.1171875,789.7435913085938,791.3552856445312,787.3259887695312
1165,788.1318969726562,790.952392578125,794.5787353515625,797.3992919921875
1166,788.5347900390625,792.1611938476562,795.7875366210938,799.4139404296875
1167,788.937744140625,794.1758422851562,794.1758422851562,791.7582397460938
1168,787.7289428710938,793.3699340820312,790.1465454101562,792.967041015625
1169,788.5347900390625,788.5347900390625,788.5347900390625,801.025634765625
1170,793.3699340820312,779.6703491210938,788.937744140625,802.6373901367188
1171,799.010986328125,784.908447265625,784.5054931640625,801.4285888671875
1172,795.3846435546875,795.7875366210938,783.6996459960938,798.2051391601562
1173,787.3259887695312,789.7435913085938,790.1465454101562,792.5640869140625
1174,786.1171875,782.893798828125,788.937744140625,786.923095703125
1175,786.5201416015625,788.5347900390625,783.6996459960938,786.5201416015625
1176,781.6849975585938,787.3259887695312,786.1171875,791.7582397460938
1177,786.923095703125,790.5494384765625,791.7582397460938,788.1318969726562
1178,792.967041015625,794.5787353515625,796.1904907226562,782.893798828125
1179,794.5787353515625,793.7728881835938,795.3846435546875,780.4761962890625
1180,800.2197875976562,794.5787353515625,794.1758422851562,784.1025390625
1181,800.6226806640625,791.7582397460938,794.981689453125,783.2966918945312
1182,801.025634765625,792.5640869140625,796.1904907226562,783.6996459960938
1183,799.8168334960938,793.3699340820312,794.5787353515625,787.7289428710938
1184,798.2051391601562,792.1611938476562,791.3552856445312,795.3846435546875
1185,799.010986328125,793.3699340820312,796.5933837890625,797.3992919921875
1186,800.2197875976562,791.7582397460938,798.2051391601562,793.7728881835938
1187,800.6226806640625,790.952392578125,793.3699340820312,795.7875366210938
1188,795.7875366210938,789.3406372070312,792.967041015625,794.5787353515625
1189,796.5933837890625,789.7435913085938,792.967041015625,790.1465454101562
1190,794.981689453125,795.3846435546875,791.7582397460938,788.5347900390625
1191,793.3699340820312,799.010986328125,791.3552856445312,788.937744140625
1192,794.5787353515625,796.5933837890625,788.937744140625,790.952392578125
1193,794.5787353515625,796.5933837890625,792.5640869140625,791.3552856445312
1194,792.967041015625,794.5787353515625,794.5787353515625,792.5640869140625
1195,794.1758422851562,792.5640869140625,793.7728881835938,795.3846435546875
1196,802.2344360351562,798.2051391601562,799.4139404296875,802.6373901367188
1197,799.010986328125,799.4139404296875,803.040283203125,805.8607788085938
1198,796.5933837890625,797.3992919921875,798.6080322265625,797.3992919921875
1199,802.6373901367188,798.2051391601562,793.3699340820312,793.3699340820312
1200,799.010986328125,794.981689453125,793.7728881835938,794.981689453125
1201,793.7728881835938,795.7875366210938,795.7875366210938,792.1611938476562
1202,794.5787353515625,797.8021850585938,794.5787353515625,791.7582397460938
1203,794.981689453125,795.7875366210938,792.5640869140625,800.2197875976562
1204,793.7728881835938,790.952392578125,793.3699340820312,796.1904907226562
1205,790.1465454101562,794.5787353515625,799.010986328125,790.1465454101562
1206,786.5201416015625,794.1758422851562,798.6080322265625,791.3552856445312
1207,786.923095703125,788.5347900390625,794.1758422851562,797.3992919921875
1208,791.7582397460938,797.3992919921875,797.3992919921875,797.3992919921875
1209,793.7728881835938,804.2490844726562,799.4139404296875,799.4139404296875
1210,789.3406372070312,795.7875366210938,797.3992919921875,799.4139404296875
1211,790.5494384765625,792.967041015625,799.8168334960938,796.996337890625
1212,786.1171875,796.5933837890625,799.8168334960938,791.3552856445312
1213,788.937744140625,793.7728881835938,795.7875366210938,785.7142944335938
1214,794.5787353515625,792.5640869140625,795.7875366210938,792.5640869140625
1215,790.5494384765625,787.3259887695312,798.2051391601562,800.6226806640625
1216,789.7435913085938,786.923095703125,800.2197875976562,801.025634765625
1217,793.7728881835938,796.1904907226562,793.7728881835938,797.3992919921875
1218,800.6226806640625,791.3552856445312,791.3552856445312,793.7728881835938
1219,797.8021850585938,789.3406372070312,794.5787353515625,795.3846435546875
1220,787.3259887695312,793.7728881835938,789.7435913085938,786.1171875
1221,788.5347900390625,791.3552856445312,788.1318969726562,782.4908447265625
1222,789.3406372070312,790.1465454101562,790.5494384765625,788.1318969726562
1223,783.6996459960938,792.967041015625,791.7582397460938,786.5201416015625
1224,788.1318969726562,794.1758422851562,790.952392578125,788.1318969726562
1225,796.996337890625,795.3846435546875,791.7582397460938,798.2051391601562
1226,791.7582397460938,795.7875366210938,793.3699340820312,792.967041015625
1227,789.7435913085938,794.981689453125,791.3552856445312,788.1318969726562
1228,794.5787353515625,797.8021850585938,793.3699340820312,791.7582397460938
1229,794.981689453125,796.996337890625,790.952392578125,783.6996459960938
1230,796.996337890625,788.937744140625,789.3406372070312,784.908447265625
1231,793.7728881835938,786.923095703125,792.1611938476562,787.3259887695312
1232,788.937744140625,793.7728881835938,788.1318969726562,787.3259887695312
1233,792.5640869140625,795.3846435546875,786.923095703125,790.5494384765625
1234,792.5640869140625,794.981689453125,788.937744140625,794.981689453125
1235,786.5201416015625,792.1611938476562,790.952392578125,792.5640869140625
1236,786.923095703125,791.3552856445312,792.1611938476562,788.937744140625
1237,793.3699340820312,790.1465454101562,791.7582397460938,790.952392578125
1238,793.7728881835938,789.7435913085938,787.7289428710938,794.5787353515625
1239,794.1758422851562,786.923095703125,786.923095703125,789.3406372070312
1240,796.1904907226562,782.087890625,788.937744140625,784.908447265625
1241,792.1611938476562,788.937744140625,790.952392578125,793.7728881835938
1242,794.1758422851562,798.6080322265625,797.8021850585938,807.069580078125
1243,794.1758422851562,797.8021850585938,798.6080322265625,798.6080322265625
1244,790.5494384765625,797.8021850585938,799.010986328125,790.952392578125
1245,788.5347900390625,799.8168334960938,800.6226806640625,795.7875366210938
1246,790.5494384765625,795.7875366210938,798.6080322265625,792.967041015625
1247,786.923095703125,792.967041015625,795.3846435546875,784.908447265625
1248,784.5054931640625,790.952392578125,791.3552856445312,782.087890625
1249,783.2966918945312,785.3113403320312,791.7582397460938,778.8644409179688
1250,781.6849975585938,785.3113403320312,793.7728881835938,782.893798828125
1251,783.2966918945312,787.7289428710938,793.7728881835938,791.7582397460938
1252,783.6996459960938,788.1318969726562,788.937744140625,790.1465454101562
1253,791.3552856445312,789.7435913085938,787.7289428710938,799.4139404296875
1254,789.3406372070312,790.5494384765625,793.7728881835938,797.8021850585938
1255,783.6996459960938,789.3406372070312,801.4285888671875,793.3699340820312
1256,784.908447265625,790.5494384765625,799.010986328125,798.2051391601562
1257,785.3113403320312,794.981689453125,796.5933837890625,797.8021850585938
1258,787.7289428710938,796.5933837890625,799.010986328125,797.8021850585938
1259,795.3846435546875,798.6080322265625,799.010986328125,798.6080322265625
1260,799.8168334960938,799.4139404296875,800.6226806640625,804.2490844726562
1261,797.8021850585938,796.1904907226562,803.4432373046875,802.6373901367188
1262,799.010986328125,793.7728881835938,802.6373901367188,792.1611938476562
1263,801.025634765625,786.923095703125,795.3846435546875,792.1611938476562
1264,799.010986328125,788.1318969726562,794.5787353515625,800.6226806640625
1265,794.981689453125,792.5640869140625,796.1904907226562,802.6373901367188
1266,793.7728881835938,792.967041015625,797.3992919921875,795.7875366210938
1267,793.7728881835938,793.7728881835938,800.6226806640625,794.1758422851562
1268,794.981689453125,787.7289428710938,796.996337890625,795.7875366210938
1269,795.7875366210938,790.952392578125,798.2051391601562,792.1611938476562
1270,795.7875366210938,796.5933837890625,800.6226806640625,793.7728881835938
1271,800.6226806640625,796.996337890625,801.4285888671875,802.2344360351562
1272,793.3699340820312,795.3846435546875,799.4139404296875,801.4285888671875
1273,788.5347900390625,794.5787353515625,791.3552856445312,797.8021850585938
1274,796.996337890625,792.5640869140625,794.981689453125,794.1758422851562
1275,802.6373901367188,789.3406372070312,794.981689453125,786.923095703125
1276,799.8168334960938,789.7435913085938,795.3846435546875,794.981689453125
1277,794.5787353515625,791.7582397460938,799.010986328125,800.2197875976562
1278,795.3846435546875,794.1758422851562,796.996337890625,794.981689453125
1279,798.2051391601562,796.1904907226562,793.7728881835938,794.981689453125
1280,800.2197875976562,800.6226806640625,789.7435913085938,796.1904907226562
1281,799.4139404296875,794.981689453125,788.5347900390625,799.010986328125
1282,792.1611938476562,790.1465454101562,788.5347900390625,798.6080322265625
1283,788.1318969726562,793.3699340820312,786.5201416015625,792.967041015625
1284,786.5201416015625,793.7728881835938,787.7289428710938,790.5494384765625
1285,784.1025390625,792.967041015625,790.952392578125,791.3552856445312
1286,784.1025390625,787.3259887695312,790.952392578125,791.3552856445312
1287,782.4908447265625,787.7289428710938,790.5494384765625,790.1465454101562
1288,787.3259887695312,793.7728881835938,795.7875366210938,791.7582397460938
1289,793.3699340820312,792.5640869140625,797.3992919921875,796.5933837890625
1290,791.7582397460938,790.952392578125,795.3846435546875,795.3846435546875
1291,786.1171875,790.952392578125,796.5933837890625,796.1904907226562
1292,786.1171875,789.7435913085938,797.3992919921875,804.6520385742188
1293,788.937744140625,791.3552856445312,799.4139404296875,786.923095703125
1294,794.5787353515625,794.5787353515625,797.8021850585938,773.2234497070312
1295,790.952392578125,792.5640869140625,791.3552856445312,780.879150390625
1296,788.5347900390625,790.952392578125,793.3699340820312,784.1025390625
1297,793.7728881835938,788.1318969726562,798.2051391601562,786.1171875
1298,799.010986328125,790.5494384765625,796.996337890625,788.1318969726562
1299,805.054931640625,796.5933837890625,796.1904907226562,794.981689453125
1300,801.4285888671875,796.996337890625,796.5933837890625,801.4285888671875
1301,795.3846435546875,796.1904907226562,794.5787353515625,797.3992919921875
1302,792.5640869140625,792.5640869140625,793.3699340820312,799.4139404296875
1303,794.981689453125,794.1758422851562,793.3699340820312,807.069580078125
1304,801.025634765625,795.7875366210938,796.5933837890625,804.2490844726562
1305,794.981689453125,794.5787353515625,799.4139404296875,796.996337890625
1306,793.7728881835938,794.5787353515625,796.996337890625,793.7728881835938
1307,801.4285888671875,793.3699340820312,792.5640869140625,796.5933837890625
1308,795.3846435546875,791.7582397460938,792.967041015625,790.1465454101562
1309,790.5494384765625,792.1611938476562,792.5640869140625,785.7142944335938
1310,796.5933837890625,790.5494384765625,796.5933837890625,795.7875366210938
1311,801.8314819335938,792.5640869140625,801.025634765625,800.2197875976562
1312,795.3846435546875,797.8021850585938,798.2051391601562,798.2051391601562
1313,794.5787353515625,794.5787353515625,798.2051391601562,799.4139404296875
1314,798.6080322265625,790.952392578125,798.6080322265625,803.8461303710938
1315,798.6080322265625,795.7875366210938,799.8168334960938,799.4139404296875
1316,796.996337890625,796.1904907226562,801.025634765625,790.952392578125
1317,790.1465454101562,791.3552856445312,801.8314819335938,789.3406372070312
1318,791.3552856445312,792.5640869140625,801.4285888671875,796.1904907226562
1319,795.7875366210938,799.8168334960938,796.1904907226562,801.025634765625
1320,793.3699340820312,797.8021850585938,789.7435913085938,800.6226806640625
1321,794.5787353515625,794.1758422851562,792.5640869140625,798.2051391601562
1322,801.025634765625,790.5494384765625,793.3699340820312,801.025634765625
1323,795.3846435546875,791.3552856445312,787.3259887695312,796.996337890625
1324,799.8168334960938,799.8168334960938,792.1611938476562,792.5640869140625
1325,803.4432373046875,801.025634765625,798.2051391601562,795.3846435546875
1326,794.5787353515625,797.8021850585938,791.3552856445312,796.996337890625
1327,792.5640869140625,800.6226806640625,792.5640869140625,793.7728881835938
1328,792.1611938476562,798.6080322265625,793.3699340820312,788.937744140625
1329,787.3259887695312,796.996337890625,787.7289428710938,788.1318969726562
1330,786.5201416015625,790.1465454101562,784.1025390625,786.1171875
1331,789.3406372070312,788.5347900390625,785.7142944335938,788.937744140625
1332,786.923095703125,797.8021850585938,790.1465454101562,790.1465454101562
1333,790.1465454101562,799.4139404296875,788.937744140625,794.5787353515625
1334,789.7435913085938,797.3992919921875,790.5494384765625,805.4578857421875
1335,786.5201416015625,792.1611938476562,792.967041015625,798.6080322265625
1336,788.5347900390625,792.5640869140625,793.7728881835938,792.5640869140625
1337,791.7582397460938,790.952392578125,795.7875366210938,800.2197875976562
1338,796.1904907226562,787.3259887695312,792.5640869140625,803.040283203125
1339,798.6080322265625,792.967041015625,789.7435913085938,790.952392578125
1340,796.5933837890625,796.5933837890625,792.967041015625,785.3113403320312
1341,799.4139404296875,793.7728881835938,797.8021850585938,794.1758422851562
1342,805.8607788085938,792.1611938476562,802.6373901367188,792.1611938476562
1343,799.4139404296875,795.7875366210938,799.8168334960938,790.952392578125
1344,793.3699340820312,799.8168334960938,794.1758422851562,794.981689453125
1345,788.937744140625,803.040283203125,791.7582397460938,789.3406372070312
1346,789.3406372070312,805.8607788085938,792.967041015625,787.3259887695312
1347,797.8021850585938,799.8168334960938,796.996337890625,792.5640869140625
1348,799.010986328125,790.952392578125,799.010986328125,798.2051391601562
1349,796.996337890625,790.1465454101562,796.996337890625,800.2197875976562
1350,796.1904907226562,795.7875366210938,792.967041015625,792.5640869140625
1351,796.996337890625,796.5933837890625,795.7875366210938,789.7435913085938
1352,798.2051391601562,797.8021850585938,796.1904907226562,792.967041015625
1353,794.5787353515625,796.5933837890625,794.981689453125,794.981689453125
1354,789.7435913085938,786.923095703125,796.1904907226562,795.3846435546875
1355,794.981689453125,790.952392578125,791.3552856445312,796.5933837890625
1356,800.6226806640625,798.2051391601562,792.5640869140625,799.4139404296875
1357,790.952392578125,796.996337890625,794.981689453125,801.025634765625
1358,781.2820434570312,794.981689453125,793.3699340820312,801.8314819335938
1359,782.893798828125,793.3699340820312,793.7728881835938,797.8021850585938
1360,793.7728881835938,789.7435913085938,794.981689453125,799.8168334960938
1361,797.3992919921875,792.5640869140625,797.8021850585938,802.2344360351562
1362,789.7435913085938,793.3699340820312,800.2197875976562,786.923095703125
1363,789.7435913085938,790.1465454101562,794.981689453125,787.3259887695312
1364,799.8168334960938,794.5787353515625,794.1758422851562,797.3992919921875
1365,797.8021850585938,793.3699340820312,801.025634765625,788.1318969726562
1366,798.6080322265625,792.1611938476562,801.025634765625,795.3846435546875
1367,806.2637329101562,792.5640869140625,798.2051391601562,813.113525390625
1368,806.6666870117188,793.3699340820312,791.7582397460938,809.4871826171875
1369,795.3846435546875,797.3992919921875,787.3259887695312,795.7875366210938
1370,786.5201416015625,798.2051391601562,788.5347900390625,790.952392578125
1371,788.937744140625,793.3699340820312,792.1611938476562,790.5494384765625
1372,793.3699340820312,791.3552856445312,791.3552856445312,794.1758422851562
1373,794.5787353515625,790.952392578125,789.7435913085938,796.5933837890625
1374,792.5640869140625,792.5640869140625,788.937744140625,791.3552856445312
1375,788.937744140625,796.1904907226562,785.7142944335938,794.1758422851562
1376,791.3552856445312,795.3846435546875,788.1318969726562,803.040283203125
1377,797.3992919921875,792.5640869140625,792.1611938476562,796.5933837890625
1378,794.1758422851562,789.7435913085938,791.3552856445312,789.7435913085938
1379,784.908447265625,787.7289428710938,792.967041015625,790.1465454101562
1380,783.6996459960938,792.967041015625,793.3699340820312,791.3552856445312
1381,785.3113403320312,792.1611938476562,789.7435913085938,790.5494384765625
1382,788.937744140625,792.1611938476562,790.1465454101562,792.967041015625
1383,789.7435913085938,796.996337890625,790.952392578125,793.7728881835938
1384,786.5201416015625,796.1904907226562,790.1465454101562,785.7142944335938
1385,784.5054931640625,795.3846435546875,789.3406372070312,784.1025390625
1386,786.1171875,793.7728881835938,788.5347900390625,786.1171875
1387,788.937744140625,795.3846435546875,788.1318969726562,793.7728881835938
1388,791.3552856445312,798.6080322265625,789.7435913085938,785.7142944335938
1389,787.7289428710938,793.7728881835938,791.7582397460938,779.2673950195312
1390,790.952392578125,792.967041015625,792.1611938476562,792.967041015625
1391,800.6226806640625,794.5787353515625,792.1611938476562,793.3699340820312
1392,801.4285888671875,796.996337890625,793.3699340820312,792.1611938476562
1393,795.7875366210938,795.3846435546875,788.937744140625,796.1904907226562
1394,798.6080322265625,793.3699340820312,791.3552856445312,794.981689453125
1395,796.5933837890625,797.3992919921875,796.1904907226562,792.5640869140625
1396,785.7142944335938,797.3992919921875,793.3699340820312,793.7728881835938
1397,788.937744140625,794.981689453125,792.967041015625,792.5640869140625
1398,787.7289428710938,793.3699340820312,790.1465454101562,796.996337890625
1399,785.7142944335938,792.967041015625,791.7582397460938,805.4578857421875
1400,790.952392578125,793.3699340820312,799.4139404296875,788.937744140625
1401,787.7289428710938,791.3552856445312,794.1758422851562,776.4468994140625
1402,790.1465454101562,784.908447265625,790.952392578125,784.1025390625
1403,790.5494384765625,784.5054931640625,790.952392578125,783.6996459960938
1404,789.3406372070312,790.5494384765625,790.952392578125,782.893798828125
1405,790.5494384765625,794.1758422851562,791.3552856445312,791.7582397460938
1406,789.7435913085938,792.1611938476562,790.1465454101562,794.981689453125
1407,791.7582397460938,791.7582397460938,792.1611938476562,795.3846435546875
1408,791.3552856445312,794.5787353515625,790.952392578125,797.3992919921875
1409,786.5201416015625,796.5933837890625,791.7582397460938,796.1904907226562
1410,790.5494384765625,799.4139404296875,787.7289428710938,800.6226806640625
1411,799.010986328125,799.4139404296875,782.4908447265625,800.2197875976562
1412,801.8314819335938,801.8314819335938,788.1318969726562,795.3846435546875
1413,799.8168334960938,801.4285888671875,792.5640869140625,799.8168334960938
1414,800.2197875976562,794.1758422851562,795.3846435546875,804.2490844726562
1415,802.6373901367188,794.981689453125,797.8021850585938,801.4285888671875
1416,801.025634765625,800.2197875976562,796.996337890625,801.025634765625
1417,798.6080322265625,800.6226806640625,796.996337890625,801.025634765625
1418,796.5933837890625,798.6080322265625,796.5933837890625,796.996337890625
1419,799.4139404296875,799.4139404296875,793.7728881835938,792.967041015625
1420,798.2051391601562,798.6080322265625,793.3699340820312,787.7289428710938
1421,795.3846435546875,793.3699340820312,792.5640869140625,788.937744140625
1422,791.3552856445312,796.5933837890625,790.952392578125,784.908447265625
1423,787.7289428710938,797.8021850585938,793.3699340820312,777.2527465820312
1424,786.5201416015625,787.3259887695312,794.981689453125,781.6849975585938
1425,783.6996459960938,784.1025390625,794.981689453125,784.908447265625
1426,782.893798828125,794.981689453125,794.981689453125,786.923095703125
1427,782.087890625,799.4139404296875,794.981689453125,785.3113403320312
1428,779.6703491210938,792.5640869140625,795.7875366210938,789.3406372070312
1429,783.2966918945312,796.1904907226562,795.3846435546875,796.5933837890625
1430,784.1025390625,793.7728881835938,796.1904907226562,795.7875366210938
1431,784.5054931640625,788.5347900390625,796.5933837890625,801.025634765625
1432,791.7582397460938,793.7728881835938,794.981689453125,803.4432373046875
1433,797.8021850585938,797.8021850585938,798.2051391601562,801.8314819335938
1434,794.5787353515625,797.8021850585938,799.010986328125,794.5787353515625
1435,795.7875366210938,792.967041015625,794.981689453125,792.1611938476562
1436,802.2344360351562,787.3259887695312,793.3699340820312,793.3699340820312
1437,801.4285888671875,790.952392578125,793.7728881835938,781.2820434570312
1438,797.3992919921875,796.996337890625,792.5640869140625,783.6996459960938
1439,797.3992919921875,798.6080322265625,792.967041015625,792.5640869140625
1440,793.3699340820312,795.3846435546875,788.937744140625,793.3699340820312
1441,787.7289428710938,790.5494384765625,790.5494384765625,789.3406372070312
1442,787.7289428710938,790.5494384765625,788.937744140625,791.7582397460938
1443,794.1758422851562,792.5640869140625,789.7435913085938,792.1611938476562
1444,795.7875366210938,795.7875366210938,794.981689453125,786.923095703125
1445,793.3699340820312,797.8021850585938,795.3846435546875,792.967041015625
1446,794.981689453125,801.4285888671875,801.4285888671875,798.2051391601562
1447,796.5933837890625,798.2051391601562,802.2344360351562,801.4285888671875
1448,792.5640869140625,796.5933837890625,800.6226806640625,808.6813354492188
1449,790.952392578125,798.2051391601562,803.8461303710938,812.3076782226562
1450,792.5640869140625,798.6080322265625,802.6373901367188,804.2490844726562
1451,789.3406372070312,794.1758422851562,799.010986328125,799.010986328125
1452,792.1611938476562,793.3699340820312,805.054931640625,806.6666870117188
1453,792.5640869140625,796.5933837890625,805.054931640625,803.040283203125
1454,793.3699340820312,794.981689453125,804.2490844726562,798.6080322265625
1455,791.7582397460938,787.3259887695312,802.6373901367188,794.1758422851562
1456,787.7289428710938,787.3259887695312,795.3846435546875,794.5787353515625
1457,793.3699340820312,792.5640869140625,799.010986328125,799.010986328125
1458,797.8021850585938,793.3699340820312,799.8168334960938,791.7582397460938
1459,796.996337890625,788.937744140625,794.1758422851562,797.3992919921875
1460,791.7582397460938,786.1171875,796.1904907226562,803.8461303710938
1461,787.7289428710938,788.937744140625,798.6080322265625,794.981689453125
1462,787.7289428710938,788.937744140625,794.1758422851562,790.5494384765625
1463,789.3406372070312,787.7289428710938,789.3406372070312,791.7582397460938
1464,792.5640869140625,790.952392578125,790.5494384765625,790.1465454101562
1465,794.981689453125,794.981689453125,794.1758422851562,790.5494384765625
1466,792.1611938476562,786.5201416015625,788.937744140625,789.3406372070312
1467,793.3699340820312,792.5640869140625,789.3406372070312,796.1904907226562
1468,791.3552856445312,802.6373901367188,795.7875366210938,794.981689453125
1469,790.5494384765625,794.5787353515625,795.7875366210938,788.1318969726562
1470,798.6080322265625,784.908447265625,794.5787353515625,790.952392578125
1471,807.87548828125,784.908447265625,789.7435913085938,803.040283203125
1472,804.6520385742188,789.7435913085938,789.7435913085938,802.6373901367188
1473,792.5640869140625,794.1758422851562,794.1758422851562,780.879150390625
1474,787.7289428710938,796.1904907226562,794.981689453125,776.4468994140625
1475,784.1025390625,791.7582397460938,791.7582397460938,779.6703491210938
1476,782.4908447265625,786.5201416015625,789.3406372070312,783.6996459960938
1477,782.4908447265625,789.7435913085938,789.3406372070312,783.6996459960938
1478,789.3406372070312,795.7875366210938,791.7582397460938,785.7142944335938
1479,800.2197875976562,794.5787353515625,793.3699340820312,792.967041015625
1480,797.3992919921875,795.3846435546875,793.7728881835938,787.7289428710938
1481,789.3406372070312,793.7728881835938,794.1758422851562,784.908447265625
1482,791.7582397460938,792.1611938476562,796.5933837890625,794.5787353515625
1483,794.981689453125,796.996337890625,800.6226806640625,799.010986328125
1484,797.3992919921875,799.4139404296875,799.010986328125,795.3846435546875
1485,796.996337890625,795.7875366210938,794.1758422851562,789.7435913085938
1486,799.4139404296875,792.5640869140625,797.3992919921875,792.967041015625
1487,801.025634765625,793.3699340820312,799.010986328125,796.1904907226562
1488,797.8021850585938,794.981689453125,795.3846435546875,790.5494384765625
1489,799.8168334960938,799.4139404296875,796.1904907226562,788.1318969726562
1490,801.025634765625,798.2051391601562,792.5640869140625,788.1318969726562
1491,802.2344360351562,792.5640869140625,790.1465454101562,788.5347900390625
1492,800.6226806640625,792.5640869140625,792.967041015625,792.5640869140625
1493,799.010986328125,797.3992919921875,788.1318969726562,796.1904907226562
1494,798.6080322265625,794.5787353515625,792.1611938476562,803.040283203125
1495,791.3552856445312,792.967041015625,794.981689453125,804.6520385742188
1496,793.3699340820312,801.8314819335938,793.7728881835938,800.6226806640625
1497,800.2197875976562,800.6226806640625,792.5640869140625,803.4432373046875
1498,793.7728881835938,794.5787353515625,791.7582397460938,803.4432373046875
1499,790.952392578125,798.2051391601562,790.952392578125,804.2490844726562
1500,793.3699340820312,800.2197875976562,794.5787353515625,800.2197875976562
1501,792.1611938476562,798.6080322265625,797.8021850585938,796.996337890625
1502,790.1465454101562,799.4139404296875,793.3699340820312,800.2197875976562
1503,790.1465454101562,797.8021850585938,796.5933837890625,804.2490844726562
1504,790.952392578125,788.937744140625,797.8021850585938,801.8314819335938
1505,792.1611938476562,790.5494384765625,794.981689453125,801.8314819335938
1506,790.5494384765625,795.3846435546875,792.5640869140625,805.4578857421875
1507,784.908447265625,789.3406372070312,792.967041015625,803.040283203125
1508,788.1318969726562,787.3259887695312,795.7875366210938,796.5933837890625
1509,795.7875366210938,792.967041015625,790.1465454101562,794.1758422851562
1510,796.996337890625,796.1904907226562,788.1318969726562,798.2051391601562
1511,792.1611938476562,796.5933837890625,790.5494384765625,792.5640869140625
1512,786.5201416015625,792.5640869140625,791.7582397460938,782.893798828125
1513,786.923095703125,790.5494384765625,790.1465454101562,784.908447265625
1514,785.7142944335938,790.952392578125,786.923095703125,787.3259887695312
1515,784.5054931640625,793.7728881835938,790.1465454101562,795.3846435546875
1516,782.893798828125,796.1904907226562,794.1758422851562,797.3992919921875
1517,788.937744140625,794.5787353515625,790.952392578125,799.010986328125
1518,786.5201416015625,791.3552856445312,787.7289428710938,796.996337890625
1519,783.6996459960938,790.952392578125,789.7435913085938,786.1171875
1520,794.5787353515625,791.3552856445312,793.3699340820312,790.1465454101562
1521,789.7435913085938,784.908447265625,794.5787353515625,792.1611938476562
1522,780.4761962890625,784.1025390625,791.3552856445312,791.3552856445312
1523,783.6996459960938,790.5494384765625,792.5640869140625,794.5787353515625
1524,791.7582397460938,790.952392578125,791.3552856445312,796.5933837890625
1525,789.3406372070312,786.923095703125,786.1171875,792.5640869140625
1526,790.1465454101562,783.6996459960938,788.5347900390625,790.952392578125
1527,794.981689453125,782.4908447265625,791.3552856445312,793.7728881835938
1528,793.3699340820312,781.2820434570312,789.3406372070312,794.5787353515625
1529,792.5640869140625,783.2966918945312,790.1465454101562,789.7435913085938
1530,797.3992919921875,789.7435913085938,790.5494384765625,788.5347900390625
1531,804.2490844726562,793.3699340820312,793.3699340820312,796.1904907226562
1532,803.040283203125,791.7582397460938,795.3846435546875,800.6226806640625
1533,799.4139404296875,791.3552856445312,794.1758422851562,793.3699340820312
1534,797.8021850585938,794.981689453125,795.3846435546875,790.5494384765625
1535,797.3992919921875,798.6080322265625,799.4139404296875,794.981689453125
1536,794.5787353515625,791.7582397460938,796.996337890625,797.8021850585938
1537,793.3699340820312,787.3259887695312,791.7582397460938,802.6373901367188
1538,789.7435913085938,792.967041015625,794.981689453125,796.1904907226562
1539,784.908447265625,796.1904907226562,792.967041015625,788.937744140625
1540,793.7728881835938,795.7875366210938,786.1171875,794.5787353515625
1541,795.7875366210938,795.7875366210938,787.7289428710938,799.8168334960938
1542,792.1611938476562,799.010986328125,793.3699340820312,796.1904907226562
1543,798.2051391601562,799.8168334960938,793.3699340820312,794.981689453125
1544,799.4139404296875,789.7435913085938,792.1611938476562,792.5640869140625
1545,791.7582397460938,787.3259887695312,794.5787353515625,784.1025390625
1546,786.1171875,795.7875366210938,794.981689453125,786.923095703125
1547,782.087890625,797.3992919921875,798.6080322265625,796.5933837890625
1548,779.6703491210938,790.952392578125,794.981689453125,798.2051391601562
1549,783.6996459960938,787.3259887695312,792.1611938476562,796.5933837890625
1550,783.6996459960938,795.7875366210938,794.981689453125,801.4285888671875
1551,779.6703491210938,793.7728881835938,794.1758422851562,800.6226806640625
1552,782.4908447265625,791.3552856445312,792.967041015625,798.6080322265625
1553,786.923095703125,799.4139404296875,799.4139404296875,794.981689453125
1554,786.5201416015625,792.967041015625,799.8168334960938,784.5054931640625
1555,793.7728881835938,789.7435913085938,795.3846435546875,782.893798828125
1556,796.1904907226562,795.7875366210938,796.5933837890625,786.1171875
1557,783.6996459960938,794.1758422851562,794.1758422851562,790.1465454101562
1558,776.8497924804688,795.7875366210938,795.7875366210938,789.7435913085938
1559,782.087890625,796.996337890625,798.2051391601562,788.5347900390625
1560,786.5201416015625,794.1758422851562,794.1758422851562,788.5347900390625
1561,790.5494384765625,793.3699340820312,796.996337890625,786.923095703125
1562,787.3259887695312,793.7728881835938,802.6373901367188,783.2966918945312
1563,782.4908447265625,791.3552856445312,796.1904907226562,782.893798828125
1564,787.7289428710938,791.3552856445312,792.1611938476562,792.1611938476562
1565,792.967041015625,794.981689453125,794.981689453125,792.1611938476562
1566,794.5787353515625,794.1758422851562,797.8021850585938,795.3846435546875
1567,792.5640869140625,787.3259887695312,798.6080322265625,801.8314819335938
1568,788.1318969726562,787.7289428710938,798.6080322265625,799.8168334960938
1569,784.1025390625,792.967041015625,800.2197875976562,794.5787353515625
1570,788.1318969726562,792.967041015625,800.2197875976562,800.2197875976562
1571,790.952392578125,796.5933837890625,799.4139404296875,801.025634765625
1572,785.7142944335938,799.8168334960938,799.010986328125,796.1904907226562
1573,782.893798828125,796.5933837890625,798.2051391601562,794.981689453125
1574,784.5054931640625,787.7289428710938,799.8168334960938,793.3699340820312
1575,786.1171875,784.5054931640625,796.5933837890625,790.952392578125
1576,786.1171875,792.5640869140625,794.981689453125,788.1318969726562
1577,793.7728881835938,797.8021850585938,797.8021850585938,793.3699340820312
1578,800.6226806640625,792.1611938476562,796.5933837890625,793.7728881835938
1579,798.6080322265625,789.3406372070312,796.1904907226562,792.5640869140625
