timestamp,RAW_TP9,RAW_AF7,RAW_AF8,RAW_TP10
1,788.937744140625,787.3259887695312,798.6080322265625,790.1465454101562
2,787.3259887695312,787.3259887695312,798.2051391601562,790.1465454101562
3,799.4139404296875,790.5494384765625,801.8314819335938,792.5640869140625
4,798.6080322265625,789.3406372070312,801.4285888671875,801.4285888671875
5,784.5054931640625,792.5640869140625,795.7875366210938,790.952392578125
6,790.5494384765625,796.1904907226562,795.7875366210938,778.8644409179688
7,784.5054931640625,792.5640869140625,791.3552856445312,766.3735961914062
8,778.05859375,793.3699340820312,792.1611938476562,768.7911987304688
9,779.2673950195312,797.3992919921875,796.996337890625,777.2527465820312
10,761.5384521484375,795.3846435546875,797.3992919921875,782.087890625
11,776.0439453125,799.010986328125,799.4139404296875,782.087890625
12,791.3552856445312,797.8021850585938,794.981689453125,779.6703491210938
13,779.6703491210938,791.3552856445312,792.1611938476562,786.5201416015625
14,786.5201416015625,793.7728881835938,792.967041015625,797.8021850585938
15,796.996337890625,795.3846435546875,790.1465454101562,776.8497924804688
16,784.5054931640625,788.1318969726562,790.1465454101562,769.1941528320312
17,767.9853515625,788.1318969726562,789.7435913085938,768.7911987304688
18,767.5823974609375,792.5640869140625,794.1758422851562,771.2088012695312
19,781.6849975585938,789.3406372070312,800.2197875976562,776.8497924804688
20,790.952392578125,785.3113403320312,796.1904907226562,791.7582397460938
21,792.5640869140625,788.1318969726562,792.5640869140625,785.7142944335938
22,788.1318969726562,789.7435913085938,791.3552856445312,768.7911987304688
23,792.1611938476562,789.3406372070312,789.3406372070312,774.4322509765625
24,787.3259887695312,789.3406372070312,787.3259887695312,777.2527465820312
25,784.5054931640625,785.3113403320312,785.3113403320312,777.2527465820312
26,788.1318969726562,789.7435913085938,785.7142944335938,779.2673950195312
27,785.7142944335938,792.1611938476562,786.1171875,777.2527465820312
28,786.1171875,786.5201416015625,785.3113403320312,774.4322509765625
29,784.5054931640625,788.5347900390625,786.5201416015625,758.7179565429688
30,760.3296508789062,784.5054931640625,792.967041015625,772.0146484375
31,761.5384521484375,783.6996459960938,798.2051391601562,791.7582397460938
32,772.0146484375,786.1171875,795.3846435546875,779.6703491210938
33,765.970703125,785.7142944335938,790.1465454101562,767.9853515625
34,770.0,786.5201416015625,790.952392578125,778.8644409179688
35,782.4908447265625,779.6703491210938,792.5640869140625,800.6226806640625
36,778.4615478515625,782.087890625,791.3552856445312,801.4285888671875
37,777.6557006835938,792.1611938476562,793.3699340820312,800.6226806640625
38,777.2527465820312,791.7582397460938,792.967041015625,786.923095703125
39,782.4908447265625,790.5494384765625,794.1758422851562,786.5201416015625
40,791.3552856445312,792.5640869140625,797.8021850585938,791.7582397460938
41,785.3113403320312,790.5494384765625,800.6226806640625,788.1318969726562
42,788.5347900390625,788.5347900390625,801.025634765625,801.8314819335938
43,793.3699340820312,792.5640869140625,799.8168334960938,796.996337890625
44,797.3992919921875,794.1758422851562,797.8021850585938,781.6849975585938
45,803.8461303710938,792.1611938476562,796.5933837890625,800.6226806640625
46,783.2966918945312,788.937744140625,799.4139404296875,801.025634765625
47,791.3552856445312,789.3406372070312,799.8168334960938,800.6226806640625
48,797.3992919921875,788.937744140625,799.8168334960938,795.7875366210938
49,781.2820434570312,786.923095703125,798.6080322265625,780.4761962890625
50,784.908447265625,790.952392578125,796.1904907226562,790.5494384765625
51,778.8644409179688,789.7435913085938,793.7728881835938,807.4725341796875
52,770.0,786.923095703125,794.5787353515625,800.2197875976562
53,778.8644409179688,786.923095703125,796.5933837890625,782.4908447265625
54,782.893798828125,786.1171875,804.2490844726562,790.5494384765625
55,787.3259887695312,785.3113403320312,805.054931640625,810.2930297851562
56,799.4139404296875,789.3406372070312,798.6080322265625,804.2490844726562
57,794.1758422851562,790.1465454101562,799.010986328125,805.8607788085938
58,792.1611938476562,785.7142944335938,800.6226806640625,814.3223266601562
59,803.8461303710938,786.923095703125,794.1758422851562,792.1611938476562
60,800.2197875976562,789.3406372070312,789.3406372070312,774.029296875
61,790.5494384765625,792.5640869140625,795.7875366210938,793.3699340820312
62,785.3113403320312,792.5640869140625,802.6373901367188,808.2783813476562
63,784.908447265625,791.3552856445312,803.040283203125,810.2930297851562
64,787.3259887695312,793.7728881835938,794.981689453125,803.040283203125
65,787.3259887695312,794.1758422851562,791.3552856445312,790.952392578125
66,781.6849975585938,788.937744140625,795.3846435546875,794.981689453125
67,784.908447265625,794.1758422851562,796.1904907226562,796.996337890625
68,796.5933837890625,799.4139404296875,792.5640869140625,788.5347900390625
69,798.2051391601562,795.7875366210938,793.3699340820312,792.5640869140625
70,811.5018310546875,799.4139404296875,795.3846435546875,797.3992919921875
71,803.4432373046875,795.3846435546875,792.967041015625,796.1904907226562
72,790.5494384765625,794.1758422851562,790.1465454101562,786.1171875
73,794.1758422851562,794.1758422851562,792.1611938476562,786.923095703125
74,788.1318969726562,789.7435913085938,792.1611938476562,790.952392578125
75,776.4468994140625,791.3552856445312,790.5494384765625,799.010986328125
76,778.4615478515625,796.5933837890625,789.7435913085938,810.2930297851562
77,801.8314819335938,796.5933837890625,783.6996459960938,800.6226806640625
78,788.937744140625,794.1758422851562,781.2820434570312,791.3552856445312
79,775.6410522460938,793.3699340820312,780.879150390625,796.1904907226562
80,786.5201416015625,792.967041015625,780.0732421875,807.069580078125
81,791.3552856445312,796.5933837890625,781.6849975585938,800.6226806640625
82,803.4432373046875,794.1758422851562,788.5347900390625,801.4285888671875
83,814.7252807617188,796.1904907226562,791.7582397460938,794.5787353515625
84,804.2490844726562,793.7728881835938,790.952392578125,783.2966918945312
85,790.5494384765625,788.937744140625,792.967041015625,803.040283203125
86,798.6080322265625,790.1465454101562,794.1758422851562,817.1428833007812
87,815.93408203125,794.981689453125,791.3552856445312,816.3369750976562
88,816.7399291992188,794.981689453125,782.087890625,788.5347900390625
89,807.87548828125,793.7728881835938,790.1465454101562,787.7289428710938
90,817.1428833007812,794.5787353515625,802.6373901367188,809.89013671875
91,828.4249267578125,798.2051391601562,799.8168334960938,792.967041015625
92,815.93408203125,799.4139404296875,796.5933837890625,785.7142944335938
93,806.6666870117188,797.3992919921875,799.8168334960938,811.098876953125
94,812.3076782226562,797.3992919921875,801.025634765625,809.4871826171875
95,801.025634765625,793.3699340820312,799.4139404296875,801.4285888671875
96,796.1904907226562,794.5787353515625,795.7875366210938,803.8461303710938
97,802.2344360351562,796.5933837890625,794.1758422851562,802.6373901367188
98,802.6373901367188,790.1465454101562,795.7875366210938,787.7289428710938
99,802.6373901367188,790.1465454101562,791.3552856445312,784.908447265625
100,786.5201416015625,790.952392578125,794.5787353515625,792.967041015625
101,783.6996459960938,792.967041015625,794.1758422851562,782.893798828125
102,807.87548828125,797.3992919921875,793.7728881835938,791.7582397460938
103,801.4285888671875,795.3846435546875,798.6080322265625,808.2783813476562
104,771.2088012695312,788.5347900390625,797.3992919921875,796.1904907226562
105,768.7911987304688,783.2966918945312,793.7728881835938,787.3259887695312
106,783.2966918945312,790.952392578125,792.967041015625,796.5933837890625
107,782.087890625,796.1904907226562,793.7728881835938,783.6996459960938
108,790.1465454101562,793.3699340820312,792.1611938476562,780.4761962890625
109,797.8021850585938,794.5787353515625,792.5640869140625,800.6226806640625
110,786.1171875,793.7728881835938,788.1318969726562,782.087890625
111,797.8021850585938,795.7875366210938,784.5054931640625,767.9853515625
112,810.6959838867188,796.5933837890625,786.5201416015625,784.5054931640625
113,780.879150390625,793.3699340820312,790.5494384765625,791.3552856445312
114,774.4322509765625,797.3992919921875,786.923095703125,788.1318969726562
115,794.5787353515625,804.2490844726562,782.893798828125,786.5201416015625
116,799.8168334960938,804.6520385742188,788.5347900390625,780.4761962890625
117,799.4139404296875,796.996337890625,793.3699340820312,781.6849975585938
118,780.879150390625,792.967041015625,798.6080322265625,796.5933837890625
119,767.5823974609375,794.1758422851562,796.996337890625,789.7435913085938
120,782.087890625,792.5640869140625,790.1465454101562,780.4761962890625
121,792.5640869140625,793.7728881835938,797.3992919921875,792.1611938476562
122,788.1318969726562,794.981689453125,802.2344360351562,807.87548828125
123,780.0732421875,788.937744140625,796.996337890625,809.89013671875
124,772.8204956054688,787.7289428710938,799.8168334960938,794.5787353515625
125,767.9853515625,790.952392578125,795.3846435546875,781.6849975585938
126,780.4761962890625,793.3699340820312,790.1465454101562,781.2820434570312
127,796.996337890625,798.2051391601562,793.3699340820312,790.5494384765625
128,775.6410522460938,799.010986328125,795.7875366210938,799.4139404296875
129,761.1355590820312,794.1758422851562,793.3699340820312,797.8021850585938
130,772.8204956054688,793.3699340820312,797.3992919921875,797.3992919921875
131,777.6557006835938,796.1904907226562,797.3992919921875,788.937744140625
132,785.7142944335938,794.981689453125,792.5640869140625,781.6849975585938
133,790.952392578125,792.1611938476562,798.6080322265625,791.7582397460938
134,794.5787353515625,794.5787353515625,802.6373901367188,801.025634765625
135,788.5347900390625,788.937744140625,803.040283203125,815.1282348632812
136,788.937744140625,786.1171875,799.010986328125,797.3992919921875
137,806.6666870117188,794.981689453125,792.1611938476562,772.4176025390625
138,803.8461303710938,795.7875366210938,793.7728881835938,782.087890625
139,792.967041015625,794.1758422851562,792.967041015625,789.3406372070312
140,792.1611938476562,798.2051391601562,795.7875366210938,785.3113403320312
141,789.7435913085938,799.4139404296875,801.4285888671875,788.1318969726562
142,788.937744140625,795.7875366210938,807.4725341796875,794.1758422851562
143,787.7289428710938,795.3846435546875,807.4725341796875,780.4761962890625
144,784.1025390625,790.5494384765625,805.4578857421875,780.0732421875
145,784.5054931640625,786.1171875,804.6520385742188,792.967041015625
146,790.5494384765625,788.1318969726562,803.8461303710938,793.3699340820312
147,794.1758422851562,791.3552856445312,805.8607788085938,798.6080322265625
148,783.6996459960938,791.3552856445312,807.069580078125,789.3406372070312
149,773.2234497070312,788.5347900390625,802.6373901367188,777.2527465820312
150,780.4761962890625,784.908447265625,801.025634765625,778.4615478515625
151,781.2820434570312,783.6996459960938,807.4725341796875,787.7289428710938
152,768.7911987304688,783.2966918945312,807.4725341796875,796.996337890625
153,774.8351440429688,784.1025390625,797.3992919921875,789.7435913085938
154,787.7289428710938,784.5054931640625,794.5787353515625,782.087890625
155,776.8497924804688,782.087890625,797.3992919921875,793.7728881835938
156,785.7142944335938,787.7289428710938,794.5787353515625,796.1904907226562
157,802.6373901367188,794.981689453125,790.952392578125,785.7142944335938
158,806.2637329101562,791.7582397460938,794.981689453125,790.952392578125
159,790.5494384765625,788.5347900390625,797.8021850585938,790.5494384765625
160,777.2527465820312,789.7435913085938,795.7875366210938,778.05859375
161,782.4908447265625,792.5640869140625,802.2344360351562,787.3259887695312
162,785.7142944335938,796.996337890625,801.4285888671875,798.2051391601562
163,785.7142944335938,798.6080322265625,797.3992919921875,795.3846435546875
164,784.1025390625,791.3552856445312,799.010986328125,788.5347900390625
165,783.6996459960938,793.7728881835938,794.5787353515625,780.879150390625
166,792.967041015625,797.3992919921875,794.1758422851562,778.8644409179688
167,796.1904907226562,793.7728881835938,793.3699340820312,779.6703491210938
168,793.7728881835938,794.981689453125,792.1611938476562,780.4761962890625
169,790.952392578125,795.3846435546875,793.3699340820312,782.4908447265625
170,785.3113403320312,796.1904907226562,792.1611938476562,788.1318969726562
171,777.6557006835938,792.967041015625,793.7728881835938,786.5201416015625
172,783.6996459960938,790.1465454101562,799.8168334960938,781.2820434570312
173,786.1171875,792.1611938476562,802.2344360351562,785.7142944335938
174,774.8351440429688,788.1318969726562,804.6520385742188,788.937744140625
175,778.4615478515625,790.1465454101562,800.2197875976562,782.087890625
176,784.1025390625,792.967041015625,795.7875366210938,785.3113403320312
177,776.0439453125,788.937744140625,795.3846435546875,792.5640869140625
178,772.8204956054688,788.937744140625,794.1758422851562,796.1904907226562
179,770.0,786.5201416015625,794.5787353515625,788.5347900390625
180,767.9853515625,786.923095703125,795.3846435546875,782.893798828125
181,781.2820434570312,789.3406372070312,797.8021850585938,789.3406372070312
182,792.967041015625,789.7435913085938,798.6080322265625,791.7582397460938
183,794.1758422851562,791.3552856445312,801.4285888671875,795.7875366210938
184,788.1318969726562,794.1758422851562,800.2197875976562,798.2051391601562
185,788.937744140625,794.981689453125,795.7875366210938,789.3406372070312
186,797.3992919921875,793.7728881835938,796.1904907226562,781.6849975585938
187,798.6080322265625,791.7582397460938,796.5933837890625,782.893798828125
188,797.8021850585938,789.7435913085938,799.010986328125,788.1318969726562
189,790.1465454101562,788.1318969726562,801.025634765625,787.7289428710938
190,778.4615478515625,785.7142944335938,796.996337890625,785.3113403320312
191,772.8204956054688,781.6849975585938,796.996337890625,786.1171875
192,775.6410522460938,774.029296875,795.7875366210938,792.967041015625
193,778.05859375,780.879150390625,794.981689453125,799.010986328125
194,776.4468994140625,784.908447265625,798.2051391601562,789.7435913085938
195,780.879150390625,783.6996459960938,796.5933837890625,786.5201416015625
196,782.087890625,787.3259887695312,794.5787353515625,787.3259887695312
197,777.2527465820312,788.5347900390625,791.3552856445312,780.0732421875
198,783.2966918945312,788.1318969726562,790.1465454101562,778.05859375
199,788.1318969726562,787.7289428710938,796.996337890625,789.3406372070312
200,787.7289428710938,788.1318969726562,799.4139404296875,792.1611938476562
201,790.952392578125,791.7582397460938,795.7875366210938,784.5054931640625
202,795.3846435546875,795.7875366210938,795.7875366210938,792.1611938476562
203,792.5640869140625,792.967041015625,792.1611938476562,793.3699340820312
204,792.967041015625,788.5347900390625,791.7582397460938,795.3846435546875
205,790.952392578125,790.5494384765625,795.7875366210938,795.3846435546875
206,785.3113403320312,788.5347900390625,794.5787353515625,787.3259887695312
207,794.981689453125,787.7289428710938,798.2051391601562,792.1611938476562
208,797.8021850585938,789.3406372070312,801.4285888671875,792.967041015625
209,784.5054931640625,788.937744140625,798.6080322265625,787.3259887695312
210,784.1025390625,787.7289428710938,801.8314819335938,790.1465454101562
211,785.3113403320312,784.5054931640625,806.6666870117188,793.7728881835938
212,784.5054931640625,780.879150390625,805.4578857421875,794.5787353515625
213,793.3699340820312,780.0732421875,804.2490844726562,796.996337890625
214,789.7435913085938,781.6849975585938,804.6520385742188,796.996337890625
215,792.5640869140625,785.3113403320312,799.8168334960938,796.5933837890625
216,797.8021850585938,788.5347900390625,801.8314819335938,799.010986328125
217,793.7728881835938,788.937744140625,799.8168334960938,800.6226806640625
218,794.1758422851562,787.7289428710938,799.8168334960938,799.010986328125
219,789.7435913085938,786.5201416015625,799.4139404296875,790.5494384765625
220,782.4908447265625,789.7435913085938,795.3846435546875,785.7142944335938
221,791.7582397460938,790.1465454101562,797.8021850585938,786.5201416015625
222,801.8314819335938,792.967041015625,799.4139404296875,790.5494384765625
223,796.996337890625,796.996337890625,797.3992919921875,799.010986328125
224,794.5787353515625,799.010986328125,794.981689453125,799.8168334960938
225,788.937744140625,798.2051391601562,791.3552856445312,790.952392578125
226,783.2966918945312,792.1611938476562,792.1611938476562,786.5201416015625
227,791.3552856445312,796.996337890625,790.5494384765625,789.3406372070312
228,793.3699340820312,796.996337890625,784.908447265625,785.7142944335938
229,787.7289428710938,793.3699340820312,786.923095703125,781.6849975585938
230,786.923095703125,789.7435913085938,790.1465454101562,787.3259887695312
231,788.1318969726562,785.3113403320312,789.7435913085938,789.7435913085938
232,786.5201416015625,787.3259887695312,789.7435913085938,782.4908447265625
233,779.6703491210938,784.1025390625,788.937744140625,773.6264038085938
234,778.8644409179688,781.6849975585938,788.937744140625,776.0439453125
235,790.1465454101562,787.3259887695312,795.3846435546875,780.0732421875
236,790.1465454101562,791.3552856445312,796.996337890625,780.0732421875
237,788.937744140625,795.7875366210938,791.3552856445312,780.4761962890625
238,789.7435913085938,797.8021850585938,793.7728881835938,786.1171875
239,788.937744140625,798.2051391601562,800.6226806640625,787.3259887695312
240,792.5640869140625,796.996337890625,799.8168334960938,786.923095703125
241,793.7728881835938,796.1904907226562,802.6373901367188,780.879150390625
242,789.3406372070312,799.4139404296875,805.8607788085938,780.879150390625
243,786.923095703125,797.8021850585938,801.8314819335938,788.937744140625
244,793.3699340820312,790.1465454101562,796.996337890625,788.937744140625
245,796.1904907226562,792.1611938476562,789.7435913085938,784.1025390625
246,798.2051391601562,796.1904907226562,790.1465454101562,784.5054931640625
247,797.8021850585938,794.981689453125,794.5787353515625,788.937744140625
248,797.3992919921875,794.5787353515625,797.3992919921875,791.3552856445312
249,805.054931640625,792.5640869140625,798.6080322265625,795.7875366210938
250,808.2783813476562,794.5787353515625,801.025634765625,803.8461303710938
251,796.5933837890625,799.8168334960938,800.2197875976562,803.4432373046875
252,788.937744140625,802.2344360351562,801.025634765625,790.952392578125
253,788.937744140625,794.981689453125,798.6080322265625,787.7289428710938
254,789.7435913085938,795.7875366210938,798.2051391601562,788.5347900390625
255,784.1025390625,797.3992919921875,795.3846435546875,778.4615478515625
256,776.0439453125,792.967041015625,788.937744140625,769.1941528320312
257,772.8204956054688,796.996337890625,792.5640869140625,773.2234497070312
258,774.4322509765625,795.7875366210938,795.7875366210938,780.879150390625
259,779.6703491210938,797.3992919921875,797.8021850585938,782.893798828125
260,786.1171875,798.6080322265625,798.6080322265625,787.3259887695312
261,782.893798828125,797.3992919921875,798.2051391601562,788.1318969726562
262,790.952392578125,793.7728881835938,800.2197875976562,785.3113403320312
263,797.8021850585938,783.6996459960938,795.3846435546875,782.087890625
264,784.908447265625,778.05859375,788.1318969726562,776.0439453125
265,781.6849975585938,782.087890625,790.5494384765625,780.0732421875
266,782.4908447265625,788.5347900390625,792.1611938476562,784.1025390625
267,778.8644409179688,789.7435913085938,789.7435913085938,777.6557006835938
268,780.879150390625,790.1465454101562,791.3552856445312,784.1025390625
269,782.087890625,788.1318969726562,792.5640869140625,786.5201416015625
270,784.908447265625,787.3259887695312,790.1465454101562,783.6996459960938
271,788.1318969726562,790.1465454101562,788.5347900390625,782.087890625
272,783.6996459960938,789.3406372070312,790.952392578125,777.6557006835938
273,783.6996459960938,790.952392578125,793.3699340820312,779.2673950195312
274,789.7435913085938,792.967041015625,795.7875366210938,783.2966918945312
275,794.1758422851562,792.1611938476562,797.8021850585938,784.5054931640625
276,794.5787353515625,792.5640869140625,799.4139404296875,786.923095703125
277,791.3552856445312,793.7728881835938,799.4139404296875,788.5347900390625
278,785.7142944335938,790.952392578125,798.2051391601562,787.3259887695312
279,786.5201416015625,792.1611938476562,796.996337890625,790.1465454101562
280,780.0732421875,796.1904907226562,794.5787353515625,792.967041015625
281,774.029296875,795.3846435546875,790.1465454101562,787.7289428710938
282,782.4908447265625,797.3992919921875,789.7435913085938,784.5054931640625
283,787.7289428710938,794.1758422851562,790.5494384765625,779.6703491210938
284,795.7875366210938,790.1465454101562,793.3699340820312,788.937744140625
285,804.2490844726562,794.981689453125,794.981689453125,795.7875366210938
286,800.2197875976562,795.3846435546875,791.3552856445312,788.937744140625
287,795.7875366210938,793.3699340820312,787.7289428710938,788.937744140625
288,799.010986328125,795.7875366210938,790.5494384765625,796.996337890625
289,794.981689453125,789.7435913085938,789.3406372070312,800.2197875976562
290,796.1904907226562,789.7435913085938,786.1171875,794.5787353515625
291,794.5787353515625,799.4139404296875,788.5347900390625,794.5787353515625
292,792.967041015625,798.6080322265625,790.5494384765625,798.6080322265625
293,798.2051391601562,799.010986328125,786.1171875,794.981689453125
294,806.6666870117188,802.2344360351562,786.5201416015625,795.3846435546875
295,806.2637329101562,801.025634765625,790.5494384765625,797.8021850585938
296,801.4285888671875,802.6373901367188,792.1611938476562,796.1904907226562
297,801.025634765625,801.025634765625,790.5494384765625,796.1904907226562
298,793.7728881835938,800.6226806640625,786.5201416015625,793.7728881835938
299,782.087890625,797.8021850585938,786.5201416015625,785.7142944335938
300,782.893798828125,795.7875366210938,787.3259887695312,789.7435913085938
301,788.937744140625,798.6080322265625,789.7435913085938,786.5201416015625
302,793.7728881835938,803.040283203125,793.3699340820312,790.952392578125
303,786.923095703125,794.5787353515625,793.3699340820312,794.1758422851562
304,786.1171875,793.7728881835938,794.5787353515625,794.1758422851562
305,799.010986328125,796.5933837890625,799.8168334960938,799.8168334960938
306,796.1904907226562,788.1318969726562,796.996337890625,789.7435913085938
307,786.923095703125,789.3406372070312,792.5640869140625,787.7289428710938
308,786.5201416015625,793.3699340820312,794.5787353515625,794.5787353515625
309,786.923095703125,796.5933837890625,797.3992919921875,792.5640869140625
310,786.1171875,797.8021850585938,796.5933837890625,791.7582397460938
311,787.7289428710938,793.7728881835938,792.967041015625,794.5787353515625
312,793.3699340820312,799.010986328125,795.3846435546875,796.996337890625
313,792.1611938476562,799.8168334960938,794.981689453125,787.7289428710938
314,795.3846435546875,796.1904907226562,794.1758422851562,787.7289428710938
315,795.7875366210938,792.1611938476562,797.8021850585938,796.996337890625
316,796.5933837890625,791.7582397460938,799.4139404296875,800.2197875976562
317,802.2344360351562,794.5787353515625,798.2051391601562,799.8168334960938
318,802.2344360351562,797.3992919921875,796.996337890625,795.7875366210938
319,800.2197875976562,798.6080322265625,800.2197875976562,797.3992919921875
320,791.3552856445312,796.996337890625,803.040283203125,797.8021850585938
321,799.010986328125,797.3992919921875,798.6080322265625,791.3552856445312
322,804.6520385742188,793.3699340820312,794.981689453125,790.952392578125
323,794.981689453125,788.5347900390625,794.1758422851562,792.967041015625
324,795.3846435546875,792.5640869140625,793.7728881835938,790.5494384765625
325,798.6080322265625,801.8314819335938,796.1904907226562,794.1758422851562
326,795.7875366210938,801.025634765625,801.025634765625,801.025634765625
327,785.3113403320312,788.1318969726562,799.4139404296875,801.025634765625
328,779.6703491210938,780.4761962890625,794.1758422851562,793.7728881835938
329,786.923095703125,787.3259887695312,795.3846435546875,792.967041015625
330,796.1904907226562,792.5640869140625,794.1758422851562,792.5640869140625
331,795.7875366210938,792.1611938476562,794.981689453125,789.7435913085938
332,791.7582397460938,797.3992919921875,799.010986328125,784.1025390625
333,790.952392578125,792.967041015625,799.8168334960938,788.1318969726562
334,794.1758422851562,792.1611938476562,797.3992919921875,793.7728881835938
335,796.996337890625,793.7728881835938,796.5933837890625,790.952392578125
336,793.7728881835938,786.5201416015625,799.010986328125,788.1318969726562
337,792.967041015625,788.5347900390625,799.8168334960938,782.087890625
338,792.5640869140625,786.923095703125,799.4139404296875,783.6996459960938
339,790.5494384765625,783.6996459960938,801.025634765625,788.1318969726562
340,789.3406372070312,787.7289428710938,799.8168334960938,784.908447265625
341,789.3406372070312,790.952392578125,798.2051391601562,786.5201416015625
342,788.937744140625,786.5201416015625,794.5787353515625,781.6849975585938
343,786.1171875,782.087890625,789.3406372070312,776.4468994140625
344,780.879150390625,784.5054931640625,789.7435913085938,784.908447265625
345,780.879150390625,785.3113403320312,790.5494384765625,788.5347900390625
346,780.879150390625,784.908447265625,792.967041015625,791.7582397460938
347,778.8644409179688,783.2966918945312,794.1758422851562,792.967041015625
348,781.2820434570312,781.2820434570312,794.5787353515625,785.3113403320312
349,781.2820434570312,782.893798828125,794.981689453125,784.1025390625
350,783.2966918945312,786.1171875,796.996337890625,793.7728881835938
351,792.967041015625,793.3699340820312,796.996337890625,794.1758422851562
352,794.1758422851562,794.981689453125,796.5933837890625,786.5201416015625
353,787.7289428710938,790.952392578125,796.1904907226562,782.087890625
354,784.908447265625,791.3552856445312,798.2051391601562,783.2966918945312
355,788.937744140625,791.3552856445312,799.8168334960938,780.879150390625
356,797.8021850585938,790.1465454101562,796.1904907226562,778.05859375
357,798.6080322265625,788.5347900390625,796.5933837890625,782.087890625
358,780.879150390625,789.7435913085938,794.981689453125,786.1171875
359,776.4468994140625,786.5201416015625,790.1465454101562,787.3259887695312
360,785.3113403320312,786.5201416015625,790.952392578125,780.4761962890625
361,784.1025390625,786.923095703125,793.3699340820312,781.6849975585938
362,783.2966918945312,788.5347900390625,792.1611938476562,794.981689453125
363,785.7142944335938,794.981689453125,791.3552856445312,797.8021850585938
364,784.1025390625,795.7875366210938,790.952392578125,797.8021850585938
365,781.2820434570312,794.1758422851562,789.7435913085938,792.967041015625
366,784.1025390625,787.7289428710938,791.3552856445312,788.937744140625
367,787.7289428710938,786.1171875,790.5494384765625,787.3259887695312
368,785.7142944335938,786.5201416015625,786.5201416015625,783.2966918945312
369,789.3406372070312,788.1318969726562,789.7435913085938,786.923095703125
370,793.7728881835938,793.3699340820312,792.5640869140625,790.1465454101562
371,796.996337890625,793.7728881835938,794.981689453125,795.3846435546875
372,801.8314819335938,796.5933837890625,795.3846435546875,798.6080322265625
373,801.025634765625,796.5933837890625,792.5640869140625,799.4139404296875
374,794.1758422851562,797.8021850585938,795.7875366210938,802.2344360351562
375,798.6080322265625,801.8314819335938,795.3846435546875,798.6080322265625
376,805.8607788085938,797.8021850585938,792.967041015625,800.2197875976562
377,800.2197875976562,797.3992919921875,790.952392578125,802.6373901367188
378,794.5787353515625,799.4139404296875,789.3406372070312,794.1758422851562
379,789.3406372070312,794.981689453125,788.5347900390625,787.3259887695312
380,788.5347900390625,798.6080322265625,790.952392578125,796.996337890625
381,785.3113403320312,799.4139404296875,792.967041015625,794.5787353515625
382,782.4908447265625,791.7582397460938,792.1611938476562,790.1465454101562
383,787.7289428710938,787.7289428710938,794.981689453125,792.1611938476562
384,789.7435913085938,795.7875366210938,795.7875366210938,796.5933837890625
385,791.3552856445312,798.2051391601562,795.3846435546875,799.4139404296875
386,798.2051391601562,793.3699340820312,800.2197875976562,796.1904907226562
387,805.054931640625,796.1904907226562,799.010986328125,799.4139404296875
388,803.040283203125,796.1904907226562,797.8021850585938,803.040283203125
389,796.1904907226562,794.1758422851562,794.5787353515625,794.5787353515625
390,794.981689453125,789.3406372070312,792.5640869140625,788.1318969726562
391,792.967041015625,790.5494384765625,795.3846435546875,795.7875366210938
392,790.5494384765625,796.5933837890625,797.3992919921875,799.8168334960938
393,788.937744140625,795.7875366210938,793.3699340820312,798.6080322265625
394,783.6996459960938,794.5787353515625,793.3699340820312,796.996337890625
395,777.6557006835938,794.981689453125,795.3846435546875,798.2051391601562
396,779.6703491210938,790.1465454101562,791.7582397460938,803.4432373046875
397,786.5201416015625,787.7289428710938,790.5494384765625,801.025634765625
398,789.7435913085938,791.3552856445312,790.952392578125,792.5640869140625
399,788.937744140625,794.5787353515625,792.967041015625,788.1318969726562
400,788.1318969726562,795.3846435546875,790.952392578125,790.1465454101562
401,786.5201416015625,793.7728881835938,784.908447265625,792.1611938476562
402,781.2820434570312,791.3552856445312,788.5347900390625,785.7142944335938
403,782.087890625,794.981689453125,790.5494384765625,783.6996459960938
404,787.3259887695312,794.1758422851562,793.7728881835938,788.5347900390625
405,790.5494384765625,789.3406372070312,795.3846435546875,788.1318969726562
406,797.8021850585938,787.7289428710938,795.7875366210938,786.5201416015625
407,800.6226806640625,794.981689453125,797.8021850585938,794.5787353515625
408,796.5933837890625,801.025634765625,796.5933837890625,802.2344360351562
409,792.5640869140625,796.996337890625,792.1611938476562,785.7142944335938
410,794.5787353515625,797.3992919921875,792.1611938476562,776.8497924804688
411,793.7728881835938,797.3992919921875,797.8021850585938,781.2820434570312
412,788.937744140625,793.3699340820312,794.981689453125,780.4761962890625
413,788.937744140625,786.1171875,790.952392578125,780.879150390625
414,785.7142944335938,781.2820434570312,794.1758422851562,780.879150390625
415,783.2966918945312,782.087890625,796.996337890625,784.1025390625
416,783.6996459960938,783.2966918945312,798.2051391601562,789.7435913085938
417,784.908447265625,784.908447265625,799.010986328125,789.3406372070312
418,789.3406372070312,790.952392578125,796.5933837890625,788.937744140625
419,790.5494384765625,792.967041015625,798.6080322265625,786.923095703125
420,790.1465454101562,795.3846435546875,799.4139404296875,782.4908447265625
421,792.1611938476562,796.5933837890625,798.2051391601562,784.908447265625
422,794.1758422851562,785.7142944335938,799.8168334960938,788.937744140625
423,794.5787353515625,787.7289428710938,798.2051391601562,796.1904907226562
424,792.1611938476562,797.3992919921875,800.2197875976562,792.967041015625
425,789.7435913085938,794.1758422851562,799.4139404296875,785.7142944335938
426,793.3699340820312,792.967041015625,796.5933837890625,786.923095703125
427,800.6226806640625,797.3992919921875,794.1758422851562,791.3552856445312
428,801.025634765625,796.5933837890625,793.3699340820312,790.952392578125
429,801.025634765625,796.5933837890625,792.1611938476562,788.5347900390625
430,796.5933837890625,792.5640869140625,794.981689453125,789.7435913085938
431,782.4908447265625,787.7289428710938,795.3846435546875,784.1025390625
432,782.893798828125,788.5347900390625,792.1611938476562,781.2820434570312
433,791.3552856445312,794.5787353515625,792.967041015625,785.3113403320312
434,791.7582397460938,796.1904907226562,794.5787353515625,787.3259887695312
435,790.5494384765625,793.7728881835938,793.7728881835938,787.7289428710938
436,793.3699340820312,791.3552856445312,791.3552856445312,784.908447265625
437,796.1904907226562,791.3552856445312,788.5347900390625,781.6849975585938
438,784.5054931640625,788.1318969726562,788.1318969726562,780.879150390625
439,776.4468994140625,790.1465454101562,790.5494384765625,782.087890625
440,774.8351440429688,790.5494384765625,788.937744140625,778.8644409179688
441,776.4468994140625,788.5347900390625,785.7142944335938,777.6557006835938
442,788.937744140625,788.937744140625,787.7289428710938,782.4908447265625
443,795.7875366210938,790.1465454101562,789.3406372070312,786.1171875
444,787.7289428710938,793.3699340820312,788.937744140625,787.7289428710938
445,781.6849975585938,793.7728881835938,788.937744140625,784.1025390625
446,786.1171875,790.952392578125,790.952392578125,786.5201416015625
447,788.937744140625,792.967041015625,790.5494384765625,786.923095703125
448,791.7582397460938,794.981689453125,791.7582397460938,781.2820434570312
449,790.5494384765625,786.5201416015625,790.5494384765625,781.2820434570312
450,786.1171875,786.5201416015625,786.5201416015625,782.893798828125
451,791.7582397460938,788.1318969726562,786.923095703125,780.879150390625
452,789.3406372070312,786.5201416015625,788.937744140625,781.6849975585938
453,782.893798828125,787.7289428710938,788.5347900390625,786.1171875
454,792.1611938476562,787.3259887695312,790.5494384765625,792.1611938476562
455,795.3846435546875,790.5494384765625,790.1465454101562,790.1465454101562
456,787.7289428710938,785.7142944335938,789.3406372070312,780.879150390625
457,786.5201416015625,786.5201416015625,784.908447265625,782.4908447265625
458,790.1465454101562,790.952392578125,784.5054931640625,794.1758422851562
459,791.3552856445312,790.952392578125,788.1318969726562,792.5640869140625
460,794.1758422851562,793.7728881835938,788.937744140625,794.981689453125
461,796.5933837890625,796.1904907226562,788.5347900390625,797.3992919921875
462,795.3846435546875,796.1904907226562,787.3259887695312,787.3259887695312
463,794.981689453125,791.7582397460938,785.7142944335938,787.7289428710938
464,791.7582397460938,794.1758422851562,781.6849975585938,790.952392578125
465,786.1171875,794.1758422851562,778.05859375,782.087890625
466,788.937744140625,787.7289428710938,781.6849975585938,779.6703491210938
467,795.7875366210938,783.6996459960938,788.1318969726562,784.1025390625
468,796.1904907226562,784.908447265625,791.7582397460938,788.5347900390625
469,790.1465454101562,792.5640869140625,790.952392578125,794.981689453125
470,787.7289428710938,796.5933837890625,793.3699340820312,790.1465454101562
471,791.3552856445312,792.967041015625,793.3699340820312,786.1171875
472,794.5787353515625,792.1611938476562,790.952392578125,791.3552856445312
473,799.4139404296875,796.1904907226562,790.5494384765625,794.981689453125
474,798.6080322265625,788.937744140625,789.3406372070312,787.3259887695312
475,797.8021850585938,784.908447265625,786.5201416015625,782.4908447265625
476,794.981689453125,791.3552856445312,787.7289428710938,785.7142944335938
477,787.3259887695312,789.7435913085938,786.923095703125,783.6996459960938
478,783.2966918945312,788.937744140625,786.1171875,784.908447265625
479,784.5054931640625,791.7582397460938,785.7142944335938,788.5347900390625
480,787.3259887695312,790.952392578125,784.908447265625,791.7582397460938
481,788.1318969726562,793.7728881835938,790.1465454101562,796.996337890625
482,787.3259887695312,794.5787353515625,794.5787353515625,790.5494384765625
483,796.1904907226562,795.3846435546875,796.996337890625,788.937744140625
484,801.025634765625,790.952392578125,797.8021850585938,798.6080322265625
485,799.4139404296875,795.7875366210938,798.6080322265625,801.4285888671875
486,796.1904907226562,797.3992919921875,796.996337890625,796.1904907226562
487,790.5494384765625,793.3699340820312,788.1318969726562,788.937744140625
488,787.3259887695312,795.7875366210938,784.908447265625,793.3699340820312
489,784.1025390625,793.3699340820312,790.952392578125,795.7875366210938
490,789.7435913085938,790.5494384765625,792.5640869140625,788.5347900390625
491,791.7582397460938,793.3699340820312,792.1611938476562,786.923095703125
492,794.981689453125,792.5640869140625,796.1904907226562,797.3992919921875
493,790.1465454101562,790.1465454101562,796.1904907226562,794.1758422851562
494,789.3406372070312,791.7582397460938,794.5787353515625,795.3846435546875
495,796.996337890625,793.3699340820312,793.3699340820312,801.025634765625
496,788.937744140625,789.7435913085938,794.1758422851562,795.3846435546875
497,779.6703491210938,789.3406372070312,790.1465454101562,792.967041015625
498,777.2527465820312,789.3406372070312,788.1318969726562,791.7582397460938
499,780.0732421875,789.3406372070312,791.3552856445312,792.967041015625
500,788.937744140625,790.952392578125,793.7728881835938,792.5640869140625
501,789.3406372070312,791.3552856445312,793.7728881835938,791.3552856445312
502,789.7435913085938,797.3992919921875,795.3846435546875,792.1611938476562
503,792.1611938476562,798.2051391601562,796.1904907226562,793.3699340820312
504,789.7435913085938,796.996337890625,791.7582397460938,801.8314819335938
505,792.5640869140625,800.6226806640625,795.3846435546875,798.2051391601562
506,795.3846435546875,798.6080322265625,796.1904907226562,795.3846435546875
507,798.2051391601562,796.5933837890625,795.3846435546875,802.6373901367188
508,799.8168334960938,796.5933837890625,793.7728881835938,799.4139404296875
509,798.2051391601562,792.967041015625,792.967041015625,794.5787353515625
510,799.010986328125,792.967041015625,791.7582397460938,792.5640869140625
511,796.1904907226562,792.1611938476562,790.1465454101562,793.7728881835938
512,792.1611938476562,789.3406372070312,790.1465454101562,792.5640869140625
513,789.3406372070312,793.3699340820312,792.1611938476562,787.7289428710938
514,791.3552856445312,793.7728881835938,789.7435913085938,786.1171875
515,793.3699340820312,787.3259887695312,789.3406372070312,788.5347900390625
516,784.5054931640625,783.6996459960938,790.5494384765625,782.087890625
517,778.8644409179688,785.7142944335938,796.5933837890625,778.4615478515625
518,781.6849975585938,790.5494384765625,797.8021850585938,786.1171875
519,786.923095703125,789.7435913085938,795.7875366210938,792.5640869140625
520,784.1025390625,784.908447265625,797.3992919921875,787.7289428710938
521,784.908447265625,788.1318969726562,797.8021850585938,785.7142944335938
522,788.937744140625,789.3406372070312,796.5933837890625,784.908447265625
523,783.2966918945312,790.1465454101562,794.1758422851562,780.4761962890625
524,781.2820434570312,794.1758422851562,794.1758422851562,782.4908447265625
525,789.3406372070312,794.5787353515625,798.2051391601562,788.5347900390625
526,791.3552856445312,792.5640869140625,798.2051391601562,791.3552856445312
527,787.3259887695312,792.5640869140625,795.7875366210938,790.5494384765625
528,791.7582397460938,794.1758422851562,795.7875366210938,793.3699340820312
529,800.6226806640625,789.7435913085938,792.5640869140625,794.5787353515625
530,799.010986328125,782.087890625,790.5494384765625,792.967041015625
531,793.7728881835938,786.1171875,792.1611938476562,796.1904907226562
532,784.908447265625,791.7582397460938,796.1904907226562,789.3406372070312
533,780.0732421875,792.1611938476562,799.010986328125,785.3113403320312
534,790.1465454101562,794.5787353515625,801.4285888671875,791.3552856445312
535,792.5640869140625,794.5787353515625,795.7875366210938,788.1318969726562
536,796.5933837890625,794.5787353515625,791.7582397460938,790.5494384765625
537,799.010986328125,792.1611938476562,793.3699340820312,789.3406372070312
538,784.1025390625,784.908447265625,790.1465454101562,781.6849975585938
539,782.893798828125,787.3259887695312,786.923095703125,787.7289428710938
540,785.3113403320312,790.5494384765625,785.3113403320312,782.893798828125
541,782.4908447265625,789.3406372070312,784.908447265625,780.4761962890625
542,778.05859375,788.5347900390625,787.3259887695312,792.967041015625
543,775.2380981445312,791.7582397460938,788.937744140625,787.3259887695312
544,777.6557006835938,792.5640869140625,789.3406372070312,780.0732421875
545,783.2966918945312,789.7435913085938,791.7582397460938,784.908447265625
546,788.5347900390625,792.1611938476562,788.5347900390625,788.1318969726562
547,780.879150390625,792.1611938476562,788.937744140625,781.6849975585938
548,778.8644409179688,790.1465454101562,792.5640869140625,785.7142944335938
549,783.6996459960938,790.952392578125,792.5640869140625,788.1318969726562
550,784.908447265625,790.952392578125,792.967041015625,788.5347900390625
551,790.1465454101562,794.5787353515625,795.3846435546875,799.8168334960938
552,792.967041015625,799.010986328125,794.981689453125,801.025634765625
553,788.5347900390625,795.7875366210938,793.3699340820312,798.2051391601562
554,788.937744140625,794.981689453125,796.996337890625,803.8461303710938
555,793.7728881835938,796.5933837890625,795.3846435546875,800.6226806640625
556,799.8168334960938,794.5787353515625,786.923095703125,795.3846435546875
557,802.2344360351562,794.5787353515625,788.5347900390625,792.967041015625
558,796.5933837890625,793.3699340820312,790.5494384765625,788.5347900390625
559,793.7728881835938,794.5787353515625,791.3552856445312,786.923095703125
560,797.3992919921875,798.2051391601562,792.967041015625,794.1758422851562
561,794.5787353515625,793.3699340820312,790.1465454101562,794.981689453125
562,783.2966918945312,787.7289428710938,789.3406372070312,788.5347900390625
563,782.893798828125,787.7289428710938,790.1465454101562,792.1611938476562
564,784.908447265625,788.1318969726562,791.3552856445312,793.7728881835938
565,789.3406372070312,790.1465454101562,791.7582397460938,799.8168334960938
566,792.5640869140625,788.5347900390625,788.5347900390625,798.6080322265625
567,792.1611938476562,784.908447265625,790.1465454101562,795.7875366210938
568,794.981689453125,787.3259887695312,788.937744140625,796.996337890625
569,794.981689453125,791.3552856445312,786.5201416015625,796.996337890625
570,791.7582397460938,796.1904907226562,788.1318969726562,797.3992919921875
571,792.1611938476562,799.8168334960938,785.7142944335938,800.6226806640625
572,788.937744140625,795.3846435546875,787.7289428710938,802.2344360351562
573,786.1171875,792.967041015625,790.1465454101562,796.996337890625
574,791.3552856445312,789.3406372070312,791.3552856445312,791.7582397460938
575,793.3699340820312,788.937744140625,787.7289428710938,788.5347900390625
576,795.7875366210938,790.952392578125,788.5347900390625,793.3699340820312
577,800.2197875976562,792.1611938476562,794.981689453125,805.054931640625
578,805.054931640625,796.996337890625,796.1904907226562,802.6373901367188
579,799.010986328125,790.952392578125,788.937744140625,789.7435913085938
580,791.3552856445312,782.893798828125,784.1025390625,786.1171875
581,796.1904907226562,785.7142944335938,786.1171875,785.7142944335938
582,805.054931640625,794.1758422851562,788.937744140625,788.1318969726562
583,799.4139404296875,789.7435913085938,792.967041015625,791.7582397460938
584,783.6996459960938,790.5494384765625,785.3113403320312,787.3259887695312
585,783.2966918945312,794.1758422851562,780.879150390625,784.908447265625
586,788.1318969726562,791.7582397460938,785.3113403320312,786.923095703125
587,789.3406372070312,794.981689453125,784.5054931640625,790.5494384765625
588,791.7582397460938,794.981689453125,784.5054931640625,792.5640869140625
589,793.3699340820312,799.4139404296875,786.5201416015625,790.952392578125
590,799.8168334960938,798.2051391601562,790.5494384765625,790.1465454101562
591,799.4139404296875,792.967041015625,793.7728881835938,790.952392578125
592,793.3699340820312,794.5787353515625,793.7728881835938,790.1465454101562
593,785.7142944335938,790.1465454101562,790.1465454101562,787.7289428710938
594,782.087890625,786.923095703125,790.1465454101562,785.7142944335938
595,785.3113403320312,787.7289428710938,796.1904907226562,791.3552856445312
596,783.2966918945312,788.1318969726562,800.2197875976562,796.1904907226562
597,785.3113403320312,791.3552856445312,796.1904907226562,788.5347900390625
598,786.5201416015625,792.967041015625,790.1465454101562,779.2673950195312
599,782.087890625,792.1611938476562,783.6996459960938,780.0732421875
600,781.2820434570312,790.5494384765625,785.7142944335938,785.3113403320312
601,784.908447265625,789.7435913085938,785.7142944335938,785.7142944335938
602,783.6996459960938,788.5347900390625,780.879150390625,780.4761962890625
603,784.1025390625,789.3406372070312,784.908447265625,787.3259887695312
604,784.5054931640625,793.3699340820312,783.6996459960938,790.5494384765625
605,774.4322509765625,792.967041015625,784.5054931640625,784.908447265625
606,771.6116943359375,787.3259887695312,783.2966918945312,784.5054931640625
607,781.6849975585938,786.923095703125,780.879150390625,783.2966918945312
608,778.8644409179688,792.1611938476562,781.6849975585938,782.893798828125
609,774.029296875,792.5640869140625,780.879150390625,778.8644409179688
610,775.6410522460938,795.3846435546875,783.2966918945312,782.087890625
611,780.4761962890625,796.996337890625,787.7289428710938,788.5347900390625
612,784.5054931640625,793.3699340820312,788.937744140625,786.1171875
613,788.937744140625,792.967041015625,790.5494384765625,784.5054931640625
614,792.967041015625,787.7289428710938,788.937744140625,787.7289428710938
615,787.3259887695312,788.937744140625,786.1171875,793.7728881835938
616,782.087890625,795.3846435546875,789.3406372070312,793.7728881835938
617,790.5494384765625,797.8021850585938,792.1611938476562,794.1758422851562
618,792.967041015625,796.5933837890625,789.7435913085938,793.7728881835938
619,791.7582397460938,792.5640869140625,791.3552856445312,797.8021850585938
620,789.7435913085938,790.1465454101562,793.3699340820312,798.2051391601562
621,794.981689453125,796.1904907226562,792.1611938476562,799.4139404296875
622,803.8461303710938,799.010986328125,791.3552856445312,798.6080322265625
623,808.6813354492188,795.7875366210938,786.923095703125,791.3552856445312
624,805.8607788085938,793.3699340820312,787.7289428710938,791.7582397460938
625,801.4285888671875,790.952392578125,791.7582397460938,792.967041015625
626,801.025634765625,793.7728881835938,793.7728881835938,795.7875366210938
627,805.054931640625,800.2197875976562,789.3406372070312,799.010986328125
628,804.6520385742188,801.025634765625,785.3113403320312,798.2051391601562
629,799.4139404296875,796.5933837890625,786.1171875,795.3846435546875
630,798.6080322265625,789.3406372070312,787.3259887695312,794.1758422851562
631,796.5933837890625,790.952392578125,790.952392578125,793.7728881835938
632,798.2051391601562,796.996337890625,797.3992919921875,797.8021850585938
633,796.5933837890625,796.5933837890625,796.996337890625,796.5933837890625
634,793.7728881835938,796.1904907226562,792.5640869140625,789.7435913085938
635,799.4139404296875,798.2051391601562,794.981689453125,793.7728881835938
636,800.2197875976562,795.7875366210938,793.3699340820312,794.1758422851562
637,801.025634765625,794.981689453125,791.3552856445312,790.952392578125
638,801.025634765625,797.3992919921875,796.1904907226562,799.010986328125
639,794.5787353515625,799.8168334960938,797.8021850585938,796.5933837890625
640,792.1611938476562,801.8314819335938,800.2197875976562,788.5347900390625
641,797.8021850585938,799.4139404296875,801.4285888671875,795.7875366210938
642,790.952392578125,789.3406372070312,794.5787353515625,795.3846435546875
643,782.087890625,786.923095703125,788.1318969726562,787.7289428710938
644,788.937744140625,794.981689453125,792.967041015625,788.5347900390625
645,792.5640869140625,796.5933837890625,795.3846435546875,789.7435913085938
646,791.3552856445312,793.3699340820312,791.3552856445312,792.5640869140625
647,789.7435913085938,795.7875366210938,791.7582397460938,792.967041015625
648,788.1318969726562,799.010986328125,790.5494384765625,786.1171875
649,790.952392578125,798.2051391601562,788.937744140625,784.5054931640625
650,790.952392578125,796.996337890625,789.7435913085938,782.893798828125
651,792.5640869140625,798.6080322265625,789.3406372070312,780.4761962890625
652,796.1904907226562,793.7728881835938,787.7289428710938,781.6849975585938
653,793.7728881835938,788.937744140625,787.7289428710938,783.2966918945312
654,794.5787353515625,788.5347900390625,790.5494384765625,786.5201416015625
655,793.3699340820312,792.1611938476562,792.967041015625,785.7142944335938
656,793.3699340820312,797.8021850585938,796.1904907226562,783.2966918945312
657,793.7728881835938,796.5933837890625,796.5933837890625,788.1318969726562
658,788.1318969726562,793.3699340820312,796.1904907226562,792.1611938476562
659,780.0732421875,796.1904907226562,793.3699340820312,788.1318969726562
660,777.6557006835938,789.7435913085938,792.5640869140625,785.3113403320312
661,782.087890625,782.4908447265625,794.5787353515625,789.7435913085938
662,786.1171875,786.5201416015625,795.3846435546875,788.5347900390625
663,788.5347900390625,796.5933837890625,795.3846435546875,789.7435913085938
664,788.5347900390625,797.3992919921875,795.7875366210938,790.1465454101562
665,788.5347900390625,793.7728881835938,795.3846435546875,791.3552856445312
666,782.4908447265625,801.4285888671875,794.981689453125,792.1611938476562
667,780.4761962890625,802.6373901367188,793.7728881835938,793.3699340820312
668,786.5201416015625,796.996337890625,792.5640869140625,798.6080322265625
669,785.3113403320312,798.2051391601562,791.7582397460938,795.3846435546875
670,788.1318969726562,795.3846435546875,791.3552856445312,792.1611938476562
671,790.5494384765625,792.967041015625,790.1465454101562,796.996337890625
672,787.3259887695312,796.1904907226562,790.1465454101562,801.4285888671875
673,784.908447265625,797.8021850585938,791.3552856445312,806.6666870117188
674,788.937744140625,793.3699340820312,792.5640869140625,806.2637329101562
675,792.967041015625,792.5640869140625,796.996337890625,799.010986328125
676,791.7582397460938,789.3406372070312,792.1611938476562,791.3552856445312
677,788.937744140625,789.7435913085938,788.5347900390625,787.3259887695312
678,790.952392578125,798.6080322265625,792.5640869140625,788.937744140625
679,790.952392578125,790.1465454101562,790.952392578125,785.7142944335938
680,784.908447265625,785.7142944335938,786.923095703125,785.7142944335938
681,784.1025390625,791.3552856445312,785.7142944335938,788.1318969726562
682,785.3113403320312,790.1465454101562,788.5347900390625,784.908447265625
683,786.5201416015625,793.3699340820312,790.5494384765625,785.3113403320312
684,785.3113403320312,794.981689453125,788.937744140625,790.952392578125
685,783.6996459960938,795.3846435546875,788.5347900390625,788.5347900390625
686,780.0732421875,794.5787353515625,788.1318969726562,780.0732421875
687,780.4761962890625,792.967041015625,790.1465454101562,782.4908447265625
688,785.7142944335938,794.5787353515625,795.3846435546875,787.7289428710938
689,792.5640869140625,796.996337890625,795.7875366210938,788.5347900390625
690,792.1611938476562,800.6226806640625,796.5933837890625,791.3552856445312
691,788.937744140625,797.8021850585938,797.8021850585938,788.5347900390625
692,788.937744140625,798.6080322265625,794.1758422851562,784.908447265625
693,792.967041015625,801.025634765625,795.3846435546875,791.3552856445312
694,793.7728881835938,798.6080322265625,795.3846435546875,789.7435913085938
695,790.952392578125,796.1904907226562,789.3406372070312,784.908447265625
696,788.1318969726562,796.5933837890625,790.952392578125,784.5054931640625
697,788.937744140625,797.3992919921875,794.1758422851562,784.1025390625
698,794.1758422851562,796.996337890625,799.010986328125,792.5640869140625
699,796.996337890625,796.5933837890625,803.4432373046875,796.996337890625
700,793.3699340820312,799.010986328125,801.025634765625,792.967041015625
701,794.5787353515625,794.5787353515625,793.7728881835938,785.7142944335938
702,796.1904907226562,788.5347900390625,793.7728881835938,783.2966918945312
703,789.7435913085938,791.3552856445312,795.7875366210938,784.5054931640625
704,788.937744140625,797.8021850585938,795.7875366210938,782.893798828125
705,790.1465454101562,798.2051391601562,796.5933837890625,778.8644409179688
706,786.5201416015625,791.7582397460938,796.996337890625,779.6703491210938
707,783.6996459960938,790.1465454101562,796.5933837890625,781.6849975585938
708,782.893798828125,792.967041015625,793.3699340820312,781.6849975585938
709,785.3113403320312,794.1758422851562,790.952392578125,777.6557006835938
710,786.5201416015625,794.5787353515625,791.3552856445312,776.4468994140625
711,784.1025390625,790.1465454101562,791.3552856445312,782.087890625
712,781.6849975585938,793.3699340820312,791.7582397460938,785.3113403320312
713,787.7289428710938,796.5933837890625,790.952392578125,784.908447265625
714,794.1758422851562,793.3699340820312,792.1611938476562,788.937744140625
715,792.5640869140625,793.3699340820312,794.5787353515625,793.3699340820312
716,789.3406372070312,791.3552856445312,790.5494384765625,794.5787353515625
717,788.5347900390625,790.952392578125,787.7289428710938,787.7289428710938
718,789.3406372070312,795.3846435546875,790.1465454101562,784.1025390625
719,789.7435913085938,795.3846435546875,794.1758422851562,786.5201416015625
720,788.1318969726562,787.7289428710938,796.1904907226562,790.5494384765625
721,783.6996459960938,792.1611938476562,794.1758422851562,785.7142944335938
722,783.2966918945312,801.025634765625,796.5933837890625,788.1318969726562
723,788.937744140625,804.2490844726562,794.981689453125,794.1758422851562
724,790.5494384765625,799.8168334960938,790.952392578125,784.1025390625
725,788.1318969726562,795.3846435546875,784.1025390625,779.6703491210938
726,785.3113403320312,799.4139404296875,780.879150390625,778.8644409179688
727,778.8644409179688,798.6080322265625,782.087890625,777.2527465820312
728,782.893798828125,798.6080322265625,785.3113403320312,782.087890625
729,795.7875366210938,798.6080322265625,788.937744140625,788.1318969726562
730,792.967041015625,789.3406372070312,788.1318969726562,789.3406372070312
731,789.3406372070312,795.7875366210938,785.7142944335938,780.4761962890625
732,794.981689453125,803.040283203125,786.5201416015625,776.0439453125
733,794.981689453125,799.8168334960938,795.3846435546875,784.1025390625
734,794.981689453125,800.2197875976562,800.6226806640625,793.3699340820312
735,799.8168334960938,799.8168334960938,799.010986328125,794.1758422851562
736,799.010986328125,796.5933837890625,799.010986328125,789.3406372070312
737,787.7289428710938,794.5787353515625,798.2051391601562,788.937744140625
738,784.1025390625,792.1611938476562,796.5933837890625,792.5640869140625
739,791.3552856445312,789.7435913085938,794.5787353515625,790.1465454101562
740,796.1904907226562,793.7728881835938,792.1611938476562,789.3406372070312
741,794.5787353515625,798.6080322265625,796.996337890625,797.8021850585938
742,787.3259887695312,803.4432373046875,798.6080322265625,798.2051391601562
743,785.3113403320312,798.6080322265625,800.2197875976562,800.6226806640625
744,785.7142944335938,789.3406372070312,798.2051391601562,798.2051391601562
745,786.923095703125,788.1318969726562,796.996337890625,794.981689453125
746,788.1318969726562,787.7289428710938,797.3992919921875,803.4432373046875
747,784.1025390625,787.7289428710938,792.1611938476562,787.7289428710938
748,783.6996459960938,788.1318969726562,790.5494384765625,778.05859375
749,788.1318969726562,787.3259887695312,788.937744140625,786.1171875
750,789.7435913085938,786.923095703125,785.7142944335938,786.5201416015625
751,789.3406372070312,792.967041015625,782.4908447265625,783.6996459960938
752,791.7582397460938,790.5494384765625,786.923095703125,786.1171875
753,794.1758422851562,792.1611938476562,790.1465454101562,787.7289428710938
754,797.3992919921875,799.4139404296875,790.1465454101562,786.5201416015625
755,797.8021850585938,796.996337890625,790.952392578125,793.3699340820312
756,794.5787353515625,792.1611938476562,785.7142944335938,799.010986328125
757,792.967041015625,794.981689453125,785.3113403320312,795.7875366210938
758,788.937744140625,803.8461303710938,790.1465454101562,794.1758422851562
759,786.1171875,800.6226806640625,794.1758422851562,788.5347900390625
760,790.1465454101562,796.996337890625,794.981689453125,790.5494384765625
761,794.5787353515625,798.6080322265625,796.996337890625,795.7875366210938
762,790.1465454101562,796.1904907226562,794.5787353515625,785.7142944335938
763,786.923095703125,792.1611938476562,793.3699340820312,783.2966918945312
764,787.3259887695312,794.1758422851562,794.981689453125,792.5640869140625
765,788.1318969726562,796.1904907226562,792.5640869140625,798.2051391601562
766,794.5787353515625,796.5933837890625,792.1611938476562,801.8314819335938
767,793.3699340820312,794.1758422851562,790.1465454101562,797.8021850585938
768,790.5494384765625,793.7728881835938,787.7289428710938,790.952392578125
769,789.3406372070312,799.010986328125,790.952392578125,798.2051391601562
770,788.937744140625,802.6373901367188,791.7582397460938,797.8021850585938
771,796.1904907226562,800.2197875976562,785.7142944335938,790.5494384765625
772,800.6226806640625,790.5494384765625,788.5347900390625,793.3699340820312
773,797.3992919921875,791.3552856445312,791.3552856445312,794.1758422851562
774,792.1611938476562,795.3846435546875,792.967041015625,791.3552856445312
775,789.7435913085938,794.5787353515625,794.981689453125,791.7582397460938
776,785.3113403320312,793.7728881835938,795.7875366210938,791.7582397460938
777,787.7289428710938,792.967041015625,800.2197875976562,787.3259887695312
778,789.7435913085938,793.7728881835938,796.1904907226562,780.879150390625
779,794.5787353515625,792.5640869140625,792.5640869140625,787.7289428710938
780,798.6080322265625,789.7435913085938,795.7875366210938,796.1904907226562
781,790.952392578125,792.1611938476562,794.1758422851562,794.1758422851562
782,795.3846435546875,797.3992919921875,792.5640869140625,790.952392578125
783,787.7289428710938,790.5494384765625,789.3406372070312,782.4908447265625
784,780.879150390625,784.908447265625,788.5347900390625,786.5201416015625
785,790.952392578125,791.7582397460938,794.981689453125,788.5347900390625
786,797.8021850585938,793.3699340820312,793.7728881835938,786.1171875
787,801.4285888671875,795.3846435546875,795.7875366210938,790.952392578125
788,797.3992919921875,799.010986328125,794.5787353515625,792.967041015625
789,797.3992919921875,798.2051391601562,794.981689453125,799.8168334960938
790,799.010986328125,794.981689453125,794.5787353515625,799.4139404296875
791,799.4139404296875,791.7582397460938,791.7582397460938,799.010986328125
792,796.996337890625,793.3699340820312,792.1611938476562,801.8314819335938
793,794.1758422851562,793.3699340820312,787.7289428710938,798.6080322265625
794,793.3699340820312,792.5640869140625,788.5347900390625,794.981689453125
795,789.3406372070312,794.981689453125,793.7728881835938,798.2051391601562
796,791.3552856445312,794.981689453125,794.981689453125,799.8168334960938
797,792.5640869140625,792.5640869140625,796.1904907226562,799.4139404296875
798,787.7289428710938,795.3846435546875,792.1611938476562,800.2197875976562
799,788.5347900390625,794.1758422851562,791.7582397460938,804.6520385742188
800,789.7435913085938,792.967041015625,796.996337890625,804.6520385742188
801,791.7582397460938,795.3846435546875,796.5933837890625,796.5933837890625
802,795.3846435546875,793.3699340820312,793.7728881835938,796.1904907226562
803,792.1611938476562,793.7728881835938,795.7875366210938,797.3992919921875
804,792.967041015625,794.981689453125,795.7875366210938,798.6080322265625
805,798.6080322265625,795.7875366210938,792.1611938476562,798.6080322265625
806,796.5933837890625,793.3699340820312,792.1611938476562,799.4139404296875
807,801.4285888671875,790.952392578125,797.3992919921875,803.040283203125
808,795.7875366210938,794.1758422851562,795.3846435546875,800.2197875976562
809,788.937744140625,798.6080322265625,788.5347900390625,795.7875366210938
810,795.3846435546875,796.5933837890625,790.5494384765625,793.3699340820312
811,800.2197875976562,794.981689453125,789.7435913085938,792.5640869140625
812,801.025634765625,799.010986328125,790.952392578125,792.1611938476562
813,796.1904907226562,796.996337890625,791.3552856445312,789.7435913085938
814,794.5787353515625,792.967041015625,788.5347900390625,789.3406372070312
815,794.5787353515625,796.5933837890625,791.3552856445312,792.5640869140625
816,791.7582397460938,799.8168334960938,792.1611938476562,791.3552856445312
817,792.5640869140625,794.5787353515625,792.5640869140625,790.952392578125
818,793.7728881835938,793.3699340820312,789.7435913085938,792.1611938476562
819,790.1465454101562,797.8021850585938,788.937744140625,791.7582397460938
820,786.1171875,800.2197875976562,790.1465454101562,786.1171875
821,784.908447265625,797.8021850585938,787.3259887695312,780.879150390625
822,785.3113403320312,794.981689453125,787.3259887695312,779.6703491210938
823,786.923095703125,795.3846435546875,790.1465454101562,781.2820434570312
824,786.923095703125,795.3846435546875,792.967041015625,778.4615478515625
825,784.1025390625,799.8168334960938,792.967041015625,778.4615478515625
826,788.1318969726562,795.7875366210938,790.5494384765625,783.2966918945312
827,790.952392578125,790.1465454101562,788.937744140625,780.879150390625
828,791.7582397460938,794.981689453125,788.937744140625,779.2673950195312
829,794.5787353515625,795.7875366210938,792.5640869140625,783.6996459960938
830,792.5640869140625,794.5787353515625,796.1904907226562,792.1611938476562
831,792.1611938476562,800.2197875976562,796.1904907226562,795.7875366210938
832,794.5787353515625,798.6080322265625,797.3992919921875,792.1611938476562
833,796.5933837890625,791.3552856445312,797.8021850585938,787.3259887695312
834,798.2051391601562,792.967041015625,797.3992919921875,782.893798828125
835,797.3992919921875,793.7728881835938,794.1758422851562,785.3113403320312
836,792.1611938476562,792.967041015625,796.996337890625,791.3552856445312
837,789.3406372070312,793.7728881835938,800.6226806640625,791.7582397460938
838,792.5640869140625,794.5787353515625,796.5933837890625,790.952392578125
839,789.7435913085938,792.967041015625,795.3846435546875,788.5347900390625
840,786.923095703125,790.1465454101562,792.5640869140625,781.2820434570312
841,790.1465454101562,789.3406372070312,786.923095703125,784.5054931640625
842,796.5933837890625,788.5347900390625,789.3406372070312,790.1465454101562
843,789.3406372070312,789.3406372070312,790.5494384765625,780.0732421875
844,782.4908447265625,791.7582397460938,788.937744140625,780.4761962890625
845,787.7289428710938,799.8168334960938,790.1465454101562,788.937744140625
846,790.952392578125,802.2344360351562,799.010986328125,789.7435913085938
847,785.7142944335938,790.5494384765625,793.7728881835938,786.5201416015625
848,782.4908447265625,788.937744140625,786.923095703125,787.7289428710938
849,782.4908447265625,791.3552856445312,787.3259887695312,788.5347900390625
850,775.6410522460938,789.7435913085938,787.3259887695312,785.7142944335938
851,776.8497924804688,790.1465454101562,786.1171875,787.7289428710938
852,781.2820434570312,785.7142944335938,785.7142944335938,783.2966918945312
853,780.4761962890625,784.5054931640625,787.7289428710938,782.4908447265625
854,784.5054931640625,793.3699340820312,786.923095703125,784.1025390625
855,788.5347900390625,792.5640869140625,786.1171875,780.879150390625
856,779.2673950195312,791.7582397460938,787.7289428710938,784.908447265625
857,779.2673950195312,794.5787353515625,793.3699340820312,792.967041015625
858,786.923095703125,796.5933837890625,794.5787353515625,790.5494384765625
859,788.1318969726562,798.6080322265625,792.967041015625,784.1025390625
860,787.7289428710938,795.7875366210938,789.7435913085938,783.6996459960938
861,791.3552856445312,797.3992919921875,790.952392578125,787.3259887695312
862,790.1465454101562,799.8168334960938,796.996337890625,793.7728881835938
863,786.5201416015625,797.8021850585938,799.010986328125,796.5933837890625
864,782.893798828125,795.3846435546875,798.2051391601562,793.3699340820312
865,780.879150390625,790.952392578125,798.6080322265625,794.981689453125
866,782.4908447265625,791.7582397460938,797.3992919921875,794.5787353515625
867,793.7728881835938,797.8021850585938,797.8021850585938,797.3992919921875
868,796.1904907226562,796.996337890625,794.981689453125,798.6080322265625
869,792.5640869140625,798.2051391601562,793.3699340820312,792.1611938476562
870,799.010986328125,799.8168334960938,795.7875366210938,788.5347900390625
871,794.5787353515625,796.5933837890625,792.967041015625,788.5347900390625
872,791.7582397460938,795.3846435546875,791.3552856445312,793.3699340820312
873,795.7875366210938,797.3992919921875,797.8021850585938,792.5640869140625
874,794.5787353515625,801.4285888671875,793.3699340820312,786.923095703125
875,795.7875366210938,797.8021850585938,786.5201416015625,786.5201416015625
876,796.5933837890625,792.1611938476562,787.7289428710938,793.3699340820312
877,797.8021850585938,795.3846435546875,792.1611938476562,793.3699340820312
878,803.4432373046875,798.6080322265625,793.3699340820312,793.3699340820312
879,802.6373901367188,801.4285888671875,796.1904907226562,801.025634765625
880,794.981689453125,801.025634765625,796.996337890625,794.1758422851562
881,799.010986328125,800.2197875976562,797.3992919921875,788.1318969726562
882,804.2490844726562,801.025634765625,803.8461303710938,790.952392578125
883,801.8314819335938,798.6080322265625,803.8461303710938,791.7582397460938
884,791.7582397460938,801.8314819335938,799.010986328125,790.5494384765625
885,787.7289428710938,803.4432373046875,799.010986328125,792.1611938476562
886,790.1465454101562,796.996337890625,795.7875366210938,792.1611938476562
887,793.7728881835938,794.981689453125,794.1758422851562,794.1758422851562
888,797.3992919921875,801.4285888671875,802.2344360351562,800.2197875976562
889,797.8021850585938,810.6959838867188,805.8607788085938,796.1904907226562
890,784.1025390625,805.054931640625,794.981689453125,784.5054931640625
891,769.5970458984375,796.5933837890625,798.2051391601562,780.4761962890625
892,765.970703125,808.2783813476562,797.8021850585938,781.2820434570312
893,751.062255859375,804.2490844726562,784.1025390625,765.5677490234375
894,739.7802124023438,808.2783813476562,784.1025390625,747.4359130859375
895,736.5567626953125,821.1721801757812,791.3552856445312,743.8095092773438
896,726.08056640625,820.3662719726562,783.6996459960938,731.7216186523438
897,712.3809814453125,831.2454223632812,774.029296875,712.3809814453125
898,705.93408203125,835.2747192382812,780.879150390625,708.7545776367188
899,694.2490844726562,834.8717651367188,782.893798828125,703.113525390625
900,679.7435913085938,842.5274658203125,780.879150390625,682.967041015625
901,670.879150390625,848.5714111328125,787.7289428710938,670.4761962890625
902,664.8351440429688,849.3773193359375,796.996337890625,666.0439453125
903,656.7765502929688,850.1831665039062,793.3699340820312,653.1502075195312
904,650.7326049804688,850.989013671875,789.3406372070312,645.091552734375
905,648.7179565429688,850.5860595703125,791.7582397460938,645.091552734375
906,645.8974609375,854.6153564453125,794.981689453125,640.6593627929688
907,648.3150024414062,855.4212646484375,802.2344360351562,643.076904296875
908,648.3150024414062,846.5567626953125,798.2051391601562,639.8534545898438
909,652.3442993164062,840.10986328125,796.996337890625,643.8828125
910,664.8351440429688,846.5567626953125,799.8168334960938,657.9853515625
911,665.2380981445312,848.1685180664062,798.6080322265625,662.8204956054688
912,668.8644409179688,845.3479614257812,799.010986328125,671.2820434570312
913,680.5494384765625,844.5421142578125,801.8314819335938,676.1171875
914,687.3992919921875,842.5274658203125,805.054931640625,678.1318969726562
915,688.6080322265625,841.3186645507812,803.040283203125,693.4432373046875
916,690.2197875976562,839.7069702148438,802.6373901367188,705.5311279296875
917,697.069580078125,837.6923217773438,801.025634765625,705.5311279296875
918,710.7692260742188,833.2600708007812,800.6226806640625,709.96337890625
919,728.901123046875,830.03662109375,799.010986328125,724.8717651367188
920,733.7362670898438,825.6043701171875,801.8314819335938,734.945068359375
921,736.5567626953125,813.91943359375,799.4139404296875,736.1538696289062
922,759.120849609375,813.113525390625,797.8021850585938,755.8974609375
923,776.8497924804688,815.1282348632812,803.8461303710938,780.879150390625
924,781.2820434570312,803.040283203125,805.8607788085938,790.5494384765625
925,784.908447265625,794.981689453125,805.8607788085938,789.3406372070312
926,788.5347900390625,790.1465454101562,808.2783813476562,797.3992919921875
927,797.3992919921875,787.3259887695312,809.4871826171875,807.4725341796875
928,805.8607788085938,784.5054931640625,802.6373901367188,805.4578857421875
929,811.90478515625,777.6557006835938,799.010986328125,809.89013671875
930,828.8278198242188,776.0439453125,798.2051391601562,822.7838745117188
931,828.4249267578125,776.8497924804688,795.7875366210938,818.3516235351562
932,821.1721801757812,774.4322509765625,793.7728881835938,814.3223266601562
933,834.8717651367188,770.4029541015625,790.952392578125,829.2307739257812
934,840.10986328125,773.2234497070312,790.952392578125,837.2893676757812
935,836.886474609375,775.6410522460938,798.6080322265625,840.10986328125
936,830.4395751953125,771.6116943359375,800.6226806640625,836.886474609375
937,834.06591796875,767.5823974609375,800.2197875976562,842.930419921875
938,842.12451171875,770.4029541015625,800.2197875976562,857.032958984375
939,846.1538696289062,770.8058471679688,798.6080322265625,851.7948608398438
940,847.7655639648438,763.9560546875,797.3992919921875,844.1392211914062
941,840.5128173828125,763.1502075195312,794.5787353515625,844.945068359375
942,840.915771484375,766.7765502929688,793.7728881835938,842.5274658203125
943,844.5421142578125,766.3735961914062,791.3552856445312,836.886474609375
944,836.4835205078125,763.9560546875,790.952392578125,841.3186645507812
945,825.2014770507812,759.120849609375,789.3406372070312,842.5274658203125
946,823.1868286132812,759.9267578125,789.3406372070312,842.930419921875
947,825.2014770507812,759.9267578125,792.967041015625,841.7216186523438
948,830.4395751953125,760.3296508789062,789.7435913085938,840.915771484375
949,830.8424682617188,761.1355590820312,787.7289428710938,852.1978149414062
950,838.901123046875,764.7619018554688,793.3699340820312,851.7948608398438
951,850.5860595703125,767.5823974609375,794.1758422851562,842.930419921875
952,844.5421142578125,761.94140625,792.5640869140625,838.4981689453125
953,840.5128173828125,761.94140625,794.981689453125,842.12451171875
954,845.3479614257812,769.1941528320312,795.3846435546875,844.5421142578125
955,840.915771484375,772.0146484375,798.2051391601562,846.5567626953125
956,839.7069702148438,771.6116943359375,797.3992919921875,848.974365234375
957,840.915771484375,773.6264038085938,795.3846435546875,849.7802124023438
958,841.7216186523438,778.4615478515625,795.7875366210938,850.1831665039062
959,850.989013671875,785.7142944335938,796.1904907226562,853.8095092773438
960,857.032958984375,788.5347900390625,794.981689453125,855.018310546875
961,853.4066162109375,787.3259887695312,793.7728881835938,848.5714111328125
962,852.1978149414062,784.1025390625,799.010986328125,841.7216186523438
963,853.4066162109375,782.087890625,799.8168334960938,839.7069702148438
964,840.5128173828125,782.893798828125,797.8021850585938,841.7216186523438
965,831.2454223632812,779.6703491210938,796.5933837890625,840.5128173828125
966,830.03662109375,774.4322509765625,796.5933837890625,831.2454223632812
967,828.02197265625,780.0732421875,799.8168334960938,830.03662109375
968,830.03662109375,786.923095703125,801.025634765625,834.4688720703125
969,826.00732421875,787.7289428710938,797.8021850585938,830.4395751953125
970,818.7545776367188,783.2966918945312,794.981689453125,825.2014770507812
971,813.91943359375,781.6849975585938,793.7728881835938,824.7985229492188
972,813.5164794921875,782.4908447265625,796.996337890625,829.6337280273438
973,809.89013671875,780.879150390625,802.6373901367188,823.5897216796875
974,812.3076782226562,779.6703491210938,800.6226806640625,822.3809814453125
975,814.3223266601562,778.05859375,801.4285888671875,827.2161254882812
976,813.5164794921875,776.4468994140625,799.8168334960938,820.3662719726562
977,810.2930297851562,780.4761962890625,797.8021850585938,820.3662719726562
978,806.6666870117188,783.2966918945312,796.1904907226562,820.3662719726562
979,815.1282348632812,785.3113403320312,794.981689453125,819.1575317382812
980,819.96337890625,788.5347900390625,798.2051391601562,821.5750732421875
981,817.5457763671875,792.1611938476562,795.7875366210938,817.94873046875
982,816.7399291992188,790.5494384765625,792.967041015625,807.069580078125
983,827.6190185546875,792.5640869140625,798.6080322265625,808.2783813476562
984,830.8424682617188,792.1611938476562,794.5787353515625,813.5164794921875
985,824.3956298828125,787.3259887695312,792.5640869140625,805.054931640625
986,818.7545776367188,785.3113403320312,797.8021850585938,807.87548828125
987,819.5604248046875,786.5201416015625,797.3992919921875,808.6813354492188
988,816.7399291992188,791.3552856445312,794.5787353515625,797.3992919921875
989,814.3223266601562,794.1758422851562,798.6080322265625,800.6226806640625
990,819.96337890625,795.7875366210938,803.040283203125,805.8607788085938
991,818.3516235351562,794.5787353515625,800.2197875976562,803.4432373046875
992,811.5018310546875,790.5494384765625,799.8168334960938,803.040283203125
993,799.8168334960938,789.3406372070312,795.7875366210938,797.3992919921875
994,796.996337890625,790.5494384765625,794.5787353515625,794.981689453125
995,797.8021850585938,788.5347900390625,798.2051391601562,798.6080322265625
996,793.7728881835938,788.937744140625,796.996337890625,792.1611938476562
997,786.5201416015625,783.2966918945312,796.5933837890625,788.5347900390625
998,780.0732421875,778.05859375,796.996337890625,794.5787353515625
999,783.2966918945312,781.2820434570312,795.7875366210938,801.8314819335938
1000,785.7142944335938,783.6996459960938,799.010986328125,801.4285888671875
1001,790.5494384765625,784.1025390625,800.6226806640625,797.3992919921875
1002,796.5933837890625,783.2966918945312,801.025634765625,795.7875366210938
1003,792.967041015625,786.923095703125,805.4578857421875,802.2344360351562
1004,789.3406372070312,789.3406372070312,803.4432373046875,804.6520385742188
1005,793.7728881835938,785.3113403320312,808.2783813476562,804.6520385742188
1006,793.7728881835938,782.4908447265625,810.2930297851562,807.87548828125
1007,788.5347900390625,786.1171875,804.6520385742188,813.5164794921875
1008,789.3406372070312,786.923095703125,806.2637329101562,807.069580078125
1009,799.4139404296875,783.2966918945312,804.2490844726562,794.981689453125
1010,810.6959838867188,790.1465454101562,799.8168334960938,799.8168334960938
1011,808.2783813476562,797.8021850585938,796.5933837890625,807.069580078125
1012,802.6373901367188,799.4139404296875,796.996337890625,796.996337890625
1013,803.8461303710938,799.8168334960938,790.952392578125,789.7435913085938
1014,795.7875366210938,795.3846435546875,782.087890625,786.923095703125
1015,800.2197875976562,793.7728881835938,784.1025390625,784.5054931640625
1016,813.5164794921875,795.7875366210938,790.1465454101562,786.923095703125
1017,812.7106323242188,798.6080322265625,792.5640869140625,790.952392578125
1018,808.2783813476562,800.2197875976562,794.1758422851562,791.3552856445312
1019,800.2197875976562,795.3846435546875,795.7875366210938,789.3406372070312
1020,793.3699340820312,789.7435913085938,792.5640869140625,792.967041015625
1021,797.3992919921875,787.3259887695312,795.3846435546875,798.6080322265625
1022,797.8021850585938,784.1025390625,799.4139404296875,796.1904907226562
1023,792.5640869140625,788.5347900390625,792.1611938476562,780.4761962890625
1024,785.3113403320312,788.1318969726562,792.1611938476562,776.8497924804688
1025,782.4908447265625,787.7289428710938,799.8168334960938,782.893798828125
1026,776.8497924804688,789.7435913085938,797.3992919921875,782.4908447265625
1027,767.5823974609375,780.879150390625,796.1904907226562,774.4322509765625
1028,767.9853515625,779.6703491210938,796.1904907226562,770.0
1029,772.4176025390625,790.1465454101562,794.1758422851562,774.8351440429688
1030,777.2527465820312,790.952392578125,791.7582397460938,780.879150390625
1031,786.923095703125,788.5347900390625,793.7728881835938,785.3113403320312
1032,789.7435913085938,787.3259887695312,801.025634765625,787.7289428710938
1033,788.937744140625,789.3406372070312,803.8461303710938,797.3992919921875
1034,794.1758422851562,791.7582397460938,803.4432373046875,807.87548828125
1035,799.4139404296875,795.3846435546875,807.4725341796875,805.4578857421875
1036,801.8314819335938,796.1904907226562,807.069580078125,805.8607788085938
1037,803.4432373046875,790.952392578125,803.4432373046875,808.6813354492188
1038,806.2637329101562,786.923095703125,801.4285888671875,801.025634765625
1039,807.069580078125,791.7582397460938,801.025634765625,796.1904907226562
1040,812.7106323242188,797.8021850585938,801.025634765625,801.4285888671875
1041,817.1428833007812,798.6080322265625,799.010986328125,814.3223266601562
1042,816.7399291992188,797.3992919921875,802.6373901367188,809.084228515625
1043,811.90478515625,801.025634765625,805.054931640625,804.2490844726562
1044,804.6520385742188,800.2197875976562,802.2344360351562,810.2930297851562
1045,805.8607788085938,797.8021850585938,801.025634765625,808.6813354492188
1046,804.2490844726562,797.3992919921875,799.4139404296875,800.2197875976562
1047,802.2344360351562,799.010986328125,797.8021850585938,791.3552856445312
1048,795.3846435546875,799.8168334960938,796.5933837890625,786.923095703125
1049,787.7289428710938,795.7875366210938,797.8021850585938,785.7142944335938
1050,789.7435913085938,791.7582397460938,795.7875366210938,783.6996459960938
1051,790.1465454101562,790.952392578125,790.1465454101562,788.937744140625
1052,788.1318969726562,788.5347900390625,790.5494384765625,787.3259887695312
1053,779.6703491210938,789.7435913085938,794.5787353515625,778.05859375
1054,774.8351440429688,786.1171875,793.7728881835938,779.6703491210938
1055,785.3113403320312,778.8644409179688,789.7435913085938,783.2966918945312
1056,792.1611938476562,783.6996459960938,792.5640869140625,790.1465454101562
1057,783.2966918945312,788.937744140625,799.010986328125,800.2197875976562
1058,782.4908447265625,788.937744140625,795.3846435546875,796.1904907226562
1059,780.4761962890625,785.7142944335938,790.5494384765625,788.937744140625
1060,779.2673950195312,786.1171875,790.952392578125,794.1758422851562
1061,786.1171875,789.7435913085938,793.3699340820312,796.996337890625
1062,793.3699340820312,794.5787353515625,794.5787353515625,792.5640869140625
1063,804.6520385742188,794.981689453125,795.7875366210938,793.3699340820312
1064,812.3076782226562,794.1758422851562,798.6080322265625,795.3846435546875
1065,815.1282348632812,796.996337890625,796.1904907226562,796.1904907226562
1066,819.1575317382812,801.025634765625,796.1904907226562,805.8607788085938
1067,818.3516235351562,800.6226806640625,798.6080322265625,807.87548828125
1068,807.87548828125,794.981689453125,796.5933837890625,802.2344360351562
1069,800.6226806640625,799.4139404296875,800.2197875976562,794.981689453125
1070,803.4432373046875,803.040283203125,799.8168334960938,790.952392578125
1071,809.89013671875,802.6373901367188,796.1904907226562,796.1904907226562
1072,810.6959838867188,800.6226806640625,792.5640869140625,797.3992919921875
1073,809.084228515625,800.6226806640625,790.5494384765625,795.7875366210938
1074,803.040283203125,802.6373901367188,792.1611938476562,790.5494384765625
1075,795.7875366210938,801.4285888671875,788.937744140625,783.6996459960938
1076,792.5640869140625,795.3846435546875,788.5347900390625,776.0439453125
1077,788.1318969726562,794.5787353515625,790.1465454101562,774.029296875
1078,786.1171875,789.3406372070312,788.937744140625,774.029296875
1079,779.6703491210938,788.1318969726562,792.5640869140625,775.2380981445312
1080,765.1648559570312,795.3846435546875,795.3846435546875,774.4322509765625
1081,762.3442993164062,792.967041015625,793.7728881835938,775.6410522460938
1082,771.6116943359375,786.923095703125,791.3552856445312,776.0439453125
1083,775.2380981445312,784.5054931640625,787.7289428710938,776.4468994140625
1084,773.2234497070312,782.087890625,788.1318969726562,783.6996459960938
1085,778.05859375,788.937744140625,791.3552856445312,783.6996459960938
1086,784.908447265625,792.1611938476562,791.7582397460938,785.3113403320312
1087,786.1171875,783.6996459960938,790.1465454101562,791.7582397460938
1088,784.5054931640625,783.2966918945312,790.952392578125,789.3406372070312
1089,784.5054931640625,789.3406372070312,796.1904907226562,790.5494384765625
1090,791.3552856445312,795.3846435546875,798.2051391601562,794.1758422851562
1091,797.3992919921875,793.7728881835938,793.7728881835938,792.5640869140625
1092,800.2197875976562,792.967041015625,794.5787353515625,792.5640869140625
1093,801.4285888671875,794.5787353515625,797.3992919921875,791.3552856445312
1094,793.7728881835938,789.3406372070312,796.5933837890625,788.5347900390625
1095,788.937744140625,789.3406372070312,791.7582397460938,786.5201416015625
1096,790.952392578125,796.1904907226562,794.981689453125,787.7289428710938
1097,792.967041015625,794.981689453125,796.1904907226562,783.6996459960938
1098,794.981689453125,788.937744140625,793.7728881835938,782.087890625
1099,794.5787353515625,782.893798828125,794.1758422851562,788.5347900390625
1100,788.1318969726562,785.3113403320312,794.1758422851562,789.3406372070312
1101,797.3992919921875,796.996337890625,801.025634765625,792.1611938476562
1102,807.069580078125,798.2051391601562,806.6666870117188,794.981689453125
1103,800.6226806640625,791.7582397460938,801.8314819335938,796.1904907226562
1104,794.1758422851562,784.908447265625,799.010986328125,799.010986328125
1105,795.7875366210938,790.952392578125,799.4139404296875,800.2197875976562
1106,796.5933837890625,797.8021850585938,796.5933837890625,801.4285888671875
1107,790.5494384765625,794.1758422851562,796.1904907226562,800.6226806640625
1108,790.1465454101562,793.7728881835938,798.2051391601562,801.025634765625
1109,788.1318969726562,794.981689453125,796.1904907226562,792.5640869140625
1110,783.6996459960938,791.7582397460938,793.7728881835938,790.1465454101562
1111,781.6849975585938,786.1171875,797.8021850585938,793.3699340820312
1112,785.3113403320312,787.7289428710938,801.025634765625,790.5494384765625
1113,792.5640869140625,793.7728881835938,803.4432373046875,799.4139404296875
1114,794.5787353515625,800.2197875976562,802.2344360351562,801.4285888671875
1115,790.5494384765625,797.8021850585938,798.2051391601562,794.5787353515625
1116,788.937744140625,794.1758422851562,796.996337890625,792.967041015625
1117,788.1318969726562,796.996337890625,797.8021850585938,789.3406372070312
1118,788.5347900390625,796.1904907226562,797.8021850585938,796.996337890625
1119,797.3992919921875,799.010986328125,801.4285888671875,793.3699340820312
1120,801.4285888671875,795.3846435546875,800.6226806640625,786.1171875
1121,796.1904907226562,788.1318969726562,798.2051391601562,788.5347900390625
1122,793.3699340820312,795.3846435546875,796.996337890625,783.2966918945312
1123,786.5201416015625,799.8168334960938,791.3552856445312,780.0732421875
1124,782.087890625,795.3846435546875,790.1465454101562,781.2820434570312
1125,791.3552856445312,799.010986328125,794.5787353515625,784.1025390625
1126,790.952392578125,804.2490844726562,797.8021850585938,784.5054931640625
1127,786.5201416015625,800.6226806640625,801.025634765625,785.3113403320312
1128,793.7728881835938,799.8168334960938,798.6080322265625,790.1465454101562
1129,795.7875366210938,798.2051391601562,794.1758422851562,790.952392578125
1130,788.937744140625,793.7728881835938,796.5933837890625,788.937744140625
1131,786.1171875,790.1465454101562,794.5787353515625,784.1025390625
1132,796.5933837890625,793.7728881835938,795.3846435546875,787.7289428710938
1133,804.6520385742188,801.8314819335938,796.1904907226562,794.5787353515625
1134,803.4432373046875,805.4578857421875,795.7875366210938,794.5787353515625
1135,801.025634765625,806.2637329101562,798.6080322265625,795.3846435546875
1136,796.5933837890625,804.6520385742188,797.8021850585938,793.7728881835938
1137,796.996337890625,798.6080322265625,796.1904907226562,790.5494384765625
1138,796.996337890625,795.3846435546875,793.3699340820312,789.3406372070312
1139,789.3406372070312,797.3992919921875,792.967041015625,792.967041015625
1140,786.5201416015625,793.3699340820312,792.5640869140625,795.3846435546875
1141,795.3846435546875,794.1758422851562,794.1758422851562,795.3846435546875
1142,804.6520385742188,800.6226806640625,792.967041015625,788.937744140625
1143,803.8461303710938,800.6226806640625,792.1611938476562,790.1465454101562
1144,803.4432373046875,796.996337890625,793.7728881835938,794.981689453125
1145,799.4139404296875,791.3552856445312,793.7728881835938,795.3846435546875
1146,794.5787353515625,790.952392578125,792.967041015625,795.3846435546875
1147,797.3992919921875,793.3699340820312,796.1904907226562,793.3699340820312
1148,802.2344360351562,788.1318969726562,801.8314819335938,798.2051391601562
1149,799.8168334960938,788.937744140625,805.4578857421875,804.2490844726562
1150,796.5933837890625,791.7582397460938,803.4432373046875,797.8021850585938
1151,797.3992919921875,789.3406372070312,799.010986328125,792.967041015625
1152,788.5347900390625,788.937744140625,797.3992919921875,791.3552856445312
1153,779.2673950195312,791.7582397460938,796.1904907226562,794.1758422851562
1154,780.0732421875,791.3552856445312,796.1904907226562,792.1611938476562
1155,786.1171875,789.3406372070312,797.8021850585938,788.5347900390625
1156,787.3259887695312,792.967041015625,798.2051391601562,795.7875366210938
1157,786.923095703125,796.1904907226562,795.3846435546875,795.7875366210938
1158,793.3699340820312,792.1611938476562,795.7875366210938,792.1611938476562
1159,792.5640869140625,790.952392578125,796.1904907226562,791.7582397460938
1160,786.1171875,794.5787353515625,798.2051391601562,790.1465454101562
1161,787.7289428710938,791.7582397460938,793.7728881835938,786.1171875
1162,790.1465454101562,792.1611938476562,787.7289428710938,786.5201416015625
1163,795.3846435546875,794.5787353515625,792.5640869140625,795.3846435546875
1164,794.981689453125,797.3992919921875,792.5640869140625,801.025634765625
1165,793.3699340820312,800.2197875976562,788.937744140625,798.6080322265625
1166,794.1758422851562,797.3992919921875,786.1171875,792.1611938476562
1167,795.7875366210938,792.5640869140625,785.7142944335938,786.923095703125
1168,797.8021850585938,789.3406372070312,785.7142944335938,791.3552856445312
1169,793.3699340820312,789.7435913085938,782.893798828125,791.7582397460938
1170,790.5494384765625,792.967041015625,782.087890625,787.3259887695312
1171,786.923095703125,795.7875366210938,783.6996459960938,783.6996459960938
1172,786.5201416015625,795.7875366210938,786.923095703125,784.1025390625
1173,795.3846435546875,791.7582397460938,788.1318969726562,787.7289428710938
1174,797.3992919921875,795.7875366210938,786.5201416015625,790.1465454101562
1175,794.5787353515625,796.996337890625,784.908447265625,791.3552856445312
1176,793.7728881835938,797.8021850585938,786.5201416015625,794.1758422851562
1177,795.3846435546875,798.2051391601562,788.937744140625,790.5494384765625
1178,792.967041015625,795.7875366210938,788.5347900390625,782.893798828125
1179,787.3259887695312,800.6226806640625,786.1171875,780.879150390625
1180,789.3406372070312,801.4285888671875,786.1171875,777.6557006835938
1181,796.5933837890625,801.8314819335938,786.923095703125,774.8351440429688
1182,794.1758422851562,794.981689453125,793.3699340820312,779.2673950195312
1183,790.1465454101562,790.5494384765625,796.5933837890625,786.1171875
1184,797.8021850585938,794.981689453125,797.3992919921875,792.1611938476562
1185,798.6080322265625,793.7728881835938,796.5933837890625,791.7582397460938
1186,794.5787353515625,792.5640869140625,794.1758422851562,788.937744140625
1187,794.1758422851562,796.1904907226562,792.1611938476562,792.5640869140625
1188,794.1758422851562,794.981689453125,795.7875366210938,796.1904907226562
1189,796.996337890625,788.937744140625,794.1758422851562,790.952392578125
1190,797.8021850585938,791.3552856445312,789.7435913085938,788.937744140625
1191,794.1758422851562,791.3552856445312,797.3992919921875,794.981689453125
1192,792.967041015625,790.5494384765625,801.025634765625,797.3992919921875
1193,791.7582397460938,791.3552856445312,798.2051391601562,796.5933837890625
1194,793.7728881835938,790.5494384765625,797.3992919921875,794.5787353515625
1195,799.010986328125,794.981689453125,794.981689453125,793.3699340820312
1196,794.981689453125,794.5787353515625,794.981689453125,793.3699340820312
1197,788.1318969726562,793.3699340820312,795.3846435546875,790.1465454101562
1198,789.7435913085938,797.3992919921875,793.7728881835938,790.952392578125
1199,794.1758422851562,796.5933837890625,789.7435913085938,792.1611938476562
1200,792.5640869140625,794.5787353515625,791.7582397460938,788.5347900390625
1201,791.3552856445312,795.7875366210938,794.1758422851562,786.5201416015625
1202,798.2051391601562,797.8021850585938,793.7728881835938,786.923095703125
1203,802.6373901367188,798.6080322265625,791.7582397460938,793.7728881835938
1204,795.7875366210938,796.5933837890625,788.5347900390625,789.3406372070312
1205,792.5640869140625,796.1904907226562,792.1611938476562,788.937744140625
1206,797.8021850585938,798.6080322265625,793.7728881835938,794.5787353515625
1207,788.1318969726562,803.040283203125,788.1318969726562,789.7435913085938
1208,783.2966918945312,798.2051391601562,790.952392578125,787.3259887695312
1209,791.7582397460938,794.1758422851562,791.7582397460938,788.1318969726562
1210,793.3699340820312,791.7582397460938,787.7289428710938,780.0732421875
1211,790.952392578125,787.3259887695312,788.1318969726562,782.087890625
1212,785.3113403320312,789.3406372070312,789.7435913085938,787.3259887695312
1213,779.2673950195312,791.7582397460938,791.3552856445312,784.908447265625
1214,778.8644409179688,791.7582397460938,787.3259887695312,792.5640869140625
1215,785.7142944335938,793.7728881835938,784.908447265625,789.7435913085938
1216,786.923095703125,794.5787353515625,788.5347900390625,782.087890625
1217,784.1025390625,799.8168334960938,786.923095703125,785.3113403320312
1218,785.3113403320312,798.6080322265625,788.1318969726562,789.3406372070312
1219,782.893798828125,790.952392578125,792.5640869140625,790.5494384765625
1220,783.2966918945312,791.7582397460938,793.3699340820312,787.7289428710938
1221,785.3113403320312,793.7728881835938,794.1758422851562,784.5054931640625
1222,788.5347900390625,792.5640869140625,797.8021850585938,783.6996459960938
1223,793.7728881835938,796.996337890625,799.8168334960938,785.3113403320312
1224,796.1904907226562,797.3992919921875,796.5933837890625,783.2966918945312
1225,801.4285888671875,793.3699340820312,794.1758422851562,788.5347900390625
1226,799.8168334960938,795.7875366210938,796.1904907226562,799.010986328125
1227,793.7728881835938,799.8168334960938,793.3699340820312,790.5494384765625
1228,787.3259887695312,797.3992919921875,790.952392578125,785.7142944335938
1229,782.4908447265625,793.3699340820312,794.1758422851562,791.3552856445312
1230,779.2673950195312,793.3699340820312,789.7435913085938,791.3552856445312
1231,781.2820434570312,788.5347900390625,790.5494384765625,789.3406372070312
1232,789.3406372070312,786.5201416015625,795.7875366210938,787.7289428710938
1233,792.1611938476562,786.5201416015625,793.3699340820312,787.7289428710938
1234,797.8021850585938,792.5640869140625,791.3552856445312,790.952392578125
1235,808.2783813476562,801.025634765625,799.010986328125,796.996337890625
1236,808.6813354492188,799.4139404296875,802.6373901367188,798.6080322265625
1237,799.010986328125,799.8168334960938,799.8168334960938,796.5933837890625
1238,791.3552856445312,802.6373901367188,797.8021850585938,790.952392578125
1239,784.1025390625,797.8021850585938,794.981689453125,787.7289428710938
1240,778.8644409179688,798.2051391601562,798.2051391601562,791.3552856445312
1241,786.1171875,798.6080322265625,798.2051391601562,799.4139404296875
1242,790.1465454101562,799.4139404296875,799.8168334960938,794.1758422851562
1243,789.7435913085938,802.6373901367188,801.4285888671875,791.7582397460938
1244,796.5933837890625,799.8168334960938,798.2051391601562,794.5787353515625
1245,804.6520385742188,797.3992919921875,794.981689453125,795.3846435546875
1246,809.084228515625,797.8021850585938,797.3992919921875,797.3992919921875
1247,800.2197875976562,795.3846435546875,797.3992919921875,792.1611938476562
1248,790.952392578125,788.5347900390625,796.5933837890625,794.1758422851562
1249,792.967041015625,789.3406372070312,799.8168334960938,801.8314819335938
1250,787.7289428710938,797.3992919921875,800.6226806640625,794.5787353515625
1251,787.3259887695312,796.1904907226562,802.2344360351562,790.952392578125
1252,789.3406372070312,794.1758422851562,803.4432373046875,791.3552856445312
1253,786.1171875,794.5787353515625,800.2197875976562,788.5347900390625
1254,790.5494384765625,794.5787353515625,800.6226806640625,788.5347900390625
1255,798.6080322265625,796.5933837890625,802.6373901367188,794.1758422851562
1256,798.6080322265625,793.7728881835938,794.1758422851562,794.981689453125
1257,792.1611938476562,792.967041015625,794.5787353515625,790.5494384765625
1258,786.923095703125,792.967041015625,800.2197875976562,789.7435913085938
1259,788.5347900390625,790.952392578125,796.1904907226562,788.937744140625
1260,797.3992919921875,785.7142944335938,798.6080322265625,800.6226806640625
1261,797.3992919921875,788.1318969726562,800.2197875976562,803.040283203125
1262,789.7435913085938,787.3259887695312,796.5933837890625,791.7582397460938
1263,792.5640869140625,784.1025390625,796.1904907226562,792.967041015625
1264,794.1758422851562,791.7582397460938,793.3699340820312,791.3552856445312
1265,792.967041015625,792.5640869140625,792.5640869140625,788.937744140625
1266,792.5640869140625,790.1465454101562,799.8168334960938,792.5640869140625
1267,786.923095703125,790.952392578125,801.025634765625,796.5933837890625
1268,780.4761962890625,792.5640869140625,796.5933837890625,790.952392578125
1269,780.4761962890625,792.5640869140625,799.4139404296875,781.6849975585938
1270,787.7289428710938,788.937744140625,801.025634765625,782.893798828125
1271,792.967041015625,786.923095703125,799.8168334960938,786.923095703125
1272,793.7728881835938,788.937744140625,800.6226806640625,787.3259887695312
1273,791.7582397460938,794.1758422851562,800.6226806640625,787.7289428710938
1274,786.923095703125,794.981689453125,797.8021850585938,787.3259887695312
1275,788.1318969726562,792.1611938476562,794.981689453125,791.3552856445312
1276,792.5640869140625,788.937744140625,798.2051391601562,797.8021850585938
1277,793.3699340820312,791.3552856445312,802.2344360351562,796.1904907226562
1278,797.8021850585938,794.5787353515625,800.2197875976562,790.1465454101562
1279,794.5787353515625,793.7728881835938,800.6226806640625,785.7142944335938
1280,785.3113403320312,786.1171875,800.2197875976562,783.2966918945312
1281,787.3259887695312,780.879150390625,799.4139404296875,784.5054931640625
1282,790.952392578125,786.1171875,800.2197875976562,786.923095703125
1283,794.1758422851562,790.1465454101562,802.6373901367188,791.3552856445312
1284,794.1758422851562,793.7728881835938,805.054931640625,794.5787353515625
1285,792.967041015625,792.967041015625,804.6520385742188,793.7728881835938
1286,797.3992919921875,790.952392578125,803.040283203125,790.952392578125
1287,796.5933837890625,791.3552856445312,804.6520385742188,795.7875366210938
1288,789.7435913085938,788.1318969726562,799.8168334960938,795.7875366210938
1289,786.1171875,791.7582397460938,796.996337890625,791.7582397460938
1290,784.5054931640625,789.3406372070312,797.3992919921875,787.7289428710938
1291,786.923095703125,790.952392578125,792.1611938476562,790.952392578125
1292,788.937744140625,791.7582397460938,794.1758422851562,792.5640869140625
1293,787.3259887695312,787.7289428710938,796.1904907226562,788.1318969726562
1294,791.3552856445312,787.3259887695312,793.3699340820312,788.5347900390625
1295,785.7142944335938,788.937744140625,789.7435913085938,788.1318969726562
1296,780.0732421875,789.3406372070312,787.7289428710938,786.1171875
1297,786.1171875,786.1171875,783.6996459960938,785.3113403320312
1298,777.6557006835938,778.4615478515625,779.6703491210938,783.2966918945312
1299,767.1795043945312,780.4761962890625,781.2820434570312,784.1025390625
1300,782.893798828125,790.1465454101562,785.7142944335938,787.3259887695312
1301,796.1904907226562,790.952392578125,788.5347900390625,789.7435913085938
1302,796.5933837890625,784.1025390625,790.952392578125,792.1611938476562
1303,794.981689453125,784.5054931640625,789.3406372070312,794.5787353515625
1304,794.1758422851562,789.7435913085938,790.952392578125,796.5933837890625
1305,794.981689453125,794.981689453125,798.6080322265625,798.6080322265625
1306,793.7728881835938,796.1904907226562,799.010986328125,801.4285888671875
1307,800.6226806640625,794.1758422851562,793.7728881835938,798.6080322265625
1308,809.084228515625,794.981689453125,792.967041015625,790.952392578125
1309,803.040283203125,794.5787353515625,794.981689453125,787.7289428710938
1310,798.2051391601562,794.981689453125,791.7582397460938,798.6080322265625
1311,802.2344360351562,789.7435913085938,790.952392578125,799.4139404296875
1312,805.054931640625,784.5054931640625,790.952392578125,791.7582397460938
1313,807.4725341796875,790.952392578125,789.7435913085938,802.2344360351562
1314,801.4285888671875,795.7875366210938,789.7435913085938,798.2051391601562
1315,794.5787353515625,792.967041015625,792.5640869140625,789.3406372070312
1316,797.3992919921875,791.3552856445312,797.8021850585938,790.5494384765625
1317,794.5787353515625,790.5494384765625,798.2051391601562,791.3552856445312
1318,788.937744140625,782.893798828125,797.8021850585938,792.967041015625
1319,790.1465454101562,783.6996459960938,798.6080322265625,788.1318969726562
1320,785.3113403320312,781.6849975585938,796.996337890625,778.8644409179688
1321,786.923095703125,785.3113403320312,798.6080322265625,784.5054931640625
1322,790.1465454101562,797.3992919921875,798.2051391601562,789.3406372070312
1323,786.1171875,794.981689453125,794.5787353515625,787.7289428710938
1324,790.1465454101562,794.5787353515625,794.5787353515625,791.3552856445312
1325,793.3699340820312,800.6226806640625,794.981689453125,792.1611938476562
1326,788.937744140625,801.025634765625,797.8021850585938,792.1611938476562
1327,791.7582397460938,799.4139404296875,797.3992919921875,795.7875366210938
1328,790.1465454101562,794.981689453125,793.7728881835938,791.7582397460938
1329,784.1025390625,787.7289428710938,794.5787353515625,794.1758422851562
1330,788.1318969726562,788.1318969726562,795.7875366210938,805.054931640625
1331,796.1904907226562,793.7728881835938,799.4139404296875,797.3992919921875
1332,794.1758422851562,792.5640869140625,795.7875366210938,783.6996459960938
1333,799.010986328125,789.7435913085938,792.1611938476562,789.3406372070312
1334,801.025634765625,792.967041015625,801.4285888671875,792.5640869140625
1335,795.3846435546875,796.996337890625,800.6226806640625,787.3259887695312
1336,796.1904907226562,797.8021850585938,799.010986328125,788.937744140625
1337,796.5933837890625,794.981689453125,801.8314819335938,782.087890625
1338,796.996337890625,796.5933837890625,800.6226806640625,781.6849975585938
1339,796.5933837890625,794.5787353515625,801.025634765625,784.908447265625
1340,792.967041015625,794.981689453125,799.8168334960938,783.2966918945312
1341,795.3846435546875,794.5787353515625,799.4139404296875,790.1465454101562
1342,793.7728881835938,788.937744140625,796.996337890625,792.967041015625
1343,788.5347900390625,787.7289428710938,797.8021850585938,791.3552856445312
1344,782.087890625,786.5201416015625,797.3992919921875,790.5494384765625
1345,778.8644409179688,788.5347900390625,795.7875366210938,791.7582397460938
1346,782.4908447265625,791.3552856445312,794.5787353515625,786.923095703125
1347,788.1318969726562,792.967041015625,794.1758422851562,784.908447265625
1348,795.3846435546875,793.7728881835938,794.1758422851562,785.7142944335938
1349,801.025634765625,791.7582397460938,797.3992919921875,785.3113403320312
1350,793.7728881835938,785.7142944335938,795.7875366210938,780.0732421875
1351,791.3552856445312,786.5201416015625,793.3699340820312,780.4761962890625
1352,790.5494384765625,791.3552856445312,795.3846435546875,790.5494384765625
1353,778.05859375,784.908447265625,793.7728881835938,789.7435913085938
1354,776.8497924804688,783.6996459960938,795.7875366210938,791.7582397460938
1355,777.6557006835938,791.3552856445312,801.025634765625,800.2197875976562
1356,774.8351440429688,791.3552856445312,798.6080322265625,794.981689453125
1357,778.05859375,788.5347900390625,797.3992919921875,787.7289428710938
1358,782.4908447265625,794.5787353515625,804.2490844726562,788.937744140625
1359,786.923095703125,794.1758422851562,804.6520385742188,789.3406372070312
1360,786.923095703125,796.996337890625,800.2197875976562,786.5201416015625
1361,781.6849975585938,796.996337890625,799.4139404296875,786.5201416015625
1362,782.4908447265625,795.7875366210938,796.996337890625,791.7582397460938
1363,790.1465454101562,797.8021850585938,795.7875366210938,796.1904907226562
1364,792.1611938476562,797.8021850585938,798.6080322265625,792.967041015625
1365,792.5640869140625,797.8021850585938,796.1904907226562,790.1465454101562
1366,791.3552856445312,794.981689453125,795.3846435546875,788.937744140625
1367,791.3552856445312,792.1611938476562,791.7582397460938,794.1758422851562
1368,798.2051391601562,793.3699340820312,788.1318969726562,801.8314819335938
1369,796.5933837890625,794.981689453125,788.937744140625,794.5787353515625
1370,793.3699340820312,799.8168334960938,792.1611938476562,788.937744140625
1371,796.996337890625,799.4139404296875,796.1904907226562,790.5494384765625
1372,798.2051391601562,798.2051391601562,796.1904907226562,792.967041015625
1373,799.010986328125,808.2783813476562,799.010986328125,797.8021850585938
1374,803.040283203125,811.90478515625,801.8314819335938,799.8168334960938
1375,805.054931640625,810.6959838867188,802.6373901367188,794.1758422851562
1376,804.6520385742188,811.098876953125,805.4578857421875,793.7728881835938
1377,798.2051391601562,807.87548828125,805.8607788085938,797.8021850585938
1378,792.1611938476562,802.2344360351562,803.8461303710938,795.3846435546875
1379,788.1318969726562,796.996337890625,803.040283203125,791.7582397460938
1380,785.7142944335938,792.5640869140625,799.010986328125,787.7289428710938
1381,787.3259887695312,792.5640869140625,801.4285888671875,794.5787353515625
1382,792.967041015625,800.2197875976562,803.4432373046875,799.8168334960938
1383,797.8021850585938,797.3992919921875,797.8021850585938,803.4432373046875
1384,794.1758422851562,794.5787353515625,799.010986328125,803.4432373046875
1385,792.1611938476562,791.7582397460938,800.2197875976562,794.981689453125
1386,796.996337890625,792.1611938476562,800.2197875976562,792.967041015625
1387,789.3406372070312,792.5640869140625,798.2051391601562,794.1758422851562
1388,788.5347900390625,792.5640869140625,796.1904907226562,796.996337890625
1389,796.5933837890625,801.025634765625,797.8021850585938,793.3699340820312
1390,796.5933837890625,803.040283203125,796.5933837890625,788.1318969726562
1391,796.1904907226562,793.7728881835938,794.1758422851562,787.7289428710938
1392,792.967041015625,794.981689453125,792.1611938476562,778.05859375
1393,786.1171875,794.981689453125,789.3406372070312,778.05859375
1394,788.937744140625,788.5347900390625,789.7435913085938,786.1171875
1395,785.3113403320312,787.3259887695312,788.5347900390625,790.952392578125
1396,780.0732421875,789.7435913085938,788.5347900390625,788.1318969726562
1397,786.1171875,789.7435913085938,786.1171875,782.087890625
1398,784.908447265625,786.1171875,786.5201416015625,786.1171875
1399,779.2673950195312,788.5347900390625,792.967041015625,792.1611938476562
1400,783.6996459960938,789.3406372070312,791.3552856445312,791.3552856445312
1401,784.5054931640625,786.923095703125,790.952392578125,784.1025390625
1402,784.908447265625,793.3699340820312,794.5787353515625,777.2527465820312
1403,790.952392578125,790.1465454101562,794.1758422851562,778.4615478515625
1404,787.7289428710938,785.7142944335938,790.1465454101562,780.0732421875
1405,789.7435913085938,793.7728881835938,796.1904907226562,785.7142944335938
1406,794.1758422851562,798.6080322265625,799.8168334960938,795.7875366210938
1407,785.7142944335938,795.3846435546875,798.2051391601562,792.967041015625
1408,784.1025390625,790.952392578125,798.6080322265625,788.5347900390625
1409,788.937744140625,788.5347900390625,795.3846435546875,788.937744140625
1410,789.3406372070312,789.7435913085938,791.7582397460938,794.1758422851562
1411,786.923095703125,791.7582397460938,792.967041015625,794.1758422851562
1412,782.4908447265625,784.908447265625,790.5494384765625,786.1171875
1413,789.7435913085938,784.1025390625,791.7582397460938,788.5347900390625
1414,797.3992919921875,789.7435913085938,795.3846435546875,796.1904907226562
1415,793.7728881835938,790.1465454101562,795.3846435546875,793.7728881835938
1416,790.5494384765625,793.7728881835938,795.3846435546875,791.3552856445312
1417,784.5054931640625,792.5640869140625,792.967041015625,791.7582397460938
1418,784.1025390625,793.3699340820312,791.7582397460938,796.1904907226562
1419,793.7728881835938,794.5787353515625,796.1904907226562,794.5787353515625
1420,793.7728881835938,791.7582397460938,796.5933837890625,795.3846435546875
1421,792.1611938476562,788.5347900390625,793.7728881835938,796.1904907226562
1422,795.3846435546875,794.5787353515625,794.5787353515625,794.1758422851562
1423,795.7875366210938,801.4285888671875,796.996337890625,791.3552856445312
1424,801.4285888671875,797.8021850585938,795.3846435546875,791.7582397460938
1425,797.8021850585938,796.1904907226562,792.1611938476562,791.3552856445312
1426,790.952392578125,797.8021850585938,794.981689453125,790.1465454101562
1427,792.1611938476562,799.010986328125,794.5787353515625,790.5494384765625
1428,788.937744140625,792.5640869140625,791.7582397460938,789.7435913085938
1429,788.5347900390625,789.3406372070312,796.5933837890625,797.3992919921875
1430,788.5347900390625,795.7875366210938,804.2490844726562,796.996337890625
1431,788.1318969726562,794.5787353515625,805.4578857421875,794.1758422851562
1432,785.7142944335938,794.5787353515625,799.8168334960938,791.7582397460938
1433,792.967041015625,798.6080322265625,800.6226806640625,793.7728881835938
1434,803.4432373046875,795.3846435546875,803.4432373046875,796.1904907226562
1435,803.8461303710938,791.7582397460938,805.054931640625,794.1758422851562
1436,794.981689453125,788.937744140625,802.2344360351562,795.7875366210938
1437,789.3406372070312,790.5494384765625,795.7875366210938,794.5787353515625
1438,791.7582397460938,790.952392578125,796.1904907226562,794.981689453125
1439,787.3259887695312,784.908447265625,798.2051391601562,792.1611938476562
1440,790.1465454101562,788.1318969726562,793.7728881835938,792.5640869140625
1441,792.967041015625,792.1611938476562,792.1611938476562,802.2344360351562
1442,792.1611938476562,789.7435913085938,796.996337890625,801.025634765625
1443,791.7582397460938,790.952392578125,794.981689453125,797.8021850585938
1444,792.1611938476562,786.923095703125,788.5347900390625,801.8314819335938
1445,800.6226806640625,788.1318969726562,790.952392578125,799.8168334960938
1446,803.4432373046875,796.1904907226562,792.1611938476562,797.8021850585938
1447,803.4432373046875,790.952392578125,790.952392578125,803.8461303710938
1448,804.2490844726562,785.7142944335938,793.3699340820312,804.6520385742188
1449,799.4139404296875,790.952392578125,792.1611938476562,801.025634765625
1450,800.2197875976562,788.937744140625,791.3552856445312,802.2344360351562
1451,799.010986328125,783.6996459960938,791.7582397460938,795.3846435546875
1452,798.2051391601562,780.879150390625,794.1758422851562,796.1904907226562
1453,797.8021850585938,786.5201416015625,798.6080322265625,801.025634765625
1454,795.7875366210938,783.6996459960938,797.8021850585938,790.5494384765625
1455,796.1904907226562,781.2820434570312,793.7728881835938,789.3406372070312
1456,799.4139404296875,791.3552856445312,790.5494384765625,791.3552856445312
1457,796.5933837890625,787.7289428710938,789.3406372070312,786.1171875
1458,784.908447265625,784.5054931640625,787.3259887695312,785.3113403320312
1459,786.923095703125,791.3552856445312,791.7582397460938,790.952392578125
1460,795.7875366210938,796.1904907226562,796.5933837890625,794.5787353515625
1461,792.5640869140625,796.996337890625,794.5787353515625,797.3992919921875
1462,782.4908447265625,797.8021850585938,794.981689453125,796.1904907226562
1463,782.893798828125,794.1758422851562,794.5787353515625,791.7582397460938
1464,785.3113403320312,787.7289428710938,796.996337890625,794.981689453125
1465,782.893798828125,788.937744140625,798.2051391601562,795.7875366210938
1466,788.5347900390625,796.996337890625,794.981689453125,796.5933837890625
1467,790.1465454101562,791.3552856445312,792.967041015625,790.5494384765625
1468,787.3259887695312,792.967041015625,789.3406372070312,789.7435913085938
1469,794.981689453125,794.5787353515625,794.5787353515625,794.5787353515625
1470,798.6080322265625,787.3259887695312,798.2051391601562,797.8021850585938
1471,801.4285888671875,793.3699340820312,795.3846435546875,796.996337890625
1472,801.4285888671875,799.4139404296875,799.8168334960938,790.952392578125
1473,794.5787353515625,800.6226806640625,798.2051391601562,787.7289428710938
1474,793.3699340820312,796.1904907226562,798.6080322265625,797.3992919921875
1475,795.7875366210938,793.3699340820312,798.6080322265625,799.8168334960938
1476,795.7875366210938,798.2051391601562,796.5933837890625,792.5640869140625
1477,790.952392578125,797.8021850585938,799.4139404296875,785.3113403320312
1478,786.1171875,794.981689453125,797.8021850585938,779.2673950195312
1479,790.952392578125,793.7728881835938,798.6080322265625,791.3552856445312
1480,792.967041015625,796.1904907226562,796.996337890625,791.7582397460938
1481,792.967041015625,799.010986328125,799.4139404296875,785.3113403320312
1482,793.7728881835938,797.8021850585938,799.8168334960938,785.3113403320312
1483,788.5347900390625,795.3846435546875,796.1904907226562,785.3113403320312
1484,788.5347900390625,796.5933837890625,798.2051391601562,792.967041015625
1485,790.1465454101562,797.3992919921875,796.996337890625,796.5933837890625
1486,789.3406372070312,793.7728881835938,794.1758422851562,793.3699340820312
1487,785.3113403320312,794.5787353515625,790.1465454101562,788.1318969726562
1488,780.879150390625,797.8021850585938,787.3259887695312,783.2966918945312
1489,786.5201416015625,797.3992919921875,790.5494384765625,779.6703491210938
1490,793.7728881835938,794.1758422851562,787.3259887695312,780.4761962890625
1491,794.1758422851562,794.981689453125,788.5347900390625,787.7289428710938
1492,790.952392578125,796.5933837890625,793.7728881835938,789.3406372070312
1493,789.3406372070312,797.8021850585938,795.3846435546875,789.3406372070312
1494,792.5640869140625,802.6373901367188,796.5933837890625,788.937744140625
1495,794.5787353515625,799.010986328125,789.3406372070312,785.7142944335938
1496,794.5787353515625,799.8168334960938,786.5201416015625,792.5640869140625
1497,793.7728881835938,800.6226806640625,793.7728881835938,801.4285888671875
1498,793.3699340820312,788.937744140625,798.6080322265625,795.7875366210938
1499,791.7582397460938,796.5933837890625,796.1904907226562,787.3259887695312
1500,790.952392578125,799.8168334960938,793.3699340820312,781.6849975585938
1501,794.981689453125,790.952392578125,792.5640869140625,785.7142944335938
1502,799.8168334960938,792.1611938476562,791.3552856445312,796.5933837890625
1503,796.5933837890625,793.7728881835938,794.1758422851562,792.5640869140625
1504,788.5347900390625,790.952392578125,790.1465454101562,782.087890625
1505,790.1465454101562,791.3552856445312,790.952392578125,784.5054931640625
1506,796.996337890625,796.996337890625,793.7728881835938,788.937744140625
1507,801.025634765625,798.6080322265625,791.3552856445312,790.1465454101562
1508,798.2051391601562,798.2051391601562,792.1611938476562,787.7289428710938
1509,783.2966918945312,795.3846435546875,789.7435913085938,783.2966918945312
1510,783.6996459960938,798.6080322265625,794.1758422851562,783.2966918945312
1511,791.7582397460938,801.025634765625,801.4285888671875,784.5054931640625
1512,796.996337890625,803.4432373046875,798.6080322265625,780.4761962890625
1513,797.8021850585938,805.4578857421875,796.996337890625,779.6703491210938
1514,786.1171875,796.996337890625,797.3992919921875,781.6849975585938
1515,779.6703491210938,800.6226806640625,796.996337890625,779.6703491210938
1516,782.893798828125,803.8461303710938,795.3846435546875,783.2966918945312
1517,785.7142944335938,796.5933837890625,793.7728881835938,785.7142944335938
1518,780.4761962890625,801.025634765625,796.5933837890625,781.6849975585938
1519,777.2527465820312,801.4285888671875,793.3699340820312,774.4322509765625
1520,780.879150390625,798.6080322265625,790.5494384765625,773.2234497070312
1521,780.4761962890625,796.5933837890625,790.952392578125,784.908447265625
1522,787.7289428710938,799.4139404296875,792.5640869140625,789.3406372070312
1523,787.7289428710938,794.5787353515625,790.952392578125,778.05859375
1524,785.7142944335938,790.5494384765625,795.7875366210938,780.879150390625
1525,787.7289428710938,793.7728881835938,793.3699340820312,787.7289428710938
1526,782.4908447265625,787.3259887695312,789.3406372070312,781.2820434570312
1527,784.908447265625,784.908447265625,793.3699340820312,778.4615478515625
1528,791.3552856445312,785.7142944335938,796.5933837890625,786.1171875
1529,794.5787353515625,788.5347900390625,795.7875366210938,791.3552856445312
1530,789.7435913085938,788.5347900390625,796.5933837890625,789.7435913085938
1531,786.923095703125,782.087890625,796.996337890625,788.5347900390625
1532,785.3113403320312,782.087890625,794.1758422851562,786.5201416015625
1533,784.908447265625,790.1465454101562,790.952392578125,785.7142944335938
1534,785.7142944335938,793.7728881835938,790.5494384765625,789.7435913085938
1535,784.5054931640625,786.1171875,793.7728881835938,788.937744140625
1536,790.952392578125,784.5054931640625,796.5933837890625,792.1611938476562
1537,788.937744140625,785.3113403320312,794.981689453125,792.1611938476562
1538,784.1025390625,786.923095703125,789.7435913085938,790.1465454101562
1539,784.1025390625,788.5347900390625,789.7435913085938,793.7728881835938
1540,782.087890625,792.967041015625,793.3699340820312,800.2197875976562
1541,781.6849975585938,790.952392578125,790.1465454101562,791.7582397460938
1542,785.3113403320312,785.7142944335938,788.1318969726562,780.879150390625
1543,784.908447265625,787.7289428710938,788.937744140625,778.05859375
1544,789.3406372070312,782.087890625,790.1465454101562,784.5054931640625
1545,789.7435913085938,786.5201416015625,787.7289428710938,791.3552856445312
1546,786.5201416015625,796.5933837890625,789.3406372070312,784.1025390625
1547,792.1611938476562,793.3699340820312,789.7435913085938,784.1025390625
1548,785.3113403320312,795.3846435546875,785.3113403320312,784.908447265625
1549,780.879150390625,800.2197875976562,786.5201416015625,782.4908447265625
1550,786.1171875,805.8607788085938,794.1758422851562,781.2820434570312
1551,792.1611938476562,805.054931640625,797.3992919921875,786.1171875
1552,789.3406372070312,800.2197875976562,793.3699340820312,787.7289428710938
1553,781.6849975585938,797.8021850585938,792.5640869140625,779.2673950195312
1554,785.3113403320312,800.2197875976562,793.7728881835938,780.0732421875
1555,788.5347900390625,805.054931640625,797.3992919921875,790.5494384765625
1556,793.7728881835938,801.4285888671875,800.2197875976562,790.952392578125
1557,798.2051391601562,801.025634765625,795.3846435546875,788.937744140625
1558,794.5787353515625,804.2490844726562,796.996337890625,796.996337890625
1559,794.1758422851562,805.4578857421875,796.996337890625,796.5933837890625
1560,793.3699340820312,805.4578857421875,796.1904907226562,795.3846435546875
1561,792.1611938476562,803.040283203125,797.3992919921875,796.1904907226562
1562,792.1611938476562,803.040283203125,798.2051391601562,792.5640869140625
1563,801.025634765625,801.4285888671875,802.2344360351562,793.7728881835938
1564,801.8314819335938,800.2197875976562,803.8461303710938,799.8168334960938
1565,790.952392578125,796.996337890625,800.2197875976562,800.2197875976562
1566,790.952392578125,798.2051391601562,798.6080322265625,803.4432373046875
1567,801.025634765625,801.4285888671875,802.2344360351562,799.4139404296875
1568,800.2197875976562,797.3992919921875,800.2197875976562,791.3552856445312
1569,789.3406372070312,797.3992919921875,797.3992919921875,792.967041015625
1570,781.2820434570312,795.3846435546875,798.2051391601562,787.3259887695312
1571,781.2820434570312,791.3552856445312,798.6080322265625,784.1025390625
1572,785.3113403320312,793.3699340820312,798.2051391601562,782.893798828125
1573,787.3259887695312,791.7582397460938,793.3699340820312,780.879150390625
1574,786.5201416015625,791.7582397460938,791.7582397460938,784.1025390625
1575,784.5054931640625,793.3699340820312,794.1758422851562,785.3113403320312
1576,778.4615478515625,791.7582397460938,797.3992919921875,784.908447265625
1577,779.2673950195312,789.7435913085938,798.2051391601562,784.1025390625
1578,787.7289428710938,795.3846435546875,797.8021850585938,791.3552856445312
1579,786.923095703125,797.8021850585938,799.4139404296875,797.8021850585938
1580,780.4761962890625,792.967041015625,801.025634765625,792.5640869140625
1581,781.2820434570312,789.3406372070312,801.025634765625,791.7582397460938
1582,784.1025390625,789.3406372070312,802.6373901367188,794.5787353515625
1583,784.1025390625,788.937744140625,799.010986328125,793.3699340820312
1584,780.879150390625,784.1025390625,800.2197875976562,789.7435913085938
