timestamp,RAW_TP9,RAW_AF7,RAW_AF8,RAW_TP10
1,784.5054931640625,787.7289428710938,798.2051391601562,786.923095703125
2,782.893798828125,788.1318969726562,792.5640869140625,793.7728881835938
3,785.7142944335938,792.1611938476562,793.7728881835938,794.1758422851562
4,789.7435913085938,792.1611938476562,798.6080322265625,789.7435913085938
5,793.3699340820312,793.7728881835938,801.025634765625,799.010986328125
6,795.7875366210938,797.8021850585938,802.6373901367188,803.040283203125
7,793.3699340820312,789.3406372070312,799.4139404296875,792.5640869140625
8,787.3259887695312,786.5201416015625,796.5933837890625,788.5347900390625
9,792.1611938476562,787.7289428710938,796.1904907226562,794.1758422851562
10,799.4139404296875,791.7582397460938,795.3846435546875,798.2051391601562
11,799.010986328125,796.1904907226562,796.1904907226562,793.7728881835938
12,796.1904907226562,795.3846435546875,796.5933837890625,788.937744140625
13,792.5640869140625,792.1611938476562,793.7728881835938,790.5494384765625
14,790.952392578125,791.3552856445312,789.7435913085938,797.3992919921875
15,793.3699340820312,794.5787353515625,790.5494384765625,792.1611938476562
16,796.1904907226562,795.7875366210938,795.3846435546875,792.1611938476562
17,796.1904907226562,794.1758422851562,799.010986328125,798.6080322265625
18,796.1904907226562,791.3552856445312,796.5933837890625,795.3846435546875
19,797.3992919921875,792.1611938476562,796.1904907226562,789.3406372070312
20,795.7875366210938,791.3552856445312,796.1904907226562,785.3113403320312
21,790.5494384765625,786.923095703125,795.7875366210938,790.5494384765625
22,785.3113403320312,784.1025390625,796.5933837890625,795.3846435546875
23,777.6557006835938,786.1171875,796.996337890625,790.5494384765625
24,781.2820434570312,792.5640869140625,799.010986328125,788.1318969726562
25,785.7142944335938,792.1611938476562,796.996337890625,791.7582397460938
26,782.893798828125,792.5640869140625,793.3699340820312,790.952392578125
27,782.4908447265625,796.1904907226562,790.5494384765625,783.6996459960938
28,784.908447265625,796.996337890625,789.3406372070312,785.7142944335938
29,787.7289428710938,799.4139404296875,789.7435913085938,789.3406372070312
30,791.3552856445312,798.2051391601562,788.5347900390625,788.5347900390625
31,794.5787353515625,785.7142944335938,794.981689453125,791.3552856445312
32,803.8461303710938,781.6849975585938,794.1758422851562,802.2344360351562
33,803.040283203125,801.025634765625,781.6849975585938,797.8021850585938
34,794.981689453125,807.069580078125,783.6996459960938,786.5201416015625
35,792.5640869140625,801.025634765625,789.3406372070312,784.5054931640625
36,797.3992919921875,798.2051391601562,787.7289428710938,786.5201416015625
37,804.6520385742188,794.5787353515625,785.3113403320312,800.2197875976562
38,791.3552856445312,794.981689453125,788.937744140625,799.4139404296875
39,780.879150390625,797.8021850585938,790.1465454101562,786.5201416015625
40,784.1025390625,790.5494384765625,789.3406372070312,787.7289428710938
41,780.4761962890625,793.3699340820312,789.3406372070312,790.1465454101562
42,773.6264038085938,799.010986328125,784.5054931640625,787.7289428710938
43,779.6703491210938,795.7875366210938,785.3113403320312,784.908447265625
44,778.05859375,792.1611938476562,790.5494384765625,784.908447265625
45,774.029296875,796.5933837890625,789.3406372070312,783.2966918945312
46,783.2966918945312,800.6226806640625,789.3406372070312,781.6849975585938
47,788.5347900390625,800.6226806640625,787.7289428710938,777.2527465820312
48,790.5494384765625,796.5933837890625,785.7142944335938,778.4615478515625
49,792.5640869140625,796.1904907226562,790.952392578125,791.7582397460938
50,788.937744140625,801.4285888671875,791.3552856445312,790.952392578125
51,790.5494384765625,795.3846435546875,786.1171875,784.5054931640625
52,792.5640869140625,790.5494384765625,786.1171875,784.5054931640625
53,796.1904907226562,799.010986328125,789.3406372070312,790.5494384765625
54,794.5787353515625,800.2197875976562,790.952392578125,793.7728881835938
55,794.1758422851562,794.5787353515625,790.952392578125,791.7582397460938
56,796.5933837890625,790.952392578125,790.952392578125,794.1758422851562
57,800.6226806640625,796.996337890625,790.5494384765625,800.2197875976562
58,803.4432373046875,799.010986328125,790.5494384765625,799.4139404296875
59,797.8021850585938,793.3699340820312,784.908447265625,796.996337890625
60,793.3699340820312,782.4908447265625,778.4615478515625,801.4285888671875
61,790.952392578125,784.1025390625,777.2527465820312,799.4139404296875
62,790.1465454101562,793.7728881835938,781.6849975585938,793.7728881835938
63,794.1758422851562,793.7728881835938,792.1611938476562,796.1904907226562
64,793.7728881835938,785.3113403320312,792.967041015625,794.1758422851562
65,787.3259887695312,788.937744140625,788.937744140625,791.3552856445312
66,789.7435913085938,794.981689453125,792.5640869140625,788.5347900390625
67,794.1758422851562,794.981689453125,792.5640869140625,789.7435913085938
68,794.981689453125,795.7875366210938,790.5494384765625,787.7289428710938
69,791.3552856445312,795.3846435546875,792.1611938476562,786.5201416015625
70,788.937744140625,794.5787353515625,790.5494384765625,781.2820434570312
71,793.7728881835938,794.1758422851562,789.3406372070312,782.087890625
72,794.981689453125,789.7435913085938,791.3552856445312,790.5494384765625
73,794.5787353515625,788.937744140625,796.1904907226562,787.3259887695312
74,796.1904907226562,788.5347900390625,798.6080322265625,785.7142944335938
75,796.996337890625,792.967041015625,797.3992919921875,789.3406372070312
76,794.5787353515625,795.3846435546875,795.7875366210938,790.1465454101562
77,792.1611938476562,796.1904907226562,797.3992919921875,794.5787353515625
78,784.908447265625,794.1758422851562,797.8021850585938,793.7728881835938
79,782.893798828125,792.967041015625,795.7875366210938,792.1611938476562
80,782.893798828125,794.1758422851562,794.5787353515625,794.981689453125
81,784.5054931640625,794.981689453125,796.5933837890625,795.7875366210938
82,790.1465454101562,794.5787353515625,796.996337890625,797.3992919921875
83,796.1904907226562,795.3846435546875,798.2051391601562,807.4725341796875
84,791.7582397460938,796.5933837890625,798.2051391601562,809.084228515625
85,788.937744140625,789.3406372070312,801.4285888671875,807.4725341796875
86,794.981689453125,787.3259887695312,800.2197875976562,806.6666870117188
87,792.967041015625,794.5787353515625,796.5933837890625,802.2344360351562
88,794.5787353515625,788.937744140625,803.8461303710938,800.2197875976562
89,794.981689453125,780.879150390625,799.4139404296875,795.7875366210938
90,789.3406372070312,788.5347900390625,792.5640869140625,794.5787353515625
91,787.7289428710938,792.5640869140625,790.952392578125,797.3992919921875
92,788.5347900390625,788.937744140625,792.5640869140625,797.3992919921875
93,791.3552856445312,791.7582397460938,794.981689453125,799.8168334960938
94,790.952392578125,795.7875366210938,787.7289428710938,790.1465454101562
95,781.2820434570312,796.5933837890625,784.908447265625,784.1025390625
96,777.2527465820312,796.5933837890625,790.952392578125,785.7142944335938
97,772.4176025390625,790.5494384765625,795.7875366210938,780.879150390625
98,773.2234497070312,786.5201416015625,791.7582397460938,781.6849975585938
99,783.6996459960938,792.1611938476562,793.3699340820312,787.7289428710938
100,782.893798828125,792.5640869140625,794.5787353515625,787.7289428710938
101,778.05859375,790.952392578125,789.3406372070312,783.6996459960938
102,781.6849975585938,791.3552856445312,787.3259887695312,782.893798828125
103,788.5347900390625,788.937744140625,789.7435913085938,783.6996459960938
104,790.1465454101562,789.7435913085938,790.952392578125,785.3113403320312
105,789.3406372070312,786.923095703125,793.7728881835938,793.7728881835938
106,790.952392578125,785.3113403320312,796.996337890625,795.7875366210938
107,787.3259887695312,791.3552856445312,794.5787353515625,789.7435913085938
108,789.7435913085938,798.6080322265625,796.5933837890625,791.7582397460938
109,794.981689453125,797.3992919921875,797.3992919921875,794.5787353515625
110,789.3406372070312,794.1758422851562,788.1318969726562,796.1904907226562
111,785.3113403320312,794.5787353515625,786.5201416015625,790.1465454101562
112,787.3259887695312,793.7728881835938,792.1611938476562,789.7435913085938
113,790.952392578125,797.3992919921875,792.1611938476562,797.3992919921875
114,797.8021850585938,800.2197875976562,793.7728881835938,800.6226806640625
115,797.8021850585938,796.5933837890625,799.010986328125,797.8021850585938
116,794.981689453125,791.7582397460938,803.040283203125,798.6080322265625
117,800.2197875976562,794.5787353515625,800.6226806640625,804.2490844726562
118,805.4578857421875,799.8168334960938,796.5933837890625,801.4285888671875
119,809.4871826171875,801.025634765625,796.5933837890625,799.010986328125
120,805.8607788085938,794.1758422851562,789.3406372070312,796.1904907226562
121,801.8314819335938,789.3406372070312,784.5054931640625,793.7728881835938
122,801.4285888671875,795.3846435546875,791.3552856445312,802.6373901367188
123,799.4139404296875,800.2197875976562,794.1758422851562,798.2051391601562
124,798.2051391601562,799.010986328125,790.952392578125,789.3406372070312
125,789.3406372070312,794.981689453125,787.3259887695312,790.1465454101562
126,784.1025390625,793.3699340820312,789.3406372070312,788.1318969726562
127,790.1465454101562,785.3113403320312,789.7435913085938,784.1025390625
128,791.3552856445312,789.3406372070312,787.3259887695312,786.5201416015625
129,788.937744140625,796.5933837890625,790.952392578125,793.3699340820312
130,794.981689453125,799.010986328125,792.967041015625,795.7875366210938
131,798.2051391601562,798.2051391601562,790.5494384765625,792.5640869140625
132,796.5933837890625,796.5933837890625,786.923095703125,792.1611938476562
133,803.4432373046875,789.7435913085938,785.7142944335938,801.025634765625
134,799.8168334960938,783.6996459960938,790.952392578125,805.4578857421875
135,790.952392578125,790.5494384765625,793.3699340820312,799.4139404296875
136,790.1465454101562,790.952392578125,793.3699340820312,798.6080322265625
137,785.7142944335938,786.1171875,794.5787353515625,796.5933837890625
138,787.7289428710938,790.952392578125,791.7582397460938,799.4139404296875
139,794.981689453125,795.7875366210938,789.3406372070312,801.025634765625
140,793.3699340820312,788.937744140625,795.3846435546875,795.3846435546875
141,791.7582397460938,790.5494384765625,795.3846435546875,796.5933837890625
142,787.3259887695312,792.5640869140625,791.3552856445312,794.1758422851562
143,780.0732421875,789.3406372070312,788.5347900390625,782.087890625
144,782.4908447265625,790.952392578125,788.937744140625,784.5054931640625
145,785.7142944335938,789.7435913085938,791.3552856445312,790.5494384765625
146,779.6703491210938,791.7582397460938,792.1611938476562,788.1318969726562
147,777.6557006835938,790.952392578125,793.7728881835938,786.1171875
148,776.8497924804688,785.7142944335938,796.5933837890625,786.5201416015625
149,778.05859375,783.2966918945312,798.6080322265625,786.5201416015625
150,780.0732421875,788.937744140625,801.4285888671875,783.6996459960938
151,777.6557006835938,788.1318969726562,799.010986328125,787.7289428710938
152,777.6557006835938,786.1171875,796.996337890625,794.1758422851562
153,775.6410522460938,789.7435913085938,799.010986328125,792.1611938476562
154,774.8351440429688,786.1171875,794.981689453125,789.7435913085938
155,775.6410522460938,782.4908447265625,790.5494384765625,789.3406372070312
156,776.4468994140625,788.5347900390625,790.5494384765625,791.7582397460938
157,780.0732421875,793.3699340820312,791.3552856445312,794.1758422851562
158,789.7435913085938,792.5640869140625,790.5494384765625,790.952392578125
159,795.7875366210938,795.7875366210938,797.8021850585938,791.7582397460938
160,797.8021850585938,794.1758422851562,801.8314819335938,793.7728881835938
161,794.981689453125,790.952392578125,799.4139404296875,793.3699340820312
162,788.1318969726562,795.3846435546875,798.2051391601562,794.5787353515625
163,787.3259887695312,796.1904907226562,794.1758422851562,791.3552856445312
164,789.7435913085938,793.7728881835938,792.1611938476562,788.937744140625
165,794.981689453125,790.952392578125,793.3699340820312,796.5933837890625
166,794.981689453125,786.5201416015625,796.1904907226562,803.8461303710938
167,794.1758422851562,791.7582397460938,799.010986328125,809.4871826171875
168,793.3699340820312,795.7875366210938,795.3846435546875,811.098876953125
169,784.1025390625,794.1758422851562,796.996337890625,795.7875366210938
170,785.3113403320312,791.7582397460938,795.3846435546875,787.7289428710938
171,789.7435913085938,788.937744140625,790.5494384765625,786.1171875
172,786.1171875,790.5494384765625,792.5640869140625,784.908447265625
173,784.908447265625,796.5933837890625,795.3846435546875,786.1171875
174,790.5494384765625,798.6080322265625,797.8021850585938,786.923095703125
175,788.937744140625,793.7728881835938,794.981689453125,784.908447265625
176,784.1025390625,789.7435913085938,795.7875366210938,783.6996459960938
177,785.7142944335938,793.3699340820312,799.4139404296875,784.1025390625
178,782.4908447265625,796.5933837890625,798.2051391601562,785.7142944335938
179,783.2966918945312,789.3406372070312,791.3552856445312,784.908447265625
180,784.1025390625,786.1171875,788.1318969726562,781.6849975585938
181,782.087890625,787.3259887695312,791.7582397460938,778.05859375
182,785.7142944335938,786.923095703125,794.1758422851562,782.893798828125
183,786.923095703125,785.7142944335938,790.952392578125,791.3552856445312
184,782.087890625,788.5347900390625,790.1465454101562,785.3113403320312
185,780.4761962890625,792.1611938476562,791.7582397460938,779.6703491210938
186,780.4761962890625,788.937744140625,790.5494384765625,783.6996459960938
187,783.6996459960938,787.3259887695312,790.1465454101562,790.5494384765625
188,785.3113403320312,790.952392578125,790.1465454101562,787.7289428710938
189,786.923095703125,792.967041015625,793.3699340820312,786.1171875
190,788.5347900390625,790.1465454101562,790.1465454101562,788.1318969726562
191,790.1465454101562,790.5494384765625,788.5347900390625,784.908447265625
192,783.6996459960938,791.3552856445312,790.5494384765625,776.8497924804688
193,779.2673950195312,789.7435913085938,787.7289428710938,780.879150390625
194,778.8644409179688,788.5347900390625,783.2966918945312,786.1171875
195,781.2820434570312,793.3699340820312,784.908447265625,793.7728881835938
196,790.5494384765625,794.1758422851562,788.5347900390625,798.6080322265625
197,791.3552856445312,787.7289428710938,787.3259887695312,791.3552856445312
198,790.952392578125,787.7289428710938,789.7435913085938,790.952392578125
199,791.3552856445312,793.7728881835938,792.1611938476562,793.7728881835938
200,792.967041015625,795.3846435546875,790.1465454101562,796.996337890625
201,796.5933837890625,789.3406372070312,792.5640869140625,798.6080322265625
202,794.981689453125,789.3406372070312,792.967041015625,800.2197875976562
203,793.3699340820312,799.4139404296875,790.5494384765625,797.8021850585938
204,796.1904907226562,794.981689453125,792.1611938476562,791.7582397460938
205,795.7875366210938,791.3552856445312,789.3406372070312,793.7728881835938
206,796.996337890625,799.4139404296875,787.7289428710938,798.2051391601562
207,791.7582397460938,800.6226806640625,792.5640869140625,795.7875366210938
208,786.923095703125,794.1758422851562,795.7875366210938,797.8021850585938
209,794.1758422851562,791.7582397460938,794.5787353515625,793.3699340820312
210,799.010986328125,792.1611938476562,792.5640869140625,793.3699340820312
211,799.010986328125,791.3552856445312,792.1611938476562,797.8021850585938
212,792.5640869140625,794.981689453125,793.3699340820312,791.3552856445312
213,786.1171875,793.7728881835938,791.7582397460938,788.5347900390625
214,790.1465454101562,787.3259887695312,790.1465454101562,791.3552856445312
215,792.967041015625,789.3406372070312,791.3552856445312,786.923095703125
216,789.3406372070312,790.5494384765625,790.952392578125,785.3113403320312
217,786.5201416015625,789.3406372070312,791.3552856445312,793.7728881835938
218,790.1465454101562,792.1611938476562,791.7582397460938,799.010986328125
219,795.7875366210938,798.6080322265625,789.3406372070312,793.3699340820312
220,796.1904907226562,796.5933837890625,786.5201416015625,786.1171875
221,796.996337890625,796.5933837890625,788.5347900390625,788.937744140625
222,796.1904907226562,798.2051391601562,796.5933837890625,789.3406372070312
223,792.967041015625,801.4285888671875,796.996337890625,783.6996459960938
224,786.1171875,800.6226806640625,791.7582397460938,784.1025390625
225,783.6996459960938,796.996337890625,791.3552856445312,789.3406372070312
226,789.3406372070312,796.996337890625,790.5494384765625,790.5494384765625
227,798.2051391601562,799.4139404296875,791.3552856445312,792.1611938476562
228,796.5933837890625,799.4139404296875,792.1611938476562,790.952392578125
229,790.5494384765625,793.3699340820312,792.1611938476562,797.8021850585938
230,786.1171875,793.7728881835938,792.967041015625,800.6226806640625
231,784.5054931640625,799.8168334960938,788.937744140625,788.5347900390625
232,782.4908447265625,795.7875366210938,790.5494384765625,783.2966918945312
233,783.6996459960938,793.3699340820312,795.7875366210938,784.908447265625
234,780.879150390625,795.3846435546875,795.7875366210938,784.908447265625
235,776.0439453125,792.967041015625,791.3552856445312,782.4908447265625
236,781.6849975585938,788.937744140625,790.952392578125,786.1171875
237,786.923095703125,794.5787353515625,796.5933837890625,793.3699340820312
238,787.3259887695312,798.6080322265625,798.6080322265625,799.8168334960938
239,786.5201416015625,798.6080322265625,794.1758422851562,794.1758422851562
240,789.3406372070312,795.3846435546875,793.7728881835938,787.3259887695312
241,796.996337890625,789.7435913085938,792.967041015625,793.3699340820312
242,796.5933837890625,789.7435913085938,790.5494384765625,788.937744140625
243,793.3699340820312,789.7435913085938,796.1904907226562,787.7289428710938
244,791.7582397460938,790.1465454101562,802.2344360351562,793.7728881835938
245,788.937744140625,788.937744140625,800.2197875976562,795.3846435546875
246,789.3406372070312,791.3552856445312,795.3846435546875,790.5494384765625
247,788.937744140625,794.981689453125,792.5640869140625,786.1171875
248,790.5494384765625,792.5640869140625,795.3846435546875,788.937744140625
249,787.3259887695312,791.3552856445312,793.3699340820312,791.7582397460938
250,788.1318969726562,786.5201416015625,795.3846435546875,796.5933837890625
251,794.5787353515625,787.3259887695312,799.4139404296875,800.2197875976562
252,798.2051391601562,793.3699340820312,796.1904907226562,804.2490844726562
253,793.7728881835938,795.7875366210938,790.1465454101562,800.6226806640625
254,792.5640869140625,793.7728881835938,791.3552856445312,789.7435913085938
255,796.996337890625,790.1465454101562,792.967041015625,786.923095703125
256,802.6373901367188,790.5494384765625,790.5494384765625,789.3406372070312
257,809.4871826171875,792.1611938476562,795.7875366210938,792.967041015625
258,804.2490844726562,795.3846435546875,796.5933837890625,793.3699340820312
259,803.040283203125,799.8168334960938,793.3699340820312,793.7728881835938
260,804.2490844726562,802.2344360351562,796.1904907226562,796.996337890625
261,799.010986328125,799.8168334960938,794.5787353515625,799.4139404296875
262,797.3992919921875,791.7582397460938,794.5787353515625,799.8168334960938
263,797.8021850585938,788.5347900390625,796.996337890625,802.6373901367188
264,792.5640869140625,794.5787353515625,789.7435913085938,807.069580078125
265,788.1318969726562,794.5787353515625,793.7728881835938,799.010986328125
266,796.1904907226562,791.3552856445312,799.010986328125,797.3992919921875
267,801.4285888671875,794.981689453125,796.1904907226562,796.1904907226562
268,796.1904907226562,797.8021850585938,793.3699340820312,792.5640869140625
269,796.996337890625,796.1904907226562,796.996337890625,797.8021850585938
270,797.8021850585938,786.5201416015625,796.996337890625,796.1904907226562
271,793.3699340820312,782.893798828125,790.5494384765625,790.5494384765625
272,792.967041015625,786.5201416015625,794.1758422851562,790.5494384765625
273,789.3406372070312,788.937744140625,794.981689453125,790.5494384765625
274,781.2820434570312,790.5494384765625,790.1465454101562,786.923095703125
275,781.6849975585938,783.6996459960938,788.937744140625,793.3699340820312
276,784.5054931640625,784.5054931640625,787.7289428710938,793.3699340820312
277,786.1171875,792.5640869140625,787.7289428710938,782.4908447265625
278,784.1025390625,793.7728881835938,791.3552856445312,778.4615478515625
279,784.1025390625,796.996337890625,795.7875366210938,782.893798828125
280,786.5201416015625,795.3846435546875,794.1758422851562,784.1025390625
281,780.879150390625,787.7289428710938,789.7435913085938,780.879150390625
282,781.2820434570312,784.908447265625,788.5347900390625,783.6996459960938
283,791.7582397460938,786.5201416015625,792.967041015625,786.5201416015625
284,792.1611938476562,789.7435913085938,794.981689453125,788.5347900390625
285,789.3406372070312,793.3699340820312,796.996337890625,791.3552856445312
286,794.981689453125,790.5494384765625,795.7875366210938,794.5787353515625
287,795.3846435546875,784.908447265625,794.5787353515625,802.2344360351562
288,799.010986328125,791.3552856445312,799.010986328125,803.4432373046875
289,801.8314819335938,791.7582397460938,794.5787353515625,799.8168334960938
290,798.2051391601562,791.3552856445312,790.1465454101562,799.8168334960938
291,790.5494384765625,791.7582397460938,792.5640869140625,798.6080322265625
292,792.1611938476562,792.1611938476562,789.3406372070312,797.3992919921875
293,798.2051391601562,794.1758422851562,790.1465454101562,799.8168334960938
294,797.8021850585938,790.5494384765625,788.5347900390625,792.967041015625
295,798.2051391601562,784.908447265625,788.1318969726562,787.3259887695312
296,797.3992919921875,785.7142944335938,791.3552856445312,792.967041015625
297,791.3552856445312,791.7582397460938,787.7289428710938,791.7582397460938
298,792.967041015625,795.3846435546875,788.1318969726562,791.7582397460938
299,796.996337890625,795.7875366210938,792.5640869140625,804.2490844726562
300,796.996337890625,788.937744140625,792.967041015625,801.8314819335938
301,791.7582397460938,786.5201416015625,790.952392578125,800.2197875976562
302,790.5494384765625,792.5640869140625,786.1171875,805.4578857421875
303,790.952392578125,797.8021850585938,789.3406372070312,803.4432373046875
304,794.1758422851562,790.1465454101562,797.3992919921875,794.5787353515625
305,796.1904907226562,788.1318969726562,795.7875366210938,789.7435913085938
306,788.5347900390625,785.7142944335938,793.7728881835938,791.7582397460938
307,788.1318969726562,783.2966918945312,792.1611938476562,791.3552856445312
308,793.3699340820312,788.1318969726562,795.7875366210938,791.3552856445312
309,791.7582397460938,786.923095703125,801.025634765625,796.1904907226562
310,788.1318969726562,789.7435913085938,802.6373901367188,796.5933837890625
311,786.5201416015625,789.7435913085938,799.4139404296875,793.3699340820312
312,786.1171875,787.7289428710938,793.7728881835938,794.5787353515625
313,789.7435913085938,785.3113403320312,787.7289428710938,796.996337890625
314,793.3699340820312,786.1171875,787.7289428710938,801.4285888671875
315,794.981689453125,797.8021850585938,793.3699340820312,792.967041015625
316,794.981689453125,799.8168334960938,795.3846435546875,788.937744140625
317,792.5640869140625,793.7728881835938,799.010986328125,796.1904907226562
318,796.5933837890625,794.5787353515625,800.6226806640625,804.2490844726562
319,797.8021850585938,798.6080322265625,800.6226806640625,807.87548828125
320,794.981689453125,793.3699340820312,796.5933837890625,807.87548828125
321,797.3992919921875,791.3552856445312,791.3552856445312,805.4578857421875
322,798.2051391601562,796.1904907226562,795.7875366210938,805.4578857421875
323,799.8168334960938,795.7875366210938,798.6080322265625,801.025634765625
324,803.8461303710938,799.4139404296875,796.996337890625,796.1904907226562
325,798.6080322265625,796.996337890625,795.3846435546875,789.7435913085938
326,796.1904907226562,789.7435913085938,790.952392578125,783.6996459960938
327,790.1465454101562,791.3552856445312,792.967041015625,788.1318969726562
328,785.7142944335938,792.967041015625,790.5494384765625,788.937744140625
329,790.5494384765625,794.1758422851562,782.4908447265625,787.3259887695312
330,789.7435913085938,794.1758422851562,786.923095703125,791.7582397460938
331,788.1318969726562,790.1465454101562,792.967041015625,793.3699340820312
332,792.967041015625,784.5054931640625,794.5787353515625,798.2051391601562
333,795.3846435546875,784.908447265625,791.3552856445312,807.87548828125
334,789.3406372070312,787.3259887695312,788.937744140625,805.4578857421875
335,784.1025390625,785.3113403320312,792.967041015625,797.8021850585938
336,785.3113403320312,784.5054931640625,796.1904907226562,799.010986328125
337,785.7142944335938,783.6996459960938,790.5494384765625,803.8461303710938
338,786.1171875,784.1025390625,790.1465454101562,797.3992919921875
339,790.5494384765625,789.7435913085938,794.5787353515625,796.996337890625
340,790.952392578125,794.1758422851562,792.967041015625,803.4432373046875
341,788.5347900390625,792.5640869140625,790.952392578125,800.6226806640625
342,788.1318969726562,787.7289428710938,792.1611938476562,794.981689453125
343,793.3699340820312,786.923095703125,790.5494384765625,796.1904907226562
344,796.996337890625,791.3552856445312,789.3406372070312,798.6080322265625
345,795.3846435546875,788.937744140625,792.967041015625,792.967041015625
346,796.1904907226562,788.1318969726562,792.1611938476562,788.1318969726562
347,795.7875366210938,791.3552856445312,788.5347900390625,787.3259887695312
348,792.967041015625,791.3552856445312,787.3259887695312,793.7728881835938
349,793.3699340820312,795.3846435546875,790.5494384765625,796.1904907226562
350,796.996337890625,792.5640869140625,794.5787353515625,786.923095703125
351,800.2197875976562,790.5494384765625,790.1465454101562,785.7142944335938
352,797.3992919921875,792.5640869140625,789.7435913085938,794.981689453125
353,790.952392578125,795.3846435546875,794.5787353515625,796.1904907226562
354,788.1318969726562,789.7435913085938,791.7582397460938,789.3406372070312
355,792.5640869140625,788.937744140625,788.1318969726562,789.7435913085938
356,790.5494384765625,796.5933837890625,790.952392578125,791.3552856445312
357,781.6849975585938,798.2051391601562,791.3552856445312,790.5494384765625
358,784.1025390625,797.3992919921875,792.5640869140625,789.7435913085938
359,788.5347900390625,792.5640869140625,793.7728881835938,792.5640869140625
360,783.2966918945312,790.1465454101562,790.5494384765625,798.6080322265625
361,783.2966918945312,790.1465454101562,794.1758422851562,796.996337890625
362,790.952392578125,785.3113403320312,800.2197875976562,798.2051391601562
363,794.5787353515625,786.1171875,797.8021850585938,803.8461303710938
364,794.5787353515625,795.3846435546875,792.1611938476562,798.2051391601562
365,789.3406372070312,794.5787353515625,789.3406372070312,783.6996459960938
366,787.7289428710938,793.3699340820312,795.3846435546875,781.2820434570312
367,786.1171875,795.3846435546875,798.6080322265625,784.1025390625
368,780.879150390625,792.1611938476562,799.010986328125,780.4761962890625
369,786.923095703125,787.7289428710938,796.996337890625,780.4761962890625
370,788.5347900390625,788.1318969726562,788.937744140625,784.5054931640625
371,784.1025390625,794.5787353515625,784.908447265625,788.1318969726562
372,779.2673950195312,792.5640869140625,788.1318969726562,782.087890625
373,776.0439453125,789.3406372070312,791.3552856445312,776.0439453125
374,786.5201416015625,796.996337890625,788.1318969726562,784.1025390625
375,794.5787353515625,793.3699340820312,790.1465454101562,794.981689453125
376,792.967041015625,792.967041015625,790.952392578125,796.996337890625
377,786.1171875,795.7875366210938,788.5347900390625,794.1758422851562
378,780.879150390625,789.7435913085938,788.1318969726562,792.967041015625
379,782.4908447265625,792.5640869140625,784.908447265625,794.1758422851562
380,783.2966918945312,795.3846435546875,786.1171875,788.5347900390625
381,781.2820434570312,790.5494384765625,785.3113403320312,782.4908447265625
382,787.3259887695312,789.3406372070312,785.3113403320312,793.7728881835938
383,789.7435913085938,795.7875366210938,786.923095703125,799.4139404296875
384,792.1611938476562,802.2344360351562,786.1171875,790.952392578125
385,795.7875366210938,801.025634765625,791.7582397460938,792.967041015625
386,796.5933837890625,799.4139404296875,793.7728881835938,803.040283203125
387,796.1904907226562,796.1904907226562,796.1904907226562,805.054931640625
388,799.010986328125,799.010986328125,795.7875366210938,801.025634765625
389,799.4139404296875,805.054931640625,791.3552856445312,798.2051391601562
390,803.4432373046875,804.2490844726562,794.1758422851562,797.3992919921875
391,807.069580078125,800.2197875976562,793.3699340820312,792.967041015625
392,801.025634765625,797.3992919921875,787.7289428710938,790.952392578125
393,798.2051391601562,796.1904907226562,789.3406372070312,791.3552856445312
394,799.4139404296875,796.1904907226562,786.923095703125,792.967041015625
395,796.1904907226562,797.3992919921875,780.879150390625,795.7875366210938
396,790.1465454101562,800.2197875976562,784.1025390625,788.937744140625
397,789.7435913085938,800.2197875976562,782.893798828125,778.05859375
398,796.996337890625,797.3992919921875,781.6849975585938,788.5347900390625
399,798.2051391601562,801.025634765625,789.7435913085938,794.5787353515625
400,798.2051391601562,799.010986328125,786.1171875,786.5201416015625
401,797.8021850585938,801.4285888671875,784.1025390625,792.967041015625
402,797.8021850585938,802.2344360351562,793.7728881835938,806.2637329101562
403,798.6080322265625,796.996337890625,799.4139404296875,802.2344360351562
404,796.1904907226562,801.4285888671875,792.967041015625,800.6226806640625
405,796.5933837890625,801.025634765625,785.3113403320312,799.8168334960938
406,796.1904907226562,794.981689453125,790.5494384765625,794.5787353515625
407,799.4139404296875,794.5787353515625,789.3406372070312,790.952392578125
408,792.5640869140625,791.7582397460938,787.3259887695312,784.908447265625
409,786.5201416015625,790.952392578125,792.5640869140625,787.3259887695312
410,793.3699340820312,792.967041015625,794.1758422851562,790.1465454101562
411,796.1904907226562,790.952392578125,794.5787353515625,785.7142944335938
412,800.6226806640625,796.1904907226562,790.5494384765625,786.1171875
413,798.2051391601562,798.2051391601562,792.1611938476562,789.7435913085938
414,793.3699340820312,794.981689453125,795.7875366210938,789.7435913085938
415,798.2051391601562,795.7875366210938,793.7728881835938,794.5787353515625
416,799.4139404296875,795.7875366210938,792.5640869140625,797.3992919921875
417,804.6520385742188,792.967041015625,790.952392578125,794.5787353515625
418,797.8021850585938,790.5494384765625,787.7289428710938,790.1465454101562
419,786.5201416015625,790.1465454101562,790.952392578125,785.7142944335938
420,794.1758422851562,790.1465454101562,796.1904907226562,795.3846435546875
421,797.8021850585938,789.3406372070312,800.2197875976562,806.2637329101562
422,797.8021850585938,794.5787353515625,802.6373901367188,803.4432373046875
423,796.1904907226562,790.1465454101562,793.7728881835938,797.8021850585938
424,791.3552856445312,786.1171875,792.967041015625,799.8168334960938
425,790.952392578125,794.1758422851562,797.8021850585938,803.040283203125
426,792.5640869140625,794.1758422851562,799.4139404296875,804.2490844726562
427,792.967041015625,789.3406372070312,801.025634765625,805.4578857421875
428,795.7875366210938,793.3699340820312,798.2051391601562,805.4578857421875
429,795.3846435546875,796.1904907226562,797.8021850585938,802.2344360351562
430,789.7435913085938,791.3552856445312,798.6080322265625,797.3992919921875
431,788.1318969726562,792.5640869140625,798.6080322265625,798.6080322265625
432,787.3259887695312,789.7435913085938,792.967041015625,801.8314819335938
433,784.1025390625,789.3406372070312,793.3699340820312,805.054931640625
434,781.2820434570312,796.5933837890625,797.8021850585938,794.981689453125
435,787.7289428710938,795.7875366210938,797.3992919921875,790.5494384765625
436,793.3699340820312,794.5787353515625,794.5787353515625,796.1904907226562
437,791.7582397460938,792.5640869140625,789.3406372070312,787.3259887695312
438,796.996337890625,785.3113403320312,790.5494384765625,788.937744140625
439,795.3846435546875,787.7289428710938,792.5640869140625,799.4139404296875
440,792.5640869140625,795.7875366210938,788.937744140625,790.952392578125
441,799.010986328125,798.2051391601562,790.1465454101562,790.952392578125
442,793.7728881835938,798.6080322265625,792.1611938476562,787.7289428710938
443,788.5347900390625,797.3992919921875,789.7435913085938,779.6703491210938
444,796.996337890625,794.5787353515625,791.7582397460938,800.2197875976562
445,796.1904907226562,790.952392578125,796.1904907226562,805.8607788085938
446,793.3699340820312,793.3699340820312,797.3992919921875,792.967041015625
447,798.2051391601562,791.7582397460938,791.7582397460938,795.3846435546875
448,798.2051391601562,787.7289428710938,791.7582397460938,800.6226806640625
449,796.5933837890625,789.7435913085938,800.6226806640625,803.8461303710938
450,793.3699340820312,788.1318969726562,800.6226806640625,801.8314819335938
451,791.7582397460938,786.923095703125,796.1904907226562,799.8168334960938
452,791.3552856445312,793.3699340820312,797.8021850585938,796.5933837890625
453,790.952392578125,794.5787353515625,795.3846435546875,789.7435913085938
454,794.1758422851562,790.5494384765625,790.5494384765625,789.3406372070312
455,798.6080322265625,793.3699340820312,792.5640869140625,793.3699340820312
456,802.2344360351562,795.3846435546875,786.923095703125,800.6226806640625
457,798.6080322265625,801.025634765625,786.5201416015625,792.967041015625
458,794.5787353515625,804.2490844726562,789.7435913085938,785.3113403320312
459,798.6080322265625,799.8168334960938,788.1318969726562,789.7435913085938
460,793.3699340820312,795.7875366210938,790.5494384765625,782.4908447265625
461,788.5347900390625,787.3259887695312,789.7435913085938,774.029296875
462,788.1318969726562,790.1465454101562,787.7289428710938,778.4615478515625
463,787.3259887695312,793.3699340820312,785.7142944335938,783.2966918945312
464,787.3259887695312,794.5787353515625,788.937744140625,783.6996459960938
465,778.8644409179688,792.1611938476562,789.7435913085938,779.2673950195312
466,780.879150390625,786.5201416015625,788.1318969726562,783.2966918945312
467,789.3406372070312,788.937744140625,790.1465454101562,794.1758422851562
468,782.087890625,792.1611938476562,795.3846435546875,796.5933837890625
469,781.6849975585938,788.5347900390625,800.2197875976562,794.5787353515625
470,781.2820434570312,781.6849975585938,796.1904907226562,792.967041015625
471,782.893798828125,778.4615478515625,797.3992919921875,794.5787353515625
472,789.3406372070312,783.6996459960938,799.4139404296875,788.1318969726562
473,782.893798828125,784.1025390625,792.967041015625,783.2966918945312
474,781.6849975585938,782.893798828125,796.1904907226562,792.1611938476562
475,781.2820434570312,783.2966918945312,798.6080322265625,797.8021850585938
476,778.05859375,781.2820434570312,796.1904907226562,789.3406372070312
477,780.4761962890625,782.4908447265625,793.3699340820312,778.4615478515625
478,786.5201416015625,783.2966918945312,792.1611938476562,784.908447265625
479,790.1465454101562,781.2820434570312,794.1758422851562,792.967041015625
480,784.908447265625,784.5054931640625,793.7728881835938,785.3113403320312
481,780.0732421875,789.7435913085938,792.967041015625,786.1171875
482,784.908447265625,788.5347900390625,794.981689453125,788.5347900390625
483,788.1318969726562,788.5347900390625,795.3846435546875,789.3406372070312
484,784.908447265625,791.7582397460938,794.1758422851562,786.5201416015625
485,784.5054931640625,794.1758422851562,793.7728881835938,781.2820434570312
486,787.7289428710938,796.1904907226562,795.3846435546875,791.3552856445312
487,786.923095703125,794.5787353515625,798.6080322265625,797.8021850585938
488,780.879150390625,793.3699340820312,797.3992919921875,795.3846435546875
489,783.6996459960938,792.967041015625,794.5787353515625,792.1611938476562
490,784.5054931640625,786.1171875,793.3699340820312,794.1758422851562
491,782.893798828125,788.5347900390625,796.5933837890625,798.6080322265625
492,788.1318969726562,799.8168334960938,794.981689453125,797.8021850585938
493,787.3259887695312,798.2051391601562,792.1611938476562,801.025634765625
494,789.3406372070312,796.1904907226562,786.923095703125,801.025634765625
495,793.3699340820312,802.6373901367188,790.5494384765625,796.5933837890625
496,794.981689453125,803.040283203125,793.3699340820312,796.996337890625
497,792.967041015625,798.2051391601562,783.6996459960938,788.5347900390625
498,795.3846435546875,799.010986328125,783.6996459960938,791.7582397460938
499,800.2197875976562,794.981689453125,788.1318969726562,796.5933837890625
500,798.6080322265625,788.937744140625,788.5347900390625,791.3552856445312
501,794.1758422851562,792.967041015625,788.5347900390625,792.1611938476562
502,789.7435913085938,792.5640869140625,783.6996459960938,793.7728881835938
503,787.7289428710938,792.1611938476562,785.7142944335938,792.967041015625
504,790.5494384765625,799.010986328125,792.1611938476562,788.5347900390625
505,789.7435913085938,797.8021850585938,792.1611938476562,787.7289428710938
506,791.3552856445312,791.7582397460938,790.1465454101562,790.1465454101562
507,790.952392578125,796.996337890625,795.3846435546875,783.2966918945312
508,790.5494384765625,799.8168334960938,797.8021850585938,788.5347900390625
509,788.937744140625,796.1904907226562,794.981689453125,795.3846435546875
510,783.6996459960938,790.5494384765625,791.7582397460938,784.5054931640625
511,784.5054931640625,787.7289428710938,796.996337890625,784.1025390625
512,787.3259887695312,795.3846435546875,798.6080322265625,792.967041015625
513,792.967041015625,799.8168334960938,796.996337890625,796.1904907226562
514,792.5640869140625,797.8021850585938,797.8021850585938,794.5787353515625
515,784.908447265625,798.2051391601562,792.967041015625,790.952392578125
516,783.6996459960938,796.1904907226562,793.7728881835938,790.1465454101562
517,788.1318969726562,793.7728881835938,799.010986328125,797.3992919921875
518,786.923095703125,796.996337890625,801.025634765625,800.6226806640625
519,788.937744140625,795.7875366210938,799.010986328125,791.7582397460938
520,790.952392578125,793.7728881835938,797.3992919921875,791.7582397460938
521,788.5347900390625,792.5640869140625,803.4432373046875,797.3992919921875
522,787.7289428710938,791.3552856445312,799.4139404296875,793.3699340820312
523,786.923095703125,796.996337890625,794.1758422851562,787.7289428710938
524,785.7142944335938,798.2051391601562,799.4139404296875,790.1465454101562
525,788.5347900390625,798.2051391601562,802.2344360351562,794.5787353515625
526,789.7435913085938,799.010986328125,798.2051391601562,791.7582397460938
527,788.937744140625,796.5933837890625,793.7728881835938,784.5054931640625
528,789.3406372070312,791.3552856445312,798.2051391601562,792.5640869140625
529,790.952392578125,788.5347900390625,799.4139404296875,809.084228515625
530,783.2966918945312,794.981689453125,801.025634765625,795.7875366210938
531,780.879150390625,798.6080322265625,799.8168334960938,785.3113403320312
532,782.4908447265625,795.3846435546875,798.6080322265625,785.7142944335938
533,780.4761962890625,792.967041015625,797.3992919921875,786.923095703125
534,784.908447265625,799.4139404296875,795.3846435546875,790.952392578125
535,786.5201416015625,802.2344360351562,794.1758422851562,790.5494384765625
536,784.5054931640625,797.3992919921875,794.5787353515625,788.5347900390625
537,788.1318969726562,793.3699340820312,799.010986328125,783.6996459960938
538,791.3552856445312,794.1758422851562,792.967041015625,784.5054931640625
539,792.5640869140625,798.6080322265625,790.1465454101562,789.3406372070312
540,792.1611938476562,792.967041015625,800.2197875976562,796.996337890625
541,786.923095703125,782.087890625,801.025634765625,798.2051391601562
542,794.1758422851562,781.6849975585938,794.981689453125,794.981689453125
543,801.4285888671875,788.1318969726562,790.952392578125,797.3992919921875
544,793.3699340820312,791.7582397460938,789.3406372070312,796.5933837890625
545,783.2966918945312,792.967041015625,788.937744140625,784.1025390625
546,782.4908447265625,792.5640869140625,793.3699340820312,778.05859375
547,785.7142944335938,792.967041015625,797.3992919921875,786.1171875
548,786.923095703125,796.996337890625,799.010986328125,791.7582397460938
549,784.5054931640625,793.3699340820312,796.996337890625,792.967041015625
550,779.6703491210938,786.1171875,792.967041015625,789.7435913085938
551,778.4615478515625,786.1171875,793.3699340820312,790.1465454101562
552,774.4322509765625,786.5201416015625,794.1758422851562,794.1758422851562
553,772.0146484375,788.937744140625,794.5787353515625,789.3406372070312
554,778.05859375,787.3259887695312,793.7728881835938,783.6996459960938
555,778.4615478515625,778.8644409179688,790.5494384765625,785.7142944335938
556,780.879150390625,777.2527465820312,793.3699340820312,791.7582397460938
557,780.4761962890625,784.5054931640625,796.5933837890625,791.3552856445312
558,776.8497924804688,791.3552856445312,794.5787353515625,788.5347900390625
559,781.6849975585938,792.1611938476562,794.981689453125,790.1465454101562
560,786.5201416015625,790.952392578125,794.1758422851562,791.7582397460938
561,784.1025390625,792.1611938476562,792.967041015625,791.3552856445312
562,780.879150390625,788.5347900390625,792.5640869140625,787.7289428710938
563,780.4761962890625,784.908447265625,790.952392578125,788.5347900390625
564,780.879150390625,790.1465454101562,792.1611938476562,786.1171875
565,783.2966918945312,789.7435913085938,794.981689453125,776.4468994140625
566,783.6996459960938,785.7142944335938,792.5640869140625,776.0439453125
567,784.1025390625,785.7142944335938,790.952392578125,784.1025390625
568,788.937744140625,793.3699340820312,794.981689453125,784.5054931640625
569,793.3699340820312,799.4139404296875,799.010986328125,782.4908447265625
570,790.1465454101562,795.3846435546875,799.8168334960938,790.1465454101562
571,784.1025390625,792.5640869140625,793.7728881835938,795.7875366210938
572,782.4908447265625,794.5787353515625,792.5640869140625,791.3552856445312
573,784.5054931640625,797.8021850585938,795.7875366210938,784.908447265625
574,782.087890625,799.8168334960938,796.1904907226562,784.1025390625
575,785.3113403320312,800.6226806640625,798.2051391601562,790.5494384765625
576,788.1318969726562,795.7875366210938,799.4139404296875,790.5494384765625
577,788.5347900390625,788.5347900390625,795.3846435546875,784.1025390625
578,787.7289428710938,789.3406372070312,793.3699340820312,787.7289428710938
579,785.7142944335938,792.967041015625,793.7728881835938,796.5933837890625
580,788.5347900390625,792.967041015625,796.5933837890625,796.996337890625
581,794.1758422851562,794.1758422851562,803.8461303710938,797.3992919921875
582,789.7435913085938,791.3552856445312,802.2344360351562,794.981689453125
583,784.5054931640625,792.1611938476562,794.5787353515625,794.1758422851562
584,791.7582397460938,790.952392578125,794.5787353515625,792.1611938476562
585,797.8021850585938,787.7289428710938,797.3992919921875,790.1465454101562
586,794.5787353515625,789.7435913085938,796.1904907226562,794.5787353515625
587,795.3846435546875,795.7875366210938,792.967041015625,797.8021850585938
588,796.5933837890625,800.6226806640625,791.7582397460938,799.4139404296875
589,791.7582397460938,800.2197875976562,793.3699340820312,799.010986328125
590,795.7875366210938,798.6080322265625,799.010986328125,803.4432373046875
591,799.8168334960938,797.8021850585938,802.6373901367188,801.8314819335938
592,792.967041015625,794.5787353515625,795.3846435546875,793.3699340820312
593,785.3113403320312,791.3552856445312,794.5787353515625,786.923095703125
594,786.1171875,794.1758422851562,797.3992919921875,788.1318969726562
595,786.923095703125,798.2051391601562,797.8021850585938,790.5494384765625
596,790.5494384765625,797.3992919921875,796.1904907226562,785.7142944335938
597,795.7875366210938,792.5640869140625,798.2051391601562,787.7289428710938
598,790.5494384765625,793.7728881835938,797.8021850585938,790.5494384765625
599,786.923095703125,798.6080322265625,797.3992919921875,789.7435913085938
600,790.5494384765625,801.8314819335938,796.5933837890625,787.3259887695312
601,792.967041015625,798.6080322265625,795.3846435546875,792.967041015625
602,794.5787353515625,796.5933837890625,798.2051391601562,807.87548828125
603,791.7582397460938,793.3699340820312,798.6080322265625,805.054931640625
604,793.3699340820312,793.3699340820312,798.6080322265625,800.2197875976562
605,797.3992919921875,796.1904907226562,798.2051391601562,806.2637329101562
606,797.3992919921875,796.1904907226562,798.2051391601562,804.2490844726562
607,801.025634765625,796.996337890625,800.2197875976562,797.3992919921875
608,798.6080322265625,793.3699340820312,798.2051391601562,796.1904907226562
609,795.3846435546875,796.996337890625,801.4285888671875,803.040283203125
610,804.2490844726562,796.996337890625,805.054931640625,809.89013671875
611,808.6813354492188,796.5933837890625,800.6226806640625,811.90478515625
612,801.025634765625,804.6520385742188,795.7875366210938,800.6226806640625
613,802.6373901367188,807.069580078125,797.3992919921875,800.6226806640625
614,803.8461303710938,803.8461303710938,803.040283203125,805.4578857421875
615,789.3406372070312,800.2197875976562,805.8607788085938,794.1758422851562
616,786.5201416015625,798.2051391601562,800.6226806640625,790.5494384765625
617,794.5787353515625,801.025634765625,794.981689453125,796.5933837890625
618,790.1465454101562,804.6520385742188,798.2051391601562,793.7728881835938
619,783.2966918945312,799.4139404296875,795.3846435546875,788.5347900390625
620,786.923095703125,797.8021850585938,793.3699340820312,792.1611938476562
621,789.3406372070312,799.4139404296875,800.6226806640625,795.3846435546875
622,796.1904907226562,798.6080322265625,801.4285888671875,798.6080322265625
623,793.7728881835938,799.010986328125,796.996337890625,791.7582397460938
624,790.952392578125,796.1904907226562,791.3552856445312,788.5347900390625
625,796.996337890625,794.981689453125,792.1611938476562,799.4139404296875
626,795.7875366210938,802.2344360351562,797.8021850585938,792.5640869140625
627,788.937744140625,803.040283203125,793.7728881835938,785.7142944335938
628,790.5494384765625,795.7875366210938,792.5640869140625,792.5640869140625
629,790.5494384765625,788.1318969726562,793.3699340820312,793.7728881835938
630,791.7582397460938,790.5494384765625,788.937744140625,788.5347900390625
631,795.7875366210938,794.981689453125,787.7289428710938,791.3552856445312
632,792.1611938476562,791.3552856445312,794.981689453125,789.7435913085938
633,788.5347900390625,790.952392578125,796.5933837890625,785.7142944335938
634,780.879150390625,794.981689453125,791.7582397460938,782.4908447265625
635,773.6264038085938,795.7875366210938,792.967041015625,784.5054931640625
636,780.4761962890625,800.2197875976562,792.967041015625,797.8021850585938
637,787.3259887695312,803.4432373046875,792.967041015625,800.2197875976562
638,790.1465454101562,803.4432373046875,796.5933837890625,799.4139404296875
639,794.981689453125,802.6373901367188,792.967041015625,799.010986328125
640,799.8168334960938,794.1758422851562,790.952392578125,793.3699340820312
641,800.2197875976562,794.5787353515625,793.3699340820312,795.3846435546875
642,803.040283203125,795.7875366210938,798.6080322265625,798.6080322265625
643,801.8314819335938,792.967041015625,799.4139404296875,799.8168334960938
644,797.3992919921875,790.1465454101562,795.3846435546875,803.4432373046875
645,798.2051391601562,792.1611938476562,795.7875366210938,802.6373901367188
646,794.5787353515625,797.8021850585938,794.5787353515625,796.1904907226562
647,788.937744140625,795.7875366210938,791.3552856445312,799.010986328125
648,783.6996459960938,790.952392578125,791.3552856445312,802.6373901367188
649,780.879150390625,792.5640869140625,796.996337890625,795.3846435546875
650,782.893798828125,797.3992919921875,798.6080322265625,792.967041015625
651,784.908447265625,795.3846435546875,797.8021850585938,789.7435913085938
652,784.1025390625,786.5201416015625,800.2197875976562,790.952392578125
653,779.6703491210938,788.937744140625,799.4139404296875,794.1758422851562
654,782.4908447265625,790.1465454101562,798.2051391601562,798.2051391601562
655,789.7435913085938,787.3259887695312,801.4285888671875,801.4285888671875
656,780.0732421875,790.5494384765625,799.8168334960938,787.3259887695312
657,773.2234497070312,797.8021850585938,797.8021850585938,787.3259887695312
658,783.6996459960938,799.4139404296875,797.8021850585938,792.967041015625
659,782.893798828125,792.5640869140625,795.7875366210938,790.5494384765625
660,775.2380981445312,789.7435913085938,792.1611938476562,787.7289428710938
661,777.6557006835938,792.1611938476562,792.5640869140625,788.1318969726562
662,781.2820434570312,792.967041015625,795.3846435546875,790.1465454101562
663,777.6557006835938,789.3406372070312,793.3699340820312,786.923095703125
664,777.6557006835938,785.3113403320312,795.3846435546875,784.908447265625
665,776.8497924804688,787.3259887695312,797.3992919921875,785.3113403320312
666,784.5054931640625,792.967041015625,799.010986328125,786.1171875
667,789.7435913085938,792.5640869140625,799.4139404296875,790.952392578125
668,788.937744140625,793.7728881835938,799.010986328125,793.7728881835938
669,782.893798828125,792.1611938476562,797.8021850585938,788.5347900390625
670,776.8497924804688,792.5640869140625,793.7728881835938,790.952392578125
671,781.6849975585938,796.1904907226562,792.1611938476562,800.2197875976562
672,781.6849975585938,798.2051391601562,793.7728881835938,793.3699340820312
673,782.087890625,797.3992919921875,790.5494384765625,788.5347900390625
674,785.7142944335938,798.6080322265625,790.952392578125,788.5347900390625
675,782.087890625,794.981689453125,796.5933837890625,785.7142944335938
676,778.4615478515625,795.7875366210938,795.7875366210938,789.3406372070312
677,782.087890625,799.4139404296875,792.967041015625,789.7435913085938
678,784.908447265625,794.981689453125,796.1904907226562,787.3259887695312
679,785.3113403320312,794.981689453125,804.2490844726562,792.967041015625
680,787.7289428710938,799.8168334960938,807.87548828125,793.3699340820312
681,789.3406372070312,797.3992919921875,804.2490844726562,790.952392578125
682,792.1611938476562,792.5640869140625,807.4725341796875,796.1904907226562
683,795.7875366210938,792.967041015625,811.098876953125,798.2051391601562
684,790.1465454101562,796.996337890625,801.025634765625,793.3699340820312
685,784.1025390625,794.5787353515625,797.8021850585938,795.7875366210938
686,782.893798828125,789.3406372070312,802.2344360351562,804.6520385742188
687,782.087890625,791.3552856445312,800.6226806640625,801.025634765625
688,785.3113403320312,790.952392578125,797.3992919921875,790.1465454101562
689,786.923095703125,788.937744140625,794.5787353515625,789.3406372070312
690,788.5347900390625,790.952392578125,794.1758422851562,794.1758422851562
691,790.952392578125,795.3846435546875,796.1904907226562,792.1611938476562
692,794.981689453125,794.5787353515625,798.6080322265625,794.1758422851562
693,800.2197875976562,792.1611938476562,798.2051391601562,801.4285888671875
694,796.996337890625,790.1465454101562,800.6226806640625,802.6373901367188
695,795.7875366210938,794.981689453125,800.2197875976562,800.2197875976562
696,794.1758422851562,803.8461303710938,801.025634765625,794.1758422851562
697,788.937744140625,794.1758422851562,800.6226806640625,791.3552856445312
698,787.3259887695312,788.1318969726562,796.5933837890625,794.981689453125
699,787.7289428710938,798.6080322265625,799.8168334960938,793.7728881835938
700,788.1318969726562,796.1904907226562,799.010986328125,790.5494384765625
701,784.1025390625,789.3406372070312,794.981689453125,790.5494384765625
702,786.923095703125,786.923095703125,797.8021850585938,792.1611938476562
703,788.5347900390625,785.7142944335938,799.8168334960938,796.1904907226562
704,788.5347900390625,784.1025390625,794.1758422851562,799.4139404296875
705,788.937744140625,785.3113403320312,792.5640869140625,798.6080322265625
706,786.5201416015625,790.952392578125,794.5787353515625,796.5933837890625
707,788.5347900390625,794.5787353515625,794.5787353515625,801.025634765625
708,791.7582397460938,791.7582397460938,796.5933837890625,803.040283203125
709,788.1318969726562,792.5640869140625,796.996337890625,807.87548828125
710,783.2966918945312,796.996337890625,796.5933837890625,805.054931640625
711,778.4615478515625,793.3699340820312,795.3846435546875,795.3846435546875
712,775.2380981445312,788.5347900390625,789.7435913085938,796.5933837890625
713,783.6996459960938,790.1465454101562,787.7289428710938,795.7875366210938
714,783.6996459960938,790.952392578125,794.1758422851562,784.5054931640625
715,781.2820434570312,791.3552856445312,796.996337890625,782.087890625
716,786.1171875,789.3406372070312,798.6080322265625,793.7728881835938
717,788.5347900390625,784.5054931640625,800.6226806640625,799.4139404296875
718,790.952392578125,783.2966918945312,796.1904907226562,802.6373901367188
719,787.7289428710938,788.937744140625,794.1758422851562,798.6080322265625
720,784.1025390625,794.5787353515625,791.7582397460938,790.952392578125
721,777.6557006835938,791.3552856445312,794.5787353515625,788.937744140625
722,773.6264038085938,789.7435913085938,798.6080322265625,781.6849975585938
723,778.05859375,790.5494384765625,796.1904907226562,786.923095703125
724,778.8644409179688,791.3552856445312,795.7875366210938,794.5787353515625
725,779.6703491210938,791.3552856445312,796.5933837890625,796.1904907226562
726,782.4908447265625,792.5640869140625,794.1758422851562,795.7875366210938
727,782.087890625,791.3552856445312,796.996337890625,791.3552856445312
728,781.2820434570312,782.4908447265625,792.1611938476562,792.967041015625
729,787.3259887695312,785.7142944335938,790.5494384765625,795.3846435546875
730,788.937744140625,791.7582397460938,794.981689453125,792.967041015625
731,790.5494384765625,792.967041015625,788.937744140625,796.5933837890625
732,793.3699340820312,792.967041015625,788.1318969726562,801.4285888671875
733,786.1171875,790.5494384765625,796.1904907226562,795.7875366210938
734,783.6996459960938,790.1465454101562,799.010986328125,787.3259887695312
735,790.952392578125,787.3259887695312,795.7875366210938,793.7728881835938
736,786.923095703125,791.3552856445312,796.996337890625,795.7875366210938
737,780.0732421875,797.3992919921875,798.6080322265625,793.3699340820312
738,780.4761962890625,794.5787353515625,792.5640869140625,789.3406372070312
739,780.0732421875,787.7289428710938,790.1465454101562,787.3259887695312
740,780.879150390625,788.5347900390625,792.5640869140625,799.010986328125
741,785.7142944335938,795.7875366210938,795.7875366210938,803.8461303710938
742,783.2966918945312,799.010986328125,799.010986328125,804.2490844726562
743,780.879150390625,798.2051391601562,795.7875366210938,803.4432373046875
744,785.7142944335938,797.3992919921875,794.1758422851562,809.084228515625
745,790.5494384765625,801.4285888671875,794.981689453125,808.6813354492188
746,785.7142944335938,794.1758422851562,790.1465454101562,804.6520385742188
747,784.1025390625,785.7142944335938,793.3699340820312,801.025634765625
748,789.7435913085938,794.1758422851562,793.7728881835938,789.3406372070312
749,789.7435913085938,798.2051391601562,790.5494384765625,787.7289428710938
750,786.1171875,793.3699340820312,791.3552856445312,789.3406372070312
751,784.908447265625,793.7728881835938,788.5347900390625,791.3552856445312
752,786.923095703125,793.7728881835938,788.5347900390625,796.1904907226562
753,791.3552856445312,794.5787353515625,789.3406372070312,796.996337890625
754,793.3699340820312,796.996337890625,787.7289428710938,794.981689453125
755,787.3259887695312,793.3699340820312,784.908447265625,793.7728881835938
756,786.923095703125,792.967041015625,788.937744140625,788.937744140625
757,792.967041015625,792.5640869140625,795.7875366210938,789.7435913085938
758,793.7728881835938,791.3552856445312,797.8021850585938,795.3846435546875
759,794.1758422851562,790.1465454101562,793.7728881835938,793.3699340820312
760,798.2051391601562,788.1318969726562,792.5640869140625,791.7582397460938
761,795.7875366210938,789.7435913085938,796.1904907226562,792.1611938476562
762,789.7435913085938,796.5933837890625,794.1758422851562,792.967041015625
763,789.3406372070312,798.6080322265625,789.7435913085938,802.2344360351562
764,786.5201416015625,798.6080322265625,791.3552856445312,795.7875366210938
765,782.087890625,794.1758422851562,790.952392578125,778.8644409179688
766,786.1171875,793.3699340820312,793.7728881835938,783.2966918945312
767,782.893798828125,793.7728881835938,790.5494384765625,785.7142944335938
768,779.2673950195312,794.981689453125,789.3406372070312,782.4908447265625
769,782.4908447265625,796.5933837890625,794.5787353515625,788.937744140625
770,781.6849975585938,792.5640869140625,797.3992919921875,796.5933837890625
771,778.4615478515625,796.1904907226562,798.6080322265625,800.6226806640625
772,785.7142944335938,801.4285888671875,801.4285888671875,801.4285888671875
773,780.0732421875,794.1758422851562,795.7875366210938,800.2197875976562
774,775.6410522460938,792.967041015625,791.3552856445312,802.6373901367188
775,791.3552856445312,799.8168334960938,796.1904907226562,801.025634765625
776,794.5787353515625,800.2197875976562,798.6080322265625,801.025634765625
777,788.1318969726562,794.981689453125,796.5933837890625,800.6226806640625
778,789.7435913085938,796.1904907226562,791.7582397460938,795.7875366210938
779,789.3406372070312,801.025634765625,792.5640869140625,793.3699340820312
780,783.6996459960938,799.010986328125,799.4139404296875,792.5640869140625
781,786.5201416015625,795.3846435546875,797.8021850585938,791.3552856445312
782,794.5787353515625,793.7728881835938,793.7728881835938,799.4139404296875
783,786.5201416015625,794.1758422851562,793.3699340820312,792.5640869140625
784,779.6703491210938,794.1758422851562,796.5933837890625,781.2820434570312
785,783.6996459960938,791.7582397460938,798.2051391601562,788.1318969726562
786,781.2820434570312,791.3552856445312,793.7728881835938,792.5640869140625
787,775.6410522460938,796.5933837890625,793.3699340820312,785.3113403320312
788,774.4322509765625,797.3992919921875,794.5787353515625,784.908447265625
789,777.2527465820312,796.996337890625,793.7728881835938,790.5494384765625
790,776.8497924804688,798.2051391601562,795.3846435546875,782.893798828125
791,776.4468994140625,796.996337890625,790.952392578125,776.0439453125
792,776.0439453125,800.2197875976562,790.952392578125,778.4615478515625
793,777.2527465820312,799.4139404296875,793.7728881835938,781.2820434570312
794,779.2673950195312,791.3552856445312,794.981689453125,792.1611938476562
795,777.2527465820312,793.7728881835938,799.010986328125,788.5347900390625
796,781.6849975585938,794.1758422851562,801.8314819335938,785.3113403320312
797,786.5201416015625,790.1465454101562,800.2197875976562,796.5933837890625
798,787.7289428710938,793.7728881835938,801.4285888671875,798.6080322265625
799,788.937744140625,791.3552856445312,797.3992919921875,792.967041015625
800,792.5640869140625,786.923095703125,792.5640869140625,788.1318969726562
801,790.952392578125,785.3113403320312,793.7728881835938,781.2820434570312
802,788.1318969726562,787.3259887695312,798.2051391601562,778.8644409179688
803,790.1465454101562,791.7582397460938,799.010986328125,785.3113403320312
804,785.3113403320312,787.7289428710938,792.5640869140625,787.7289428710938
805,776.0439453125,783.6996459960938,790.1465454101562,788.1318969726562
806,773.6264038085938,789.3406372070312,792.5640869140625,783.6996459960938
807,776.8497924804688,790.952392578125,793.7728881835938,778.4615478515625
808,776.4468994140625,789.7435913085938,792.967041015625,782.893798828125
809,775.2380981445312,794.5787353515625,789.7435913085938,785.3113403320312
810,783.6996459960938,797.3992919921875,789.7435913085938,784.5054931640625
811,790.952392578125,796.5933837890625,794.1758422851562,785.3113403320312
812,791.3552856445312,790.1465454101562,794.5787353515625,786.1171875
813,785.7142944335938,791.7582397460938,792.5640869140625,786.1171875
814,781.6849975585938,797.3992919921875,790.5494384765625,785.3113403320312
815,779.6703491210938,794.1758422851562,791.7582397460938,782.087890625
816,787.7289428710938,790.1465454101562,794.981689453125,788.1318969726562
817,792.967041015625,788.1318969726562,793.3699340820312,798.2051391601562
818,785.3113403320312,792.1611938476562,792.967041015625,789.7435913085938
819,784.1025390625,799.010986328125,799.4139404296875,791.3552856445312
820,788.5347900390625,797.3992919921875,792.967041015625,794.1758422851562
821,784.908447265625,791.3552856445312,785.3113403320312,792.967041015625
822,785.3113403320312,788.5347900390625,793.7728881835938,795.3846435546875
823,788.1318969726562,782.087890625,794.1758422851562,799.010986328125
824,784.5054931640625,783.6996459960938,791.3552856445312,803.040283203125
825,785.7142944335938,794.5787353515625,789.7435913085938,795.7875366210938
826,792.5640869140625,796.1904907226562,790.5494384765625,794.5787353515625
827,798.6080322265625,788.937744140625,793.7728881835938,799.4139404296875
828,802.2344360351562,783.6996459960938,787.7289428710938,801.8314819335938
829,800.6226806640625,790.5494384765625,788.1318969726562,805.8607788085938
830,799.8168334960938,801.025634765625,795.7875366210938,799.010986328125
831,801.4285888671875,801.025634765625,794.5787353515625,792.5640869140625
832,798.6080322265625,800.6226806640625,788.1318969726562,794.5787353515625
833,794.981689453125,796.996337890625,787.3259887695312,788.937744140625
834,789.7435913085938,795.7875366210938,791.7582397460938,779.2673950195312
835,791.3552856445312,798.6080322265625,795.3846435546875,786.1171875
836,788.5347900390625,797.3992919921875,793.7728881835938,790.1465454101562
837,784.908447265625,789.7435913085938,789.3406372070312,785.3113403320312
838,786.5201416015625,790.5494384765625,787.7289428710938,786.5201416015625
839,785.3113403320312,794.981689453125,788.937744140625,790.5494384765625
840,782.087890625,789.3406372070312,792.5640869140625,791.3552856445312
841,771.2088012695312,791.3552856445312,795.7875366210938,785.7142944335938
842,776.0439453125,797.8021850585938,795.3846435546875,790.5494384765625
843,780.0732421875,790.952392578125,792.967041015625,788.1318969726562
844,779.6703491210938,790.952392578125,794.1758422851562,781.6849975585938
845,784.1025390625,794.5787353515625,797.3992919921875,791.3552856445312
846,786.5201416015625,789.3406372070312,799.010986328125,795.7875366210938
847,792.1611938476562,792.5640869140625,794.981689453125,795.7875366210938
848,791.3552856445312,802.6373901367188,792.967041015625,791.3552856445312
849,790.1465454101562,800.6226806640625,793.7728881835938,786.1171875
850,790.1465454101562,795.3846435546875,794.1758422851562,790.5494384765625
851,787.7289428710938,797.8021850585938,794.1758422851562,799.8168334960938
852,790.1465454101562,799.8168334960938,793.7728881835938,806.2637329101562
853,793.3699340820312,799.8168334960938,796.996337890625,800.6226806640625
854,793.7728881835938,809.89013671875,796.1904907226562,793.7728881835938
855,792.967041015625,807.87548828125,793.3699340820312,794.5787353515625
856,792.1611938476562,800.6226806640625,796.5933837890625,791.3552856445312
857,792.1611938476562,798.6080322265625,794.5787353515625,792.967041015625
858,793.7728881835938,794.1758422851562,790.1465454101562,788.937744140625
859,795.3846435546875,796.1904907226562,791.7582397460938,790.5494384765625
860,796.5933837890625,794.1758422851562,795.7875366210938,801.4285888671875
861,794.1758422851562,790.952392578125,797.3992919921875,802.2344360351562
862,784.5054931640625,784.908447265625,791.3552856445312,801.8314819335938
863,786.923095703125,785.3113403320312,789.3406372070312,810.2930297851562
864,790.1465454101562,793.3699340820312,792.1611938476562,806.6666870117188
865,788.5347900390625,799.8168334960938,791.7582397460938,799.010986328125
866,788.1318969726562,794.1758422851562,792.5640869140625,799.010986328125
867,788.937744140625,788.937744140625,791.7582397460938,792.967041015625
868,784.1025390625,794.981689453125,788.5347900390625,783.6996459960938
869,783.2966918945312,799.010986328125,789.7435913085938,781.2820434570312
870,784.5054931640625,794.1758422851562,795.7875366210938,781.6849975585938
871,774.8351440429688,789.7435913085938,799.010986328125,783.6996459960938
872,768.7911987304688,789.7435913085938,795.3846435546875,778.4615478515625
873,773.6264038085938,789.3406372070312,795.7875366210938,777.2527465820312
874,778.4615478515625,783.6996459960938,796.1904907226562,786.5201416015625
875,778.05859375,779.6703491210938,795.3846435546875,782.4908447265625
876,774.029296875,782.4908447265625,795.7875366210938,777.6557006835938
877,774.4322509765625,787.7289428710938,792.5640869140625,787.3259887695312
878,783.2966918945312,789.3406372070312,794.981689453125,798.2051391601562
879,786.1171875,790.5494384765625,795.3846435546875,800.6226806640625
880,782.087890625,791.7582397460938,792.1611938476562,799.8168334960938
881,783.6996459960938,788.5347900390625,792.1611938476562,804.2490844726562
882,783.2966918945312,784.1025390625,790.5494384765625,799.8168334960938
883,778.8644409179688,784.908447265625,790.5494384765625,788.5347900390625
884,781.6849975585938,792.967041015625,787.7289428710938,791.3552856445312
885,782.4908447265625,786.1171875,787.7289428710938,800.2197875976562
886,782.087890625,782.893798828125,792.967041015625,798.6080322265625
887,786.1171875,791.7582397460938,793.7728881835938,796.996337890625
888,784.908447265625,792.5640869140625,790.1465454101562,795.3846435546875
889,782.893798828125,791.7582397460938,786.923095703125,794.981689453125
890,784.5054931640625,791.3552856445312,788.1318969726562,798.6080322265625
891,782.893798828125,794.1758422851562,789.3406372070312,786.923095703125
892,779.6703491210938,796.1904907226562,787.3259887695312,779.6703491210938
893,782.4908447265625,791.7582397460938,787.7289428710938,786.1171875
894,784.1025390625,788.937744140625,790.1465454101562,786.1171875
895,780.0732421875,793.3699340820312,791.7582397460938,776.0439453125
896,776.0439453125,794.981689453125,788.5347900390625,776.8497924804688
897,776.8497924804688,791.7582397460938,788.1318969726562,789.3406372070312
898,777.6557006835938,788.937744140625,794.1758422851562,787.3259887695312
899,777.6557006835938,790.952392578125,798.6080322265625,780.879150390625
900,779.2673950195312,789.7435913085938,796.996337890625,786.923095703125
901,780.4761962890625,785.3113403320312,792.1611938476562,796.1904907226562
902,779.6703491210938,794.981689453125,794.1758422851562,791.7582397460938
903,778.8644409179688,804.2490844726562,796.1904907226562,789.3406372070312
904,778.05859375,799.010986328125,791.3552856445312,792.967041015625
905,783.6996459960938,794.5787353515625,792.5640869140625,794.981689453125
906,788.937744140625,796.5933837890625,798.6080322265625,798.6080322265625
907,782.4908447265625,797.8021850585938,797.3992919921875,794.981689453125
908,783.2966918945312,794.5787353515625,792.967041015625,792.5640869140625
909,788.5347900390625,789.3406372070312,793.3699340820312,790.952392578125
910,784.5054931640625,783.6996459960938,794.981689453125,786.923095703125
911,779.6703491210938,782.893798828125,795.7875366210938,784.5054931640625
912,778.05859375,781.6849975585938,797.8021850585938,780.879150390625
913,781.6849975585938,787.7289428710938,796.1904907226562,788.937744140625
914,785.7142944335938,798.6080322265625,804.2490844726562,791.7582397460938
915,783.6996459960938,799.8168334960938,802.2344360351562,789.7435913085938
916,783.6996459960938,795.7875366210938,794.5787353515625,789.7435913085938
917,784.5054931640625,792.5640869140625,800.2197875976562,789.3406372070312
918,780.879150390625,793.7728881835938,802.6373901367188,789.3406372070312
919,778.8644409179688,794.981689453125,799.4139404296875,790.1465454101562
920,780.4761962890625,795.7875366210938,796.1904907226562,794.1758422851562
921,781.6849975585938,795.3846435546875,794.5787353515625,792.5640869140625
922,777.2527465820312,792.5640869140625,794.5787353515625,790.1465454101562
923,776.0439453125,787.7289428710938,794.1758422851562,794.1758422851562
924,783.6996459960938,783.6996459960938,790.952392578125,803.040283203125
925,782.087890625,791.3552856445312,791.3552856445312,804.6520385742188
926,778.8644409179688,798.2051391601562,791.3552856445312,794.5787353515625
927,789.3406372070312,796.1904907226562,791.3552856445312,794.1758422851562
928,789.7435913085938,796.996337890625,794.5787353515625,794.1758422851562
929,775.2380981445312,796.1904907226562,793.7728881835938,788.5347900390625
930,777.6557006835938,797.3992919921875,793.7728881835938,791.7582397460938
931,788.1318969726562,797.3992919921875,799.010986328125,795.3846435546875
932,787.3259887695312,795.3846435546875,801.4285888671875,795.7875366210938
933,788.1318969726562,790.952392578125,801.8314819335938,797.3992919921875
934,793.3699340820312,790.952392578125,798.2051391601562,795.7875366210938
935,791.3552856445312,793.7728881835938,793.7728881835938,793.7728881835938
936,786.1171875,792.5640869140625,792.1611938476562,786.1171875
937,782.4908447265625,791.7582397460938,794.1758422851562,783.2966918945312
938,784.1025390625,786.5201416015625,794.1758422851562,790.5494384765625
939,792.5640869140625,784.1025390625,792.1611938476562,793.7728881835938
940,793.3699340820312,791.7582397460938,796.5933837890625,793.7728881835938
941,788.1318969726562,796.5933837890625,796.5933837890625,790.952392578125
942,782.893798828125,793.7728881835938,793.3699340820312,788.5347900390625
943,785.7142944335938,791.3552856445312,793.3699340820312,793.7728881835938
944,786.1171875,788.5347900390625,792.1611938476562,793.3699340820312
945,778.8644409179688,794.1758422851562,790.5494384765625,781.6849975585938
946,778.4615478515625,798.2051391601562,794.1758422851562,783.2966918945312
947,781.6849975585938,790.952392578125,797.3992919921875,794.1758422851562
948,778.05859375,792.5640869140625,798.6080322265625,792.967041015625
949,776.0439453125,794.981689453125,795.3846435546875,786.5201416015625
950,783.2966918945312,793.7728881835938,794.5787353515625,788.937744140625
951,787.7289428710938,796.1904907226562,794.5787353515625,792.1611938476562
952,791.7582397460938,792.5640869140625,791.3552856445312,790.5494384765625
953,786.923095703125,793.3699340820312,790.5494384765625,790.952392578125
954,788.5347900390625,800.2197875976562,792.1611938476562,797.3992919921875
955,797.3992919921875,797.8021850585938,795.7875366210938,801.025634765625
956,786.1171875,790.5494384765625,792.967041015625,789.7435913085938
957,782.4908447265625,788.1318969726562,789.3406372070312,788.5347900390625
958,786.5201416015625,785.3113403320312,789.7435913085938,796.996337890625
959,790.5494384765625,783.6996459960938,790.952392578125,798.6080322265625
960,790.952392578125,792.967041015625,788.1318969726562,792.1611938476562
961,790.1465454101562,797.8021850585938,790.5494384765625,794.5787353515625
962,792.967041015625,792.967041015625,794.5787353515625,800.2197875976562
963,792.967041015625,792.1611938476562,790.1465454101562,799.4139404296875
964,794.1758422851562,797.3992919921875,791.7582397460938,796.996337890625
965,792.1611938476562,791.3552856445312,796.5933837890625,798.2051391601562
966,790.5494384765625,789.7435913085938,793.3699340820312,799.8168334960938
967,787.7289428710938,794.5787353515625,790.952392578125,794.1758422851562
968,784.908447265625,793.7728881835938,787.3259887695312,787.7289428710938
969,782.893798828125,793.3699340820312,789.7435913085938,788.5347900390625
970,784.908447265625,793.7728881835938,793.7728881835938,801.8314819335938
971,785.3113403320312,792.967041015625,794.1758422851562,804.6520385742188
972,784.5054931640625,793.3699340820312,796.5933837890625,798.6080322265625
973,782.087890625,794.1758422851562,796.5933837890625,794.981689453125
974,781.2820434570312,789.3406372070312,791.3552856445312,795.3846435546875
975,785.7142944335938,786.923095703125,788.1318969726562,789.3406372070312
976,788.937744140625,789.7435913085938,786.5201416015625,787.3259887695312
977,788.1318969726562,791.7582397460938,787.7289428710938,794.1758422851562
978,789.7435913085938,792.1611938476562,792.1611938476562,794.5787353515625
979,792.1611938476562,797.3992919921875,796.1904907226562,796.1904907226562
980,792.1611938476562,793.3699340820312,797.3992919921875,799.4139404296875
981,790.5494384765625,788.937744140625,792.5640869140625,792.967041015625
982,789.3406372070312,788.1318969726562,791.7582397460938,793.3699340820312
983,790.952392578125,788.1318969726562,796.996337890625,796.996337890625
984,794.1758422851562,791.3552856445312,799.010986328125,789.3406372070312
985,799.8168334960938,787.7289428710938,799.8168334960938,790.5494384765625
986,802.6373901367188,786.923095703125,801.8314819335938,802.6373901367188
987,794.981689453125,793.3699340820312,797.8021850585938,798.6080322265625
988,793.7728881835938,793.7728881835938,795.3846435546875,797.8021850585938
989,791.3552856445312,794.5787353515625,795.7875366210938,798.2051391601562
990,784.1025390625,797.8021850585938,795.7875366210938,792.5640869140625
991,786.923095703125,792.967041015625,796.1904907226562,791.3552856445312
992,790.1465454101562,790.952392578125,796.1904907226562,794.1758422851562
993,790.1465454101562,794.981689453125,794.1758422851562,801.4285888671875
994,790.5494384765625,793.7728881835938,795.3846435546875,801.025634765625
995,794.981689453125,791.7582397460938,799.010986328125,796.1904907226562
996,796.1904907226562,794.1758422851562,795.7875366210938,793.7728881835938
997,794.5787353515625,789.7435913085938,792.5640869140625,801.025634765625
998,788.1318969726562,793.3699340820312,790.5494384765625,804.2490844726562
999,782.087890625,793.7728881835938,790.5494384765625,796.1904907226562
1000,790.1465454101562,786.5201416015625,793.7728881835938,791.3552856445312
1001,792.5640869140625,794.5787353515625,796.996337890625,793.7728881835938
1002,780.0732421875,801.4285888671875,799.010986328125,792.5640869140625
1003,776.4468994140625,794.1758422851562,796.1904907226562,787.3259887695312
1004,780.0732421875,793.3699340820312,797.8021850585938,786.1171875
1005,779.6703491210938,796.5933837890625,797.3992919921875,783.2966918945312
1006,783.2966918945312,796.996337890625,800.6226806640625,783.6996459960938
1007,789.7435913085938,795.7875366210938,805.4578857421875,784.908447265625
1008,789.3406372070312,796.5933837890625,803.4432373046875,786.5201416015625
1009,789.3406372070312,801.025634765625,807.069580078125,799.4139404296875
1010,791.7582397460938,804.6520385742188,807.069580078125,802.6373901367188
1011,794.5787353515625,801.8314819335938,799.010986328125,793.3699340820312
1012,789.3406372070312,796.996337890625,789.7435913085938,789.3406372070312
1013,786.923095703125,792.967041015625,789.7435913085938,788.1318969726562
1014,792.1611938476562,791.7582397460938,793.7728881835938,789.3406372070312
1015,788.5347900390625,796.1904907226562,797.3992919921875,794.5787353515625
1016,785.3113403320312,792.5640869140625,801.8314819335938,795.7875366210938
1017,783.6996459960938,788.937744140625,794.981689453125,792.5640869140625
1018,783.2966918945312,798.6080322265625,790.1465454101562,795.3846435546875
1019,788.937744140625,799.8168334960938,798.2051391601562,798.6080322265625
1020,792.967041015625,796.1904907226562,796.5933837890625,801.4285888671875
1021,793.7728881835938,799.4139404296875,799.010986328125,799.8168334960938
1022,790.1465454101562,798.2051391601562,802.2344360351562,791.3552856445312
1023,784.908447265625,793.3699340820312,797.3992919921875,790.952392578125
1024,784.1025390625,791.3552856445312,796.5933837890625,791.3552856445312
1025,782.4908447265625,791.7582397460938,796.996337890625,787.7289428710938
1026,782.087890625,790.1465454101562,795.3846435546875,788.5347900390625
1027,786.1171875,789.3406372070312,796.996337890625,791.7582397460938
1028,783.6996459960938,786.923095703125,795.7875366210938,792.967041015625
1029,776.8497924804688,781.6849975585938,793.3699340820312,791.3552856445312
1030,782.087890625,784.5054931640625,796.996337890625,789.3406372070312
1031,786.923095703125,790.1465454101562,795.3846435546875,792.967041015625
1032,784.908447265625,789.7435913085938,791.7582397460938,796.1904907226562
1033,778.4615478515625,794.5787353515625,793.7728881835938,788.937744140625
1034,774.029296875,791.7582397460938,795.3846435546875,787.3259887695312
1035,771.6116943359375,788.1318969726562,793.7728881835938,785.3113403320312
1036,770.4029541015625,791.7582397460938,792.967041015625,782.893798828125
1037,772.4176025390625,795.3846435546875,796.996337890625,786.1171875
1038,780.0732421875,796.5933837890625,794.1758422851562,786.5201416015625
1039,785.3113403320312,796.5933837890625,791.3552856445312,794.5787353515625
1040,781.2820434570312,794.981689453125,788.937744140625,793.3699340820312
1041,780.0732421875,794.5787353515625,790.952392578125,786.923095703125
1042,787.3259887695312,791.7582397460938,794.981689453125,792.1611938476562
1043,790.5494384765625,786.923095703125,791.3552856445312,798.6080322265625
1044,782.087890625,788.937744140625,792.967041015625,797.8021850585938
1045,777.6557006835938,795.3846435546875,790.952392578125,790.952392578125
1046,779.2673950195312,796.1904907226562,791.3552856445312,794.1758422851562
1047,780.4761962890625,793.7728881835938,794.981689453125,792.1611938476562
1048,782.087890625,793.7728881835938,791.7582397460938,790.952392578125
1049,784.1025390625,797.3992919921875,787.3259887695312,790.5494384765625
1050,783.6996459960938,800.2197875976562,791.3552856445312,788.5347900390625
1051,785.3113403320312,796.5933837890625,794.1758422851562,788.1318969726562
1052,781.6849975585938,794.5787353515625,787.3259887695312,787.3259887695312
1053,782.893798828125,793.7728881835938,790.1465454101562,789.7435913085938
1054,782.893798828125,785.3113403320312,792.5640869140625,785.3113403320312
1055,776.4468994140625,787.7289428710938,789.3406372070312,791.3552856445312
1056,773.2234497070312,797.3992919921875,786.5201416015625,788.937744140625
1057,777.2527465820312,796.5933837890625,787.3259887695312,782.893798828125
1058,787.3259887695312,800.2197875976562,793.7728881835938,790.5494384765625
1059,787.3259887695312,796.1904907226562,792.1611938476562,789.3406372070312
1060,783.2966918945312,792.5640869140625,790.5494384765625,784.908447265625
1061,784.1025390625,797.3992919921875,788.1318969726562,789.3406372070312
1062,783.2966918945312,794.5787353515625,788.1318969726562,792.967041015625
1063,784.5054931640625,793.7728881835938,792.5640869140625,789.7435913085938
1064,785.3113403320312,793.3699340820312,790.952392578125,787.7289428710938
1065,782.087890625,790.952392578125,788.937744140625,786.5201416015625
1066,782.4908447265625,792.1611938476562,789.7435913085938,788.937744140625
1067,784.5054931640625,785.3113403320312,792.1611938476562,787.3259887695312
1068,787.7289428710938,780.4761962890625,792.5640869140625,786.5201416015625
1069,791.3552856445312,791.3552856445312,790.952392578125,786.923095703125
1070,790.5494384765625,792.1611938476562,790.5494384765625,788.937744140625
1071,791.3552856445312,794.5787353515625,795.3846435546875,794.1758422851562
1072,796.1904907226562,794.1758422851562,800.2197875976562,794.981689453125
1073,796.1904907226562,789.3406372070312,794.981689453125,792.967041015625
1074,791.7582397460938,790.1465454101562,792.967041015625,790.952392578125
1075,783.6996459960938,785.3113403320312,796.1904907226562,790.1465454101562
1076,780.879150390625,786.923095703125,796.996337890625,790.952392578125
1077,786.5201416015625,791.7582397460938,796.1904907226562,794.981689453125
1078,785.3113403320312,792.1611938476562,796.5933837890625,793.7728881835938
1079,783.6996459960938,793.7728881835938,798.2051391601562,790.952392578125
1080,781.2820434570312,798.2051391601562,796.5933837890625,790.952392578125
1081,782.087890625,801.025634765625,795.3846435546875,790.952392578125
1082,786.1171875,796.5933837890625,796.1904907226562,799.010986328125
1083,783.6996459960938,796.5933837890625,794.1758422851562,794.981689453125
1084,782.4908447265625,799.4139404296875,796.5933837890625,792.967041015625
1085,780.879150390625,796.1904907226562,804.2490844726562,795.3846435546875
1086,777.2527465820312,790.1465454101562,799.8168334960938,788.1318969726562
1087,782.893798828125,788.937744140625,792.1611938476562,790.952392578125
1088,784.1025390625,790.952392578125,796.5933837890625,798.2051391601562
1089,784.1025390625,793.3699340820312,793.3699340820312,801.8314819335938
1090,786.5201416015625,792.1611938476562,789.3406372070312,799.8168334960938
1091,787.3259887695312,796.1904907226562,797.3992919921875,796.1904907226562
1092,791.3552856445312,801.4285888671875,798.2051391601562,797.8021850585938
1093,794.981689453125,794.1758422851562,792.1611938476562,805.4578857421875
1094,790.1465454101562,795.7875366210938,790.952392578125,805.054931640625
1095,788.5347900390625,801.4285888671875,789.7435913085938,798.2051391601562
1096,797.8021850585938,800.6226806640625,790.1465454101562,803.040283203125
1097,801.4285888671875,801.8314819335938,789.7435913085938,801.8314819335938
1098,793.3699340820312,801.8314819335938,790.5494384765625,796.5933837890625
1099,784.1025390625,797.3992919921875,790.1465454101562,799.8168334960938
1100,783.6996459960938,794.981689453125,786.923095703125,798.2051391601562
1101,786.1171875,791.3552856445312,784.5054931640625,795.7875366210938
1102,788.5347900390625,789.3406372070312,786.1171875,796.1904907226562
1103,792.967041015625,789.3406372070312,788.5347900390625,792.5640869140625
1104,789.3406372070312,786.923095703125,786.5201416015625,788.5347900390625
1105,784.5054931640625,788.937744140625,784.908447265625,788.1318969726562
1106,785.3113403320312,780.0732421875,782.4908447265625,784.1025390625
1107,778.8644409179688,773.6264038085938,779.2673950195312,779.6703491210938
1108,774.029296875,782.893798828125,780.879150390625,778.8644409179688
1109,780.879150390625,790.1465454101562,783.2966918945312,781.2820434570312
1110,777.2527465820312,790.5494384765625,786.1171875,780.4761962890625
1111,772.8204956054688,789.7435913085938,791.3552856445312,782.4908447265625
1112,780.879150390625,789.3406372070312,797.3992919921875,792.1611938476562
1113,786.1171875,787.7289428710938,799.010986328125,793.7728881835938
1114,788.5347900390625,787.7289428710938,789.7435913085938,780.4761962890625
1115,791.7582397460938,788.5347900390625,786.5201416015625,782.4908447265625
1116,792.967041015625,790.1465454101562,791.7582397460938,796.1904907226562
1117,791.7582397460938,792.1611938476562,788.937744140625,796.5933837890625
1118,788.5347900390625,786.923095703125,787.7289428710938,791.7582397460938
1119,787.3259887695312,786.5201416015625,792.5640869140625,794.5787353515625
1120,786.923095703125,790.952392578125,791.3552856445312,793.3699340820312
1121,784.5054931640625,791.3552856445312,784.5054931640625,788.1318969726562
1122,776.0439453125,790.5494384765625,790.5494384765625,784.1025390625
1123,775.2380981445312,791.3552856445312,797.3992919921875,790.5494384765625
1124,782.087890625,786.1171875,796.5933837890625,793.3699340820312
1125,789.7435913085938,789.7435913085938,797.3992919921875,793.7728881835938
1126,792.967041015625,799.4139404296875,796.5933837890625,800.6226806640625
1127,793.7728881835938,801.025634765625,794.5787353515625,802.6373901367188
1128,796.1904907226562,798.2051391601562,799.010986328125,805.054931640625
1129,794.5787353515625,793.7728881835938,799.4139404296875,801.025634765625
1130,794.1758422851562,792.1611938476562,795.3846435546875,801.4285888671875
1131,793.3699340820312,790.1465454101562,793.7728881835938,802.2344360351562
1132,792.5640869140625,787.3259887695312,792.5640869140625,795.7875366210938
1133,793.3699340820312,791.7582397460938,790.952392578125,794.981689453125
1134,796.1904907226562,787.7289428710938,792.5640869140625,805.8607788085938
1135,800.2197875976562,787.7289428710938,798.2051391601562,810.6959838867188
1136,794.5787353515625,796.1904907226562,790.952392578125,801.8314819335938
1137,785.3113403320312,797.8021850585938,784.1025390625,793.3699340820312
1138,782.893798828125,787.3259887695312,790.1465454101562,792.5640869140625
1139,784.5054931640625,782.087890625,794.1758422851562,791.7582397460938
1140,787.7289428710938,788.5347900390625,786.923095703125,786.923095703125
1141,787.7289428710938,790.5494384765625,785.7142944335938,792.5640869140625
1142,783.6996459960938,790.952392578125,792.1611938476562,793.3699340820312
1143,786.1171875,794.1758422851562,795.3846435546875,789.3406372070312
1144,787.7289428710938,790.5494384765625,792.5640869140625,786.1171875
1145,785.3113403320312,784.1025390625,788.937744140625,780.879150390625
1146,787.7289428710938,782.893798828125,787.7289428710938,780.879150390625
1147,793.7728881835938,784.5054931640625,790.5494384765625,798.2051391601562
1148,790.952392578125,796.1904907226562,799.4139404296875,801.025634765625
1149,791.7582397460938,802.6373901367188,799.8168334960938,797.3992919921875
1150,799.8168334960938,802.2344360351562,796.5933837890625,806.2637329101562
1151,800.2197875976562,799.8168334960938,792.1611938476562,801.4285888671875
1152,798.6080322265625,796.996337890625,790.5494384765625,796.996337890625
1153,794.5787353515625,800.2197875976562,792.967041015625,794.981689453125
1154,793.3699340820312,801.8314819335938,793.7728881835938,796.5933837890625
1155,794.981689453125,798.2051391601562,794.5787353515625,809.4871826171875
1156,794.981689453125,798.2051391601562,799.4139404296875,803.8461303710938
1157,791.7582397460938,795.7875366210938,797.8021850585938,796.5933837890625
1158,789.3406372070312,795.3846435546875,795.3846435546875,799.010986328125
1159,789.3406372070312,795.3846435546875,797.3992919921875,799.010986328125
1160,791.7582397460938,792.1611938476562,792.1611938476562,790.952392578125
1161,787.7289428710938,788.5347900390625,793.3699340820312,787.3259887695312
1162,781.2820434570312,789.7435913085938,795.7875366210938,788.5347900390625
1163,784.1025390625,797.8021850585938,795.3846435546875,789.3406372070312
1164,786.923095703125,800.2197875976562,794.5787353515625,790.1465454101562
1165,786.1171875,789.7435913085938,794.981689453125,783.2966918945312
1166,786.1171875,786.923095703125,796.996337890625,787.3259887695312
1167,781.6849975585938,792.967041015625,794.981689453125,782.087890625
1168,781.6849975585938,794.5787353515625,796.5933837890625,777.6557006835938
1169,781.6849975585938,790.952392578125,800.2197875976562,780.879150390625
1170,777.6557006835938,791.7582397460938,800.6226806640625,780.0732421875
1171,779.2673950195312,795.7875366210938,800.6226806640625,784.908447265625
1172,783.6996459960938,789.3406372070312,796.5933837890625,792.1611938476562
1173,783.6996459960938,787.3259887695312,792.1611938476562,793.3699340820312
1174,778.05859375,792.967041015625,790.952392578125,794.1758422851562
1175,779.6703491210938,792.967041015625,790.5494384765625,800.2197875976562
1176,782.4908447265625,793.3699340820312,795.7875366210938,796.5933837890625
1177,782.4908447265625,790.5494384765625,794.981689453125,795.3846435546875
1178,784.1025390625,786.5201416015625,793.7728881835938,801.8314819335938
1179,782.893798828125,792.1611938476562,794.981689453125,797.3992919921875
1180,784.5054931640625,791.7582397460938,790.5494384765625,788.5347900390625
1181,786.923095703125,786.923095703125,789.3406372070312,788.1318969726562
1182,782.4908447265625,792.1611938476562,790.5494384765625,790.5494384765625
1183,786.1171875,787.7289428710938,795.3846435546875,790.952392578125
1184,788.1318969726562,779.2673950195312,793.3699340820312,788.1318969726562
1185,785.3113403320312,789.3406372070312,792.5640869140625,786.1171875
1186,785.7142944335938,798.6080322265625,794.5787353515625,790.952392578125
1187,788.1318969726562,795.3846435546875,792.967041015625,788.1318969726562
1188,790.952392578125,788.5347900390625,796.5933837890625,788.1318969726562
1189,791.7582397460938,790.1465454101562,796.1904907226562,800.6226806640625
1190,784.1025390625,797.3992919921875,792.967041015625,795.7875366210938
1191,782.087890625,795.3846435546875,792.1611938476562,785.3113403320312
1192,786.923095703125,795.7875366210938,789.3406372070312,795.3846435546875
1193,783.2966918945312,796.5933837890625,786.923095703125,791.3552856445312
1194,783.6996459960938,788.937744140625,790.5494384765625,789.3406372070312
1195,788.937744140625,789.7435913085938,792.5640869140625,793.7728881835938
1196,793.7728881835938,799.4139404296875,794.981689453125,801.8314819335938
1197,794.1758422851562,803.040283203125,795.7875366210938,809.89013671875
1198,788.937744140625,794.5787353515625,789.3406372070312,795.7875366210938
1199,782.4908447265625,784.908447265625,790.952392578125,786.1171875
1200,785.3113403320312,791.3552856445312,795.7875366210938,785.3113403320312
1201,788.937744140625,794.981689453125,793.3699340820312,788.5347900390625
1202,780.4761962890625,794.981689453125,792.967041015625,783.6996459960938
1203,782.4908447265625,799.4139404296875,793.7728881835938,780.4761962890625
1204,786.1171875,797.8021850585938,796.5933837890625,784.908447265625
1205,788.937744140625,801.025634765625,802.6373901367188,789.3406372070312
1206,791.3552856445312,798.2051391601562,798.2051391601562,790.5494384765625
1207,791.3552856445312,790.952392578125,794.5787353515625,791.3552856445312
1208,787.7289428710938,798.2051391601562,794.981689453125,793.7728881835938
1209,783.6996459960938,801.025634765625,796.1904907226562,791.3552856445312
1210,786.923095703125,787.3259887695312,800.2197875976562,792.1611938476562
1211,784.5054931640625,783.2966918945312,796.996337890625,792.967041015625
1212,784.5054931640625,795.3846435546875,793.3699340820312,799.010986328125
1213,790.952392578125,796.5933837890625,799.4139404296875,799.4139404296875
1214,790.5494384765625,791.3552856445312,804.6520385742188,793.7728881835938
1215,787.3259887695312,789.7435913085938,803.8461303710938,790.5494384765625
1216,788.937744140625,789.3406372070312,802.2344360351562,792.5640869140625
1217,781.2820434570312,790.5494384765625,799.8168334960938,799.4139404296875
1218,777.6557006835938,792.967041015625,798.6080322265625,802.6373901367188
1219,785.3113403320312,792.5640869140625,795.7875366210938,807.4725341796875
1220,782.893798828125,790.952392578125,792.1611938476562,800.6226806640625
1221,779.2673950195312,786.5201416015625,792.1611938476562,794.5787353515625
1222,781.2820434570312,789.3406372070312,790.1465454101562,793.7728881835938
1223,782.893798828125,792.1611938476562,787.3259887695312,792.5640869140625
1224,784.1025390625,788.1318969726562,794.5787353515625,800.2197875976562
1225,786.923095703125,789.7435913085938,803.040283203125,798.6080322265625
1226,784.5054931640625,798.2051391601562,798.2051391601562,797.8021850585938
1227,777.2527465820312,799.010986328125,797.3992919921875,800.2197875976562
1228,778.4615478515625,794.981689453125,799.010986328125,799.8168334960938
1229,779.6703491210938,799.4139404296875,794.1758422851562,799.4139404296875
1230,779.2673950195312,801.025634765625,792.1611938476562,799.4139404296875
1231,788.1318969726562,798.6080322265625,796.996337890625,802.2344360351562
1232,790.952392578125,798.2051391601562,799.010986328125,801.025634765625
1233,787.7289428710938,795.7875366210938,792.1611938476562,793.7728881835938
1234,782.4908447265625,790.952392578125,790.952392578125,785.3113403320312
1235,776.8497924804688,793.3699340820312,791.7582397460938,789.7435913085938
1236,777.6557006835938,794.1758422851562,791.3552856445312,794.1758422851562
1237,788.5347900390625,788.937744140625,793.7728881835938,786.5201416015625
1238,805.4578857421875,788.937744140625,791.7582397460938,790.952392578125
1239,803.040283203125,792.967041015625,788.1318969726562,793.7728881835938
1240,787.3259887695312,794.5787353515625,786.923095703125,776.0439453125
1241,788.1318969726562,797.8021850585938,789.7435913085938,781.2820434570312
1242,796.1904907226562,795.3846435546875,794.981689453125,790.952392578125
1243,802.2344360351562,798.2051391601562,794.981689453125,794.5787353515625
1244,802.6373901367188,803.8461303710938,792.5640869140625,796.996337890625
1245,794.981689453125,801.025634765625,792.1611938476562,785.3113403320312
1246,786.5201416015625,796.996337890625,792.1611938476562,785.7142944335938
1247,788.1318969726562,793.7728881835938,792.5640869140625,797.3992919921875
1248,798.2051391601562,790.5494384765625,793.3699340820312,799.8168334960938
1249,795.7875366210938,787.3259887695312,792.5640869140625,794.1758422851562
1250,790.1465454101562,786.5201416015625,788.1318969726562,795.7875366210938
1251,788.1318969726562,791.3552856445312,789.7435913085938,801.4285888671875
1252,783.6996459960938,800.6226806640625,797.3992919921875,792.967041015625
1253,787.3259887695312,799.010986328125,796.5933837890625,795.3846435546875
1254,789.7435913085938,796.996337890625,788.5347900390625,795.3846435546875
1255,786.1171875,798.6080322265625,788.937744140625,788.937744140625
1256,786.923095703125,791.7582397460938,790.952392578125,783.6996459960938
1257,782.4908447265625,793.3699340820312,788.1318969726562,785.7142944335938
1258,782.4908447265625,793.3699340820312,785.7142944335938,788.937744140625
1259,789.3406372070312,792.5640869140625,790.952392578125,788.937744140625
1260,789.3406372070312,797.3992919921875,795.7875366210938,786.1171875
1261,790.5494384765625,796.5933837890625,788.5347900390625,787.3259887695312
1262,794.5787353515625,791.3552856445312,783.6996459960938,797.3992919921875
1263,788.1318969726562,793.3699340820312,786.923095703125,799.8168334960938
1264,782.087890625,797.3992919921875,788.937744140625,798.2051391601562
1265,784.908447265625,794.1758422851562,794.981689453125,799.010986328125
1266,786.923095703125,786.1171875,796.5933837890625,803.8461303710938
1267,787.7289428710938,788.937744140625,794.5787353515625,798.2051391601562
1268,789.7435913085938,792.5640869140625,796.5933837890625,790.1465454101562
1269,789.7435913085938,790.5494384765625,792.967041015625,790.1465454101562
1270,790.952392578125,795.3846435546875,792.5640869140625,796.1904907226562
1271,792.5640869140625,797.8021850585938,793.7728881835938,797.3992919921875
1272,788.5347900390625,792.967041015625,786.5201416015625,792.5640869140625
1273,794.981689453125,787.3259887695312,788.1318969726562,795.7875366210938
1274,792.967041015625,787.3259887695312,794.5787353515625,802.6373901367188
1275,774.8351440429688,786.923095703125,792.967041015625,792.5640869140625
1276,778.05859375,789.3406372070312,792.967041015625,788.1318969726562
1277,784.5054931640625,790.5494384765625,793.3699340820312,791.7582397460938
1278,787.3259887695312,793.7728881835938,794.981689453125,791.3552856445312
1279,789.3406372070312,799.010986328125,799.010986328125,793.7728881835938
1280,788.5347900390625,796.996337890625,796.5933837890625,795.7875366210938
1281,789.7435913085938,795.3846435546875,789.7435913085938,796.5933837890625
1282,787.7289428710938,788.937744140625,784.1025390625,792.1611938476562
1283,784.908447265625,783.2966918945312,782.893798828125,788.937744140625
1284,786.1171875,784.5054931640625,784.5054931640625,789.3406372070312
1285,790.1465454101562,786.5201416015625,787.3259887695312,799.010986328125
1286,790.952392578125,791.7582397460938,785.3113403320312,796.996337890625
1287,790.952392578125,794.5787353515625,785.3113403320312,793.7728881835938
1288,791.3552856445312,791.7582397460938,792.1611938476562,802.6373901367188
1289,788.1318969726562,788.5347900390625,792.1611938476562,801.8314819335938
1290,788.5347900390625,792.967041015625,785.7142944335938,801.025634765625
1291,790.1465454101562,798.2051391601562,790.5494384765625,798.6080322265625
1292,790.952392578125,793.3699340820312,792.967041015625,793.3699340820312
1293,792.967041015625,790.1465454101562,793.3699340820312,795.3846435546875
1294,793.7728881835938,794.5787353515625,792.1611938476562,794.5787353515625
1295,797.3992919921875,797.8021850585938,788.937744140625,794.1758422851562
1296,799.4139404296875,794.981689453125,788.937744140625,802.2344360351562
1297,799.4139404296875,793.7728881835938,790.1465454101562,807.4725341796875
1298,796.996337890625,794.1758422851562,791.7582397460938,799.8168334960938
1299,794.1758422851562,793.7728881835938,788.937744140625,795.3846435546875
1300,793.3699340820312,794.981689453125,790.5494384765625,798.6080322265625
1301,788.937744140625,801.4285888671875,796.5933837890625,804.2490844726562
1302,786.923095703125,799.010986328125,797.3992919921875,803.8461303710938
1303,788.5347900390625,792.1611938476562,794.981689453125,805.4578857421875
1304,789.7435913085938,794.5787353515625,792.1611938476562,803.4432373046875
1305,790.1465454101562,793.7728881835938,794.5787353515625,796.1904907226562
1306,789.3406372070312,793.3699340820312,797.8021850585938,795.7875366210938
1307,788.937744140625,794.5787353515625,797.3992919921875,797.3992919921875
1308,786.5201416015625,790.1465454101562,796.1904907226562,792.1611938476562
1309,786.923095703125,792.967041015625,797.8021850585938,791.7582397460938
1310,784.908447265625,794.981689453125,801.8314819335938,795.7875366210938
1311,782.087890625,793.7728881835938,799.010986328125,799.010986328125
1312,785.3113403320312,795.3846435546875,799.8168334960938,798.6080322265625
1313,790.5494384765625,794.5787353515625,801.025634765625,794.5787353515625
1314,788.937744140625,790.952392578125,794.5787353515625,793.7728881835938
1315,785.3113403320312,788.1318969726562,793.7728881835938,796.996337890625
1316,788.937744140625,789.3406372070312,790.5494384765625,807.87548828125
1317,791.7582397460938,797.3992919921875,787.3259887695312,807.4725341796875
1318,788.937744140625,799.4139404296875,794.1758422851562,794.1758422851562
1319,791.7582397460938,793.7728881835938,793.3699340820312,792.967041015625
1320,792.1611938476562,799.010986328125,792.5640869140625,801.025634765625
1321,786.923095703125,801.025634765625,790.5494384765625,794.1758422851562
1322,791.7582397460938,792.967041015625,787.7289428710938,790.952392578125
1323,794.981689453125,793.3699340820312,792.1611938476562,794.5787353515625
1324,788.937744140625,794.1758422851562,792.967041015625,790.1465454101562
1325,789.3406372070312,791.3552856445312,792.967041015625,786.1171875
1326,793.7728881835938,794.5787353515625,794.5787353515625,793.3699340820312
1327,789.3406372070312,792.5640869140625,794.981689453125,794.981689453125
1328,790.1465454101562,791.7582397460938,791.3552856445312,792.1611938476562
1329,793.7728881835938,793.7728881835938,792.5640869140625,795.7875366210938
1330,788.937744140625,790.5494384765625,797.8021850585938,798.6080322265625
1331,788.937744140625,790.952392578125,796.996337890625,807.069580078125
1332,798.2051391601562,790.952392578125,796.5933837890625,806.2637329101562
1333,795.3846435546875,795.7875366210938,794.1758422851562,792.5640869140625
1334,782.893798828125,793.7728881835938,789.3406372070312,780.879150390625
1335,776.8497924804688,784.908447265625,784.1025390625,772.8204956054688
1336,779.2673950195312,782.087890625,786.1171875,777.2527465820312
1337,787.7289428710938,787.7289428710938,792.967041015625,785.3113403320312
1338,791.3552856445312,796.1904907226562,796.5933837890625,792.1611938476562
1339,790.952392578125,793.3699340820312,801.025634765625,791.7582397460938
1340,792.1611938476562,790.5494384765625,796.5933837890625,785.7142944335938
1341,799.010986328125,794.5787353515625,796.996337890625,792.5640869140625
1342,794.1758422851562,792.5640869140625,803.8461303710938,792.967041015625
1343,796.5933837890625,786.1171875,799.4139404296875,792.1611938476562
1344,802.2344360351562,790.5494384765625,800.6226806640625,795.3846435546875
1345,795.3846435546875,790.1465454101562,801.8314819335938,795.3846435546875
1346,793.3699340820312,791.3552856445312,796.996337890625,802.2344360351562
1347,795.3846435546875,793.7728881835938,797.3992919921875,806.2637329101562
1348,786.923095703125,790.5494384765625,797.3992919921875,801.025634765625
1349,780.879150390625,789.3406372070312,794.1758422851562,796.996337890625
1350,778.05859375,783.6996459960938,792.5640869140625,794.1758422851562
1351,774.8351440429688,783.6996459960938,797.3992919921875,793.7728881835938
1352,781.2820434570312,790.1465454101562,798.2051391601562,792.1611938476562
1353,784.908447265625,795.3846435546875,796.5933837890625,794.1758422851562
1354,780.0732421875,789.7435913085938,796.996337890625,792.5640869140625
1355,776.0439453125,787.3259887695312,791.3552856445312,788.937744140625
1356,776.8497924804688,795.3846435546875,792.967041015625,797.8021850585938
1357,778.4615478515625,793.7728881835938,790.952392578125,796.1904907226562
1358,778.05859375,792.1611938476562,786.923095703125,790.5494384765625
1359,775.6410522460938,796.1904907226562,792.967041015625,788.937744140625
1360,780.0732421875,796.5933837890625,792.967041015625,788.1318969726562
1361,785.7142944335938,794.1758422851562,787.7289428710938,788.937744140625
1362,786.5201416015625,799.4139404296875,785.3113403320312,787.7289428710938
1363,790.5494384765625,800.6226806640625,788.937744140625,782.893798828125
1364,790.1465454101562,794.1758422851562,792.967041015625,780.4761962890625
1365,793.7728881835938,793.7728881835938,791.3552856445312,787.3259887695312
1366,794.981689453125,796.1904907226562,793.3699340820312,789.3406372070312
1367,790.1465454101562,799.4139404296875,794.5787353515625,785.7142944335938
1368,789.7435913085938,791.7582397460938,787.3259887695312,783.2966918945312
1369,783.2966918945312,781.2820434570312,784.908447265625,784.1025390625
1370,782.893798828125,790.952392578125,794.1758422851562,791.7582397460938
1371,781.6849975585938,798.6080322265625,799.010986328125,786.5201416015625
1372,780.0732421875,792.1611938476562,797.8021850585938,779.6703491210938
1373,785.7142944335938,788.937744140625,796.5933837890625,784.1025390625
1374,786.5201416015625,797.8021850585938,797.3992919921875,788.5347900390625
1375,786.5201416015625,803.4432373046875,796.1904907226562,792.967041015625
1376,790.5494384765625,796.996337890625,795.3846435546875,797.8021850585938
1377,790.5494384765625,793.3699340820312,795.3846435546875,801.4285888671875
1378,790.5494384765625,793.7728881835938,796.996337890625,805.054931640625
1379,794.5787353515625,797.3992919921875,799.8168334960938,804.6520385742188
1380,794.981689453125,796.996337890625,799.4139404296875,801.025634765625
1381,790.1465454101562,789.3406372070312,798.2051391601562,798.6080322265625
1382,790.952392578125,794.5787353515625,796.5933837890625,795.3846435546875
1383,794.1758422851562,802.6373901367188,795.7875366210938,796.5933837890625
1384,789.7435913085938,796.5933837890625,791.3552856445312,794.981689453125
1385,789.3406372070312,794.1758422851562,786.1171875,786.923095703125
1386,790.1465454101562,796.996337890625,789.3406372070312,784.5054931640625
1387,790.952392578125,795.7875366210938,793.3699340820312,784.5054931640625
1388,792.1611938476562,799.4139404296875,795.7875366210938,779.2673950195312
1389,788.1318969726562,798.2051391601562,794.1758422851562,779.2673950195312
1390,782.087890625,797.3992919921875,787.7289428710938,778.8644409179688
1391,779.6703491210938,794.5787353515625,787.3259887695312,773.6264038085938
1392,781.2820434570312,792.5640869140625,785.7142944335938,779.6703491210938
1393,787.7289428710938,790.952392578125,783.6996459960938,789.7435913085938
1394,783.6996459960938,783.6996459960938,788.1318969726562,778.8644409179688
1395,783.6996459960938,787.7289428710938,788.937744140625,773.2234497070312
1396,784.5054931640625,795.7875366210938,792.5640869140625,778.4615478515625
1397,778.4615478515625,795.7875366210938,792.5640869140625,780.0732421875
1398,786.923095703125,799.8168334960938,791.7582397460938,786.1171875
1399,788.937744140625,796.1904907226562,798.2051391601562,787.3259887695312
1400,780.879150390625,788.5347900390625,797.3992919921875,786.5201416015625
1401,777.2527465820312,790.1465454101562,791.7582397460938,788.5347900390625
1402,781.2820434570312,792.5640869140625,792.5640869140625,794.1758422851562
1403,784.908447265625,790.952392578125,796.1904907226562,801.4285888671875
1404,785.7142944335938,786.1171875,796.996337890625,805.054931640625
1405,794.1758422851562,790.1465454101562,795.3846435546875,804.6520385742188
1406,799.8168334960938,787.7289428710938,793.7728881835938,801.8314819335938
1407,799.8168334960938,786.5201416015625,798.6080322265625,804.2490844726562
1408,803.040283203125,796.1904907226562,800.2197875976562,803.8461303710938
1409,799.8168334960938,801.025634765625,801.8314819335938,800.2197875976562
1410,799.8168334960938,802.6373901367188,802.2344360351562,798.2051391601562
1411,805.054931640625,800.6226806640625,796.5933837890625,796.996337890625
1412,797.8021850585938,794.981689453125,787.3259887695312,790.1465454101562
1413,793.3699340820312,798.2051391601562,788.5347900390625,783.2966918945312
1414,794.981689453125,799.010986328125,794.5787353515625,784.1025390625
1415,790.952392578125,793.3699340820312,791.7582397460938,784.1025390625
1416,784.5054931640625,785.3113403320312,790.5494384765625,783.2966918945312
1417,782.087890625,782.893798828125,793.7728881835938,778.8644409179688
1418,784.5054931640625,782.893798828125,795.3846435546875,777.2527465820312
1419,780.0732421875,787.7289428710938,792.1611938476562,774.8351440429688
1420,778.05859375,797.3992919921875,788.1318969726562,774.029296875
1421,776.0439453125,795.7875366210938,790.1465454101562,774.029296875
1422,776.4468994140625,790.952392578125,792.1611938476562,778.4615478515625
1423,782.4908447265625,793.7728881835938,792.5640869140625,782.4908447265625
1424,785.7142944335938,791.3552856445312,791.3552856445312,780.879150390625
1425,786.5201416015625,789.7435913085938,794.1758422851562,777.2527465820312
1426,790.1465454101562,788.5347900390625,794.5787353515625,776.0439453125
1427,791.3552856445312,782.4908447265625,792.1611938476562,788.937744140625
1428,789.3406372070312,783.6996459960938,792.967041015625,796.996337890625
1429,796.5933837890625,793.7728881835938,796.996337890625,792.5640869140625
1430,799.4139404296875,794.5787353515625,796.996337890625,795.7875366210938
1431,796.5933837890625,791.7582397460938,795.3846435546875,808.2783813476562
1432,799.8168334960938,795.7875366210938,796.5933837890625,807.4725341796875
1433,800.2197875976562,797.8021850585938,799.4139404296875,796.996337890625
1434,796.5933837890625,795.3846435546875,801.025634765625,794.1758422851562
1435,793.3699340820312,794.1758422851562,798.6080322265625,796.1904907226562
1436,794.5787353515625,796.1904907226562,794.981689453125,796.996337890625
1437,794.981689453125,798.6080322265625,796.1904907226562,794.981689453125
1438,796.996337890625,796.1904907226562,798.2051391601562,796.1904907226562
1439,800.2197875976562,790.952392578125,796.1904907226562,801.4285888671875
1440,790.1465454101562,782.4908447265625,791.7582397460938,791.7582397460938
1441,780.4761962890625,780.4761962890625,793.7728881835938,778.4615478515625
1442,775.6410522460938,782.087890625,797.8021850585938,776.4468994140625
1443,779.2673950195312,785.3113403320312,794.1758422851562,772.8204956054688
1444,781.6849975585938,784.5054931640625,791.3552856445312,774.4322509765625
1445,774.029296875,782.893798828125,791.7582397460938,774.8351440429688
1446,780.879150390625,790.1465454101562,791.7582397460938,767.9853515625
1447,788.937744140625,796.5933837890625,788.937744140625,774.029296875
1448,791.7582397460938,796.996337890625,786.5201416015625,778.4615478515625
1449,792.5640869140625,796.996337890625,787.7289428710938,778.8644409179688
1450,790.1465454101562,792.5640869140625,788.1318969726562,786.5201416015625
1451,794.981689453125,787.7289428710938,788.5347900390625,794.5787353515625
1452,794.5787353515625,791.7582397460938,787.3259887695312,795.3846435546875
1453,788.937744140625,795.3846435546875,786.923095703125,790.952392578125
1454,787.7289428710938,791.3552856445312,790.952392578125,797.8021850585938
1455,789.3406372070312,788.937744140625,793.3699340820312,803.040283203125
1456,790.5494384765625,788.1318969726562,792.1611938476562,801.025634765625
1457,785.3113403320312,782.4908447265625,788.5347900390625,796.5933837890625
1458,786.1171875,783.6996459960938,785.3113403320312,794.981689453125
1459,791.3552856445312,791.3552856445312,786.5201416015625,796.1904907226562
1460,788.1318969726562,791.3552856445312,788.937744140625,799.8168334960938
1461,785.3113403320312,788.1318969726562,789.7435913085938,800.2197875976562
1462,794.5787353515625,789.7435913085938,796.1904907226562,802.6373901367188
1463,797.8021850585938,794.981689453125,801.025634765625,802.2344360351562
1464,794.981689453125,799.010986328125,803.4432373046875,800.6226806640625
1465,799.010986328125,796.5933837890625,803.040283203125,804.6520385742188
1466,800.2197875976562,793.3699340820312,798.6080322265625,813.113525390625
1467,791.7582397460938,803.040283203125,796.996337890625,806.6666870117188
1468,791.3552856445312,803.4432373046875,794.981689453125,792.5640869140625
1469,796.996337890625,797.8021850585938,797.8021850585938,793.3699340820312
1470,794.1758422851562,798.2051391601562,796.5933837890625,794.5787353515625
1471,792.967041015625,796.5933837890625,793.3699340820312,792.1611938476562
1472,792.5640869140625,800.2197875976562,796.5933837890625,793.7728881835938
1473,792.5640869140625,795.3846435546875,793.7728881835938,794.981689453125
1474,790.5494384765625,792.1611938476562,797.3992919921875,793.3699340820312
1475,794.5787353515625,795.3846435546875,796.1904907226562,790.1465454101562
1476,800.6226806640625,795.7875366210938,791.3552856445312,788.1318969726562
1477,800.2197875976562,799.4139404296875,795.3846435546875,789.7435913085938
1478,794.981689453125,796.996337890625,794.1758422851562,792.1611938476562
1479,791.3552856445312,790.1465454101562,788.1318969726562,788.5347900390625
1480,801.025634765625,788.5347900390625,791.7582397460938,796.1904907226562
1481,796.996337890625,792.1611938476562,795.7875366210938,796.996337890625
1482,791.7582397460938,792.967041015625,795.3846435546875,790.5494384765625
1483,796.996337890625,790.952392578125,795.7875366210938,798.6080322265625
1484,794.5787353515625,784.1025390625,792.5640869140625,800.6226806640625
1485,792.1611938476562,782.087890625,789.3406372070312,800.6226806640625
1486,791.3552856445312,794.981689453125,792.967041015625,800.6226806640625
1487,789.7435913085938,799.010986328125,793.7728881835938,794.981689453125
1488,788.937744140625,796.1904907226562,796.1904907226562,794.5787353515625
1489,791.7582397460938,793.3699340820312,797.8021850585938,797.8021850585938
1490,786.1171875,789.7435913085938,794.1758422851562,790.1465454101562
1491,780.4761962890625,789.3406372070312,788.1318969726562,786.923095703125
1492,790.1465454101562,792.5640869140625,786.1171875,793.3699340820312
1493,792.967041015625,789.3406372070312,788.1318969726562,795.7875366210938
1494,785.3113403320312,784.5054931640625,792.1611938476562,786.5201416015625
1495,783.2966918945312,789.3406372070312,795.7875366210938,782.893798828125
1496,786.1171875,795.7875366210938,794.1758422851562,786.923095703125
1497,782.893798828125,792.5640869140625,787.3259887695312,787.3259887695312
1498,791.3552856445312,787.3259887695312,787.7289428710938,790.5494384765625
1499,803.8461303710938,800.6226806640625,792.967041015625,798.2051391601562
1500,802.2344360351562,808.6813354492188,788.1318969726562,798.6080322265625
1501,799.010986328125,806.6666870117188,791.7582397460938,794.1758422851562
1502,801.4285888671875,809.084228515625,799.010986328125,799.010986328125
1503,804.6520385742188,806.2637329101562,794.981689453125,801.025634765625
1504,806.6666870117188,805.4578857421875,793.3699340820312,796.1904907226562
1505,804.6520385742188,807.069580078125,792.967041015625,794.5787353515625
1506,805.054931640625,804.2490844726562,794.5787353515625,802.2344360351562
1507,811.098876953125,798.6080322265625,795.7875366210938,811.5018310546875
1508,813.113525390625,791.3552856445312,792.967041015625,811.90478515625
1509,801.8314819335938,789.7435913085938,790.952392578125,799.4139404296875
1510,792.1611938476562,790.1465454101562,788.1318969726562,790.1465454101562
1511,794.1758422851562,789.7435913085938,788.937744140625,794.981689453125
1512,790.1465454101562,789.7435913085938,792.1611938476562,796.5933837890625
1513,786.1171875,795.7875366210938,792.5640869140625,792.5640869140625
1514,794.1758422851562,801.4285888671875,790.5494384765625,795.7875366210938
1515,796.5933837890625,802.6373901367188,789.7435913085938,794.1758422851562
1516,787.7289428710938,796.996337890625,791.3552856445312,792.967041015625
1517,779.6703491210938,790.5494384765625,791.3552856445312,787.3259887695312
1518,782.087890625,787.7289428710938,790.952392578125,781.6849975585938
1519,790.1465454101562,788.1318969726562,793.7728881835938,789.7435913085938
1520,781.2820434570312,789.7435913085938,797.8021850585938,791.7582397460938
1521,773.6264038085938,793.3699340820312,793.3699340820312,789.3406372070312
1522,776.8497924804688,792.5640869140625,793.7728881835938,787.3259887695312
1523,781.6849975585938,789.7435913085938,793.3699340820312,790.1465454101562
1524,785.7142944335938,787.7289428710938,791.7582397460938,792.1611938476562
1525,784.908447265625,783.2966918945312,791.3552856445312,782.087890625
1526,783.6996459960938,787.3259887695312,788.1318969726562,783.6996459960938
1527,788.1318969726562,796.1904907226562,790.952392578125,791.7582397460938
1528,792.5640869140625,795.3846435546875,794.1758422851562,792.1611938476562
1529,792.967041015625,791.7582397460938,796.1904907226562,797.8021850585938
1530,794.1758422851562,793.3699340820312,797.3992919921875,800.6226806640625
1531,796.5933837890625,798.6080322265625,798.2051391601562,798.2051391601562
1532,794.5787353515625,799.4139404296875,798.6080322265625,798.6080322265625
1533,790.952392578125,793.7728881835938,798.6080322265625,798.2051391601562
1534,790.5494384765625,790.1465454101562,796.5933837890625,792.5640869140625
1535,794.5787353515625,785.3113403320312,793.3699340820312,795.7875366210938
1536,790.5494384765625,782.893798828125,793.3699340820312,796.5933837890625
1537,787.3259887695312,783.2966918945312,794.1758422851562,796.1904907226562
1538,791.3552856445312,785.7142944335938,790.5494384765625,799.8168334960938
1539,793.3699340820312,786.923095703125,792.967041015625,797.3992919921875
1540,788.5347900390625,789.3406372070312,799.8168334960938,798.2051391601562
1541,784.1025390625,796.996337890625,802.2344360351562,801.025634765625
1542,785.7142944335938,798.6080322265625,797.8021850585938,799.4139404296875
1543,788.1318969726562,797.3992919921875,797.8021850585938,798.2051391601562
1544,788.1318969726562,797.3992919921875,797.8021850585938,798.6080322265625
1545,795.3846435546875,793.7728881835938,794.1758422851562,798.6080322265625
1546,800.6226806640625,786.923095703125,793.7728881835938,796.5933837890625
1547,794.981689453125,784.908447265625,794.5787353515625,790.952392578125
1548,798.6080322265625,786.1171875,793.3699340820312,787.3259887695312
1549,799.8168334960938,784.5054931640625,790.952392578125,785.3113403320312
1550,800.6226806640625,791.3552856445312,789.7435913085938,792.967041015625
1551,800.2197875976562,797.8021850585938,791.7582397460938,798.6080322265625
1552,796.1904907226562,798.2051391601562,795.7875366210938,792.967041015625
1553,798.6080322265625,798.2051391601562,794.1758422851562,792.1611938476562
1554,796.1904907226562,799.4139404296875,794.981689453125,792.5640869140625
1555,792.5640869140625,799.010986328125,796.1904907226562,793.3699340820312
1556,789.3406372070312,798.2051391601562,795.3846435546875,794.5787353515625
1557,788.1318969726562,799.8168334960938,794.5787353515625,794.1758422851562
1558,787.7289428710938,799.4139404296875,794.1758422851562,792.1611938476562
1559,784.5054931640625,799.4139404296875,796.5933837890625,792.967041015625
1560,786.1171875,798.2051391601562,799.010986328125,796.1904907226562
1561,788.1318969726562,794.1758422851562,798.2051391601562,797.3992919921875
1562,794.5787353515625,791.3552856445312,797.8021850585938,808.2783813476562
1563,792.967041015625,796.996337890625,799.010986328125,799.8168334960938
1564,792.967041015625,800.2197875976562,794.5787353515625,787.3259887695312
1565,793.3699340820312,795.3846435546875,788.937744140625,785.7142944335938
1566,791.3552856445312,792.5640869140625,791.3552856445312,782.893798828125
1567,794.1758422851562,792.1611938476562,795.3846435546875,784.908447265625
1568,793.7728881835938,790.1465454101562,796.996337890625,786.923095703125
1569,791.3552856445312,788.5347900390625,791.3552856445312,789.7435913085938
1570,796.1904907226562,792.5640869140625,789.3406372070312,790.952392578125
1571,801.8314819335938,791.3552856445312,798.2051391601562,792.5640869140625
1572,794.981689453125,785.7142944335938,800.6226806640625,787.7289428710938
1573,794.981689453125,791.3552856445312,797.8021850585938,795.3846435546875
1574,797.8021850585938,801.8314819335938,799.4139404296875,799.010986328125
1575,792.1611938476562,799.010986328125,799.4139404296875,790.5494384765625
1576,793.7728881835938,795.7875366210938,801.8314819335938,792.1611938476562
1577,800.2197875976562,792.1611938476562,803.4432373046875,796.1904907226562
1578,796.996337890625,786.5201416015625,795.3846435546875,792.967041015625
1579,790.5494384765625,788.937744140625,794.1758422851562,790.952392578125
1580,792.5640869140625,790.952392578125,801.8314819335938,794.981689453125
1581,792.967041015625,791.3552856445312,802.6373901367188,798.6080322265625
1582,791.3552856445312,791.3552856445312,802.2344360351562,798.2051391601562
