timestamp,RAW_TP9,RAW_AF7,RAW_AF8,RAW_TP10
1,815.93408203125,798.6080322265625,795.7875366210938,793.7728881835938
2,832.05126953125,801.025634765625,795.7875366210938,809.084228515625
3,828.02197265625,804.2490844726562,786.1171875,808.6813354492188
4,811.098876953125,806.2637329101562,787.7289428710938,788.1318969726562
5,798.2051391601562,801.8314819335938,787.3259887695312,782.4908447265625
6,799.8168334960938,800.6226806640625,786.923095703125,789.7435913085938
7,809.084228515625,800.2197875976562,789.7435913085938,798.6080322265625
8,813.113525390625,802.6373901367188,784.5054931640625,805.8607788085938
9,807.069580078125,801.4285888671875,779.6703491210938,804.2490844726562
10,806.2637329101562,794.5787353515625,778.4615478515625,809.89013671875
11,807.4725341796875,798.2051391601562,778.8644409179688,803.040283203125
12,805.054931640625,801.4285888671875,784.5054931640625,794.1758422851562
13,799.8168334960938,797.8021850585938,789.3406372070312,793.7728881835938
14,801.025634765625,796.1904907226562,787.3259887695312,792.5640869140625
15,807.069580078125,797.8021850585938,793.7728881835938,793.7728881835938
16,810.2930297851562,802.6373901367188,793.7728881835938,792.967041015625
17,808.2783813476562,800.6226806640625,792.1611938476562,791.7582397460938
18,806.6666870117188,799.8168334960938,793.3699340820312,789.7435913085938
19,802.2344360351562,796.1904907226562,789.7435913085938,788.5347900390625
20,805.4578857421875,794.1758422851562,789.7435913085938,791.7582397460938
21,809.4871826171875,796.1904907226562,789.7435913085938,790.5494384765625
22,806.2637329101562,794.5787353515625,788.1318969726562,790.952392578125
23,803.040283203125,798.2051391601562,792.5640869140625,799.010986328125
24,800.6226806640625,799.8168334960938,797.3992919921875,800.6226806640625
25,794.981689453125,796.996337890625,794.981689453125,794.981689453125
26,788.937744140625,793.7728881835938,793.7728881835938,791.3552856445312
27,792.1611938476562,794.981689453125,796.1904907226562,791.7582397460938
28,792.967041015625,797.3992919921875,794.5787353515625,790.1465454101562
29,786.1171875,799.010986328125,790.952392578125,788.1318969726562
30,782.893798828125,796.5933837890625,795.3846435546875,788.937744140625
31,785.3113403320312,790.952392578125,798.2051391601562,785.7142944335938
32,789.3406372070312,791.7582397460938,798.2051391601562,784.5054931640625
33,796.996337890625,792.1611938476562,799.4139404296875,795.3846435546875
34,793.7728881835938,791.7582397460938,799.4139404296875,791.7582397460938
35,792.5640869140625,794.1758422851562,792.5640869140625,787.3259887695312
36,795.7875366210938,792.1611938476562,787.7289428710938,793.7728881835938
37,800.6226806640625,795.7875366210938,787.7289428710938,796.5933837890625
38,804.6520385742188,796.5933837890625,786.5201416015625,790.952392578125
39,802.6373901367188,790.952392578125,785.3113403320312,790.952392578125
40,799.010986328125,795.3846435546875,788.5347900390625,789.7435913085938
41,802.6373901367188,805.4578857421875,795.7875366210938,788.1318969726562
42,801.8314819335938,806.2637329101562,796.5933837890625,795.3846435546875
43,796.1904907226562,800.2197875976562,795.3846435546875,803.4432373046875
44,788.937744140625,796.1904907226562,795.3846435546875,798.6080322265625
45,780.879150390625,798.6080322265625,791.3552856445312,786.5201416015625
46,782.087890625,799.8168334960938,792.967041015625,777.6557006835938
47,791.7582397460938,797.8021850585938,792.5640869140625,783.2966918945312
48,795.3846435546875,798.6080322265625,789.7435913085938,789.3406372070312
49,794.1758422851562,796.996337890625,790.952392578125,786.5201416015625
50,790.1465454101562,792.5640869140625,791.3552856445312,786.1171875
51,784.908447265625,791.3552856445312,788.5347900390625,782.4908447265625
52,792.967041015625,790.1465454101562,789.3406372070312,785.3113403320312
53,799.010986328125,793.3699340820312,794.5787353515625,788.937744140625
54,790.5494384765625,792.967041015625,791.7582397460938,789.7435913085938
55,784.1025390625,791.3552856445312,786.5201416015625,790.1465454101562
56,785.7142944335938,794.1758422851562,788.1318969726562,795.7875366210938
57,784.1025390625,794.1758422851562,787.3259887695312,788.937744140625
58,787.7289428710938,791.7582397460938,789.3406372070312,789.3406372070312
59,791.3552856445312,796.1904907226562,790.5494384765625,792.5640869140625
60,788.1318969726562,796.1904907226562,789.3406372070312,792.5640869140625
61,787.7289428710938,792.967041015625,790.5494384765625,790.952392578125
62,788.5347900390625,792.967041015625,789.7435913085938,787.3259887695312
63,793.3699340820312,794.981689453125,792.1611938476562,790.952392578125
64,792.967041015625,791.7582397460938,796.996337890625,787.7289428710938
65,786.5201416015625,788.1318969726562,792.5640869140625,784.908447265625
66,782.4908447265625,788.937744140625,786.923095703125,780.879150390625
67,784.5054931640625,790.1465454101562,783.2966918945312,779.6703491210938
68,789.3406372070312,789.3406372070312,780.0732421875,779.6703491210938
69,792.967041015625,786.5201416015625,784.5054931640625,776.0439453125
70,792.5640869140625,790.952392578125,787.7289428710938,780.0732421875
71,788.1318969726562,791.7582397460938,790.5494384765625,780.879150390625
72,788.5347900390625,788.937744140625,789.3406372070312,775.2380981445312
73,795.3846435546875,789.3406372070312,784.1025390625,776.4468994140625
74,796.5933837890625,791.3552856445312,787.3259887695312,781.2820434570312
75,796.1904907226562,792.967041015625,792.967041015625,781.6849975585938
76,796.996337890625,792.5640869140625,792.5640869140625,779.6703491210938
77,792.5640869140625,788.937744140625,790.1465454101562,780.4761962890625
78,787.3259887695312,786.923095703125,791.7582397460938,786.923095703125
79,783.6996459960938,787.3259887695312,792.1611938476562,793.3699340820312
80,774.8351440429688,786.1171875,792.5640869140625,781.6849975585938
81,774.029296875,786.5201416015625,790.1465454101562,766.7765502929688
82,781.6849975585938,790.5494384765625,790.952392578125,773.6264038085938
83,786.923095703125,790.952392578125,790.952392578125,778.8644409179688
84,787.3259887695312,786.1171875,789.3406372070312,776.4468994140625
85,783.6996459960938,786.1171875,788.937744140625,776.0439453125
86,778.8644409179688,785.3113403320312,787.7289428710938,778.4615478515625
87,780.879150390625,783.2966918945312,784.5054931640625,778.8644409179688
88,786.1171875,788.937744140625,786.1171875,784.1025390625
89,795.3846435546875,790.5494384765625,792.5640869140625,791.3552856445312
90,799.4139404296875,791.7582397460938,794.981689453125,799.4139404296875
91,794.1758422851562,796.1904907226562,796.1904907226562,801.4285888671875
92,787.3259887695312,796.5933837890625,792.1611938476562,801.4285888671875
93,790.1465454101562,794.981689453125,788.5347900390625,802.6373901367188
94,800.2197875976562,793.7728881835938,788.937744140625,806.2637329101562
95,800.2197875976562,792.5640869140625,790.1465454101562,800.6226806640625
96,799.010986328125,794.1758422851562,794.1758422851562,798.2051391601562
97,793.7728881835938,794.1758422851562,794.5787353515625,794.1758422851562
98,794.981689453125,792.967041015625,795.3846435546875,792.1611938476562
99,799.010986328125,792.967041015625,794.981689453125,791.3552856445312
100,796.1904907226562,794.1758422851562,792.967041015625,789.3406372070312
101,796.1904907226562,794.981689453125,794.5787353515625,786.5201416015625
102,799.010986328125,788.937744140625,794.1758422851562,781.6849975585938
103,790.952392578125,786.923095703125,792.1611938476562,775.2380981445312
104,783.2966918945312,790.1465454101562,789.7435913085938,768.3883056640625
105,785.7142944335938,791.3552856445312,790.5494384765625,774.029296875
106,779.6703491210938,790.1465454101562,789.3406372070312,781.6849975585938
107,777.6557006835938,790.5494384765625,788.937744140625,779.2673950195312
108,778.05859375,793.3699340820312,786.5201416015625,773.2234497070312
109,782.087890625,791.7582397460938,785.3113403320312,778.4615478515625
110,785.3113403320312,792.1611938476562,792.1611938476562,784.1025390625
111,781.6849975585938,792.1611938476562,795.7875366210938,782.087890625
112,787.7289428710938,792.1611938476562,795.3846435546875,781.2820434570312
113,798.6080322265625,795.3846435546875,795.7875366210938,788.937744140625
114,799.010986328125,792.967041015625,794.1758422851562,792.967041015625
115,799.8168334960938,787.3259887695312,792.5640869140625,788.5347900390625
116,801.025634765625,788.1318969726562,792.967041015625,789.7435913085938
117,794.981689453125,790.1465454101562,794.1758422851562,792.1611938476562
118,799.010986328125,789.3406372070312,796.996337890625,792.5640869140625
119,802.6373901367188,790.5494384765625,799.010986328125,789.7435913085938
120,798.2051391601562,792.1611938476562,796.996337890625,789.7435913085938
121,797.8021850585938,792.1611938476562,794.1758422851562,794.5787353515625
122,799.4139404296875,790.5494384765625,795.7875366210938,789.7435913085938
123,800.6226806640625,789.3406372070312,796.996337890625,781.2820434570312
124,798.6080322265625,785.7142944335938,789.3406372070312,780.879150390625
125,792.967041015625,784.908447265625,787.7289428710938,778.05859375
126,789.7435913085938,787.3259887695312,790.5494384765625,782.087890625
127,790.5494384765625,787.3259887695312,788.1318969726562,783.2966918945312
128,786.1171875,790.5494384765625,791.7582397460938,778.8644409179688
129,790.1465454101562,793.3699340820312,791.3552856445312,781.2820434570312
130,792.967041015625,796.996337890625,789.3406372070312,780.0732421875
131,791.7582397460938,794.981689453125,789.3406372070312,780.879150390625
132,790.5494384765625,791.3552856445312,784.1025390625,775.6410522460938
133,793.3699340820312,794.5787353515625,782.893798828125,777.2527465820312
134,792.1611938476562,793.3699340820312,784.5054931640625,783.2966918945312
135,798.2051391601562,789.3406372070312,791.7582397460938,787.3259887695312
136,803.040283203125,794.1758422851562,792.5640869140625,785.3113403320312
137,794.5787353515625,794.5787353515625,789.7435913085938,778.4615478515625
138,788.937744140625,788.5347900390625,788.937744140625,778.4615478515625
139,791.7582397460938,789.3406372070312,785.7142944335938,777.6557006835938
140,795.3846435546875,790.5494384765625,786.923095703125,780.4761962890625
141,782.087890625,791.3552856445312,788.937744140625,779.6703491210938
142,778.05859375,786.1171875,790.1465454101562,773.6264038085938
143,783.2966918945312,788.5347900390625,789.3406372070312,777.6557006835938
144,785.3113403320312,794.1758422851562,784.5054931640625,780.0732421875
145,788.5347900390625,793.3699340820312,786.5201416015625,782.893798828125
146,786.5201416015625,795.7875366210938,787.7289428710938,784.5054931640625
147,782.087890625,792.1611938476562,787.7289428710938,782.087890625
148,783.2966918945312,789.3406372070312,789.7435913085938,785.7142944335938
149,786.1171875,788.937744140625,793.3699340820312,785.3113403320312
150,790.1465454101562,787.3259887695312,792.967041015625,777.6557006835938
151,789.3406372070312,789.7435913085938,792.5640869140625,779.2673950195312
152,781.2820434570312,783.2966918945312,791.3552856445312,776.4468994140625
153,778.8644409179688,777.6557006835938,788.1318969726562,770.0
154,784.5054931640625,782.087890625,787.7289428710938,772.4176025390625
155,787.3259887695312,787.7289428710938,788.937744140625,775.2380981445312
156,784.1025390625,792.5640869140625,790.5494384765625,775.2380981445312
157,776.4468994140625,791.7582397460938,791.3552856445312,774.4322509765625
158,772.4176025390625,789.3406372070312,793.3699340820312,772.4176025390625
159,771.2088012695312,788.1318969726562,794.5787353515625,780.0732421875
160,770.4029541015625,782.893798828125,789.3406372070312,786.923095703125
161,774.029296875,780.4761962890625,788.1318969726562,780.4761962890625
162,774.029296875,783.6996459960938,791.7582397460938,777.2527465820312
163,770.0,781.2820434570312,793.3699340820312,781.6849975585938
164,771.6116943359375,781.6849975585938,794.1758422851562,794.1758422851562
165,777.2527465820312,789.3406372070312,792.967041015625,786.5201416015625
166,787.7289428710938,793.3699340820312,793.7728881835938,775.6410522460938
167,784.908447265625,791.3552856445312,794.5787353515625,778.05859375
168,773.2234497070312,792.5640869140625,788.1318969726562,772.8204956054688
169,778.8644409179688,792.967041015625,783.6996459960938,774.029296875
170,793.3699340820312,795.7875366210938,788.1318969726562,782.087890625
171,785.7142944335938,797.8021850585938,787.7289428710938,785.3113403320312
172,768.7911987304688,793.7728881835938,787.3259887695312,787.3259887695312
173,774.029296875,797.8021850585938,786.5201416015625,786.923095703125
174,782.087890625,799.4139404296875,787.7289428710938,785.7142944335938
175,789.7435913085938,803.040283203125,786.923095703125,783.6996459960938
176,793.7728881835938,807.069580078125,787.3259887695312,784.908447265625
177,783.6996459960938,799.010986328125,788.937744140625,782.4908447265625
178,781.2820434570312,786.1171875,784.908447265625,779.6703491210938
179,788.937744140625,791.3552856445312,785.7142944335938,789.3406372070312
180,788.937744140625,800.2197875976562,783.6996459960938,790.952392578125
181,788.1318969726562,790.952392578125,773.2234497070312,778.8644409179688
182,786.1171875,780.879150390625,777.2527465820312,774.4322509765625
183,785.3113403320312,784.5054931640625,782.087890625,772.8204956054688
184,782.893798828125,786.923095703125,780.4761962890625,772.0146484375
185,784.908447265625,786.1171875,783.6996459960938,780.4761962890625
186,786.5201416015625,787.3259887695312,785.3113403320312,787.7289428710938
187,788.1318969726562,786.5201416015625,784.908447265625,787.7289428710938
188,789.7435913085938,788.1318969726562,788.5347900390625,783.6996459960938
189,787.3259887695312,789.3406372070312,790.5494384765625,782.893798828125
190,791.3552856445312,793.3699340820312,791.7582397460938,785.7142944335938
191,792.967041015625,795.3846435546875,790.5494384765625,787.3259887695312
192,796.5933837890625,792.967041015625,790.1465454101562,781.6849975585938
193,791.7582397460938,786.923095703125,789.3406372070312,775.6410522460938
194,786.1171875,786.923095703125,788.5347900390625,779.6703491210938
195,792.5640869140625,792.967041015625,791.7582397460938,788.5347900390625
196,797.3992919921875,791.7582397460938,793.3699340820312,788.937744140625
197,797.3992919921875,792.5640869140625,794.1758422851562,787.3259887695312
198,794.1758422851562,794.1758422851562,797.3992919921875,786.5201416015625
199,789.3406372070312,790.952392578125,795.7875366210938,786.923095703125
200,787.7289428710938,788.1318969726562,795.7875366210938,787.3259887695312
201,794.1758422851562,785.7142944335938,795.3846435546875,786.923095703125
202,793.7728881835938,782.087890625,790.1465454101562,788.5347900390625
203,787.3259887695312,783.6996459960938,794.5787353515625,783.6996459960938
204,786.1171875,783.6996459960938,796.5933837890625,778.8644409179688
205,788.5347900390625,784.1025390625,793.3699340820312,784.1025390625
206,789.3406372070312,786.923095703125,798.6080322265625,787.7289428710938
207,789.7435913085938,786.1171875,798.6080322265625,784.5054931640625
208,790.5494384765625,789.7435913085938,797.8021850585938,787.3259887695312
209,783.6996459960938,790.952392578125,799.4139404296875,786.923095703125
210,782.893798828125,785.3113403320312,794.1758422851562,785.3113403320312
211,786.5201416015625,794.1758422851562,794.5787353515625,786.923095703125
212,784.1025390625,797.3992919921875,797.3992919921875,785.7142944335938
213,783.2966918945312,787.3259887695312,794.981689453125,792.5640869140625
214,777.6557006835938,790.1465454101562,794.1758422851562,789.3406372070312
215,778.4615478515625,787.7289428710938,792.5640869140625,776.4468994140625
216,789.3406372070312,788.937744140625,791.7582397460938,782.4908447265625
217,794.1758422851562,796.996337890625,791.3552856445312,787.3259887695312
218,797.8021850585938,799.4139404296875,791.3552856445312,788.1318969726562
219,798.2051391601562,798.6080322265625,794.5787353515625,785.7142944335938
220,796.996337890625,799.010986328125,797.3992919921875,784.908447265625
221,801.4285888671875,795.3846435546875,796.5933837890625,790.952392578125
222,800.6226806640625,790.1465454101562,792.5640869140625,788.937744140625
223,800.2197875976562,792.967041015625,794.981689453125,783.2966918945312
224,796.1904907226562,794.5787353515625,799.4139404296875,782.087890625
225,792.967041015625,796.5933837890625,798.6080322265625,786.5201416015625
226,799.4139404296875,796.996337890625,799.010986328125,788.937744140625
227,805.4578857421875,794.1758422851562,796.1904907226562,793.3699340820312
228,800.6226806640625,791.3552856445312,798.6080322265625,795.3846435546875
229,791.7582397460938,796.996337890625,803.8461303710938,791.3552856445312
230,786.1171875,801.8314819335938,802.6373901367188,790.1465454101562
231,788.5347900390625,800.2197875976562,802.2344360351562,791.3552856445312
232,793.3699340820312,793.3699340820312,798.6080322265625,790.1465454101562
233,789.7435913085938,788.5347900390625,794.5787353515625,782.4908447265625
234,791.3552856445312,787.3259887695312,794.1758422851562,783.2966918945312
235,796.5933837890625,787.3259887695312,792.5640869140625,784.5054931640625
236,800.2197875976562,791.7582397460938,789.7435913085938,790.5494384765625
237,799.4139404296875,794.1758422851562,792.967041015625,802.2344360351562
238,797.8021850585938,791.7582397460938,792.1611938476562,794.981689453125
239,799.4139404296875,790.5494384765625,790.1465454101562,787.3259887695312
240,792.5640869140625,787.7289428710938,788.1318969726562,780.4761962890625
241,789.7435913085938,785.3113403320312,787.3259887695312,780.0732421875
242,785.7142944335938,782.893798828125,786.923095703125,782.4908447265625
243,786.1171875,781.6849975585938,790.1465454101562,785.7142944335938
244,786.1171875,783.6996459960938,792.967041015625,786.923095703125
245,780.879150390625,784.5054931640625,790.5494384765625,785.3113403320312
246,780.4761962890625,782.893798828125,788.937744140625,782.4908447265625
247,782.893798828125,782.4908447265625,789.3406372070312,781.6849975585938
248,782.4908447265625,782.893798828125,793.3699340820312,791.3552856445312
249,786.1171875,781.2820434570312,794.5787353515625,790.952392578125
250,786.923095703125,782.893798828125,789.3406372070312,782.087890625
251,790.1465454101562,793.3699340820312,788.937744140625,788.5347900390625
252,796.996337890625,793.7728881835938,794.5787353515625,792.5640869140625
253,800.2197875976562,790.5494384765625,794.5787353515625,791.3552856445312
254,792.1611938476562,788.5347900390625,796.5933837890625,790.5494384765625
255,790.952392578125,786.1171875,801.4285888671875,788.937744140625
256,794.1758422851562,790.1465454101562,799.4139404296875,792.1611938476562
257,794.981689453125,787.7289428710938,793.3699340820312,797.3992919921875
258,799.010986328125,785.3113403320312,788.937744140625,799.010986328125
259,795.3846435546875,782.893798828125,788.937744140625,793.3699340820312
260,786.1171875,783.6996459960938,788.1318969726562,783.2966918945312
261,785.3113403320312,785.7142944335938,787.7289428710938,783.2966918945312
262,789.7435913085938,780.879150390625,789.3406372070312,787.7289428710938
263,793.7728881835938,781.6849975585938,791.7582397460938,786.923095703125
264,791.7582397460938,786.5201416015625,790.1465454101562,785.7142944335938
265,787.3259887695312,788.1318969726562,789.7435913085938,783.2966918945312
266,790.1465454101562,788.1318969726562,790.5494384765625,790.1465454101562
267,792.5640869140625,788.1318969726562,789.3406372070312,796.1904907226562
268,788.937744140625,787.3259887695312,788.5347900390625,788.1318969726562
269,784.908447265625,786.1171875,793.7728881835938,780.879150390625
270,782.4908447265625,788.937744140625,796.1904907226562,779.6703491210938
271,780.4761962890625,788.937744140625,793.7728881835938,779.2673950195312
272,782.4908447265625,785.7142944335938,796.996337890625,782.4908447265625
273,797.3992919921875,784.5054931640625,799.8168334960938,792.1611938476562
274,797.3992919921875,786.5201416015625,799.8168334960938,790.952392578125
275,785.7142944335938,790.5494384765625,800.2197875976562,786.923095703125
276,783.6996459960938,792.1611938476562,799.4139404296875,781.6849975585938
277,789.7435913085938,788.937744140625,793.7728881835938,775.6410522460938
278,791.7582397460938,789.7435913085938,792.1611938476562,785.3113403320312
279,788.937744140625,794.1758422851562,794.1758422851562,792.967041015625
280,788.5347900390625,790.1465454101562,796.1904907226562,787.3259887695312
281,785.3113403320312,785.7142944335938,788.1318969726562,780.4761962890625
282,783.2966918945312,786.5201416015625,781.6849975585938,778.05859375
283,788.5347900390625,790.952392578125,785.3113403320312,785.3113403320312
284,792.967041015625,793.3699340820312,789.3406372070312,791.3552856445312
285,792.5640869140625,788.1318969726562,791.3552856445312,786.923095703125
286,788.937744140625,781.6849975585938,793.3699340820312,786.5201416015625
287,786.1171875,783.6996459960938,791.3552856445312,784.1025390625
288,793.7728881835938,790.5494384765625,790.952392578125,782.893798828125
289,798.6080322265625,788.1318969726562,788.5347900390625,782.4908447265625
290,794.5787353515625,785.7142944335938,786.5201416015625,782.087890625
291,790.952392578125,786.923095703125,790.5494384765625,785.7142944335938
292,794.981689453125,787.7289428710938,793.3699340820312,794.5787353515625
293,803.4432373046875,793.7728881835938,793.3699340820312,798.6080322265625
294,798.2051391601562,794.981689453125,801.025634765625,799.010986328125
295,784.5054931640625,788.1318969726562,802.6373901367188,798.2051391601562
296,782.4908447265625,788.937744140625,793.7728881835938,793.3699340820312
297,785.7142944335938,790.952392578125,795.7875366210938,795.3846435546875
298,790.952392578125,792.5640869140625,796.996337890625,802.2344360351562
299,797.3992919921875,793.3699340820312,794.981689453125,801.025634765625
300,794.1758422851562,791.3552856445312,795.7875366210938,796.1904907226562
301,788.1318969726562,796.1904907226562,794.5787353515625,795.7875366210938
302,784.1025390625,793.3699340820312,790.1465454101562,793.7728881835938
303,787.7289428710938,790.5494384765625,786.923095703125,788.5347900390625
304,788.1318969726562,790.1465454101562,786.5201416015625,787.7289428710938
305,785.3113403320312,784.1025390625,787.3259887695312,791.3552856445312
306,782.893798828125,786.1171875,790.1465454101562,791.3552856445312
307,786.1171875,785.3113403320312,791.3552856445312,789.7435913085938
308,791.7582397460938,784.1025390625,791.3552856445312,784.5054931640625
309,789.3406372070312,791.7582397460938,793.3699340820312,783.6996459960938
310,787.7289428710938,788.937744140625,792.5640869140625,780.0732421875
311,784.1025390625,782.893798828125,784.908447265625,777.2527465820312
312,781.2820434570312,786.5201416015625,782.893798828125,781.6849975585938
313,782.087890625,790.5494384765625,786.1171875,783.6996459960938
314,783.2966918945312,793.7728881835938,787.7289428710938,783.6996459960938
315,784.1025390625,794.981689453125,788.937744140625,777.6557006835938
316,782.893798828125,791.7582397460938,790.5494384765625,778.8644409179688
317,784.5054931640625,787.3259887695312,786.5201416015625,778.4615478515625
318,786.923095703125,793.3699340820312,785.3113403320312,780.0732421875
319,780.879150390625,800.2197875976562,786.923095703125,781.6849975585938
320,780.0732421875,795.7875366210938,787.7289428710938,778.8644409179688
321,782.087890625,798.2051391601562,785.3113403320312,781.2820434570312
322,780.4761962890625,797.3992919921875,784.5054931640625,786.5201416015625
323,784.5054931640625,788.1318969726562,785.3113403320312,784.1025390625
324,793.3699340820312,785.7142944335938,783.2966918945312,784.5054931640625
325,797.8021850585938,787.7289428710938,788.937744140625,790.5494384765625
326,797.3992919921875,787.3259887695312,790.952392578125,787.7289428710938
327,796.1904907226562,791.7582397460938,792.967041015625,784.908447265625
328,798.2051391601562,797.8021850585938,794.1758422851562,786.923095703125
329,799.4139404296875,799.8168334960938,794.5787353515625,791.3552856445312
330,802.2344360351562,800.6226806640625,796.5933837890625,785.3113403320312
331,801.8314819335938,796.996337890625,798.6080322265625,782.893798828125
332,796.996337890625,795.7875366210938,795.7875366210938,788.5347900390625
333,795.7875366210938,795.7875366210938,795.7875366210938,793.7728881835938
334,799.4139404296875,794.1758422851562,793.7728881835938,791.7582397460938
335,801.025634765625,792.5640869140625,788.5347900390625,782.087890625
336,806.2637329101562,798.2051391601562,793.3699340820312,787.3259887695312
337,806.2637329101562,799.010986328125,797.8021850585938,804.2490844726562
338,800.6226806640625,794.5787353515625,795.3846435546875,801.025634765625
339,802.2344360351562,791.7582397460938,793.3699340820312,789.7435913085938
340,800.2197875976562,787.7289428710938,792.967041015625,786.923095703125
341,794.1758422851562,790.5494384765625,790.1465454101562,784.1025390625
342,788.1318969726562,790.1465454101562,786.923095703125,778.4615478515625
343,791.3552856445312,784.1025390625,788.1318969726562,781.2820434570312
344,799.010986328125,786.1171875,790.5494384765625,788.5347900390625
345,796.5933837890625,789.3406372070312,789.3406372070312,792.5640869140625
346,793.3699340820312,786.923095703125,786.5201416015625,791.7582397460938
347,789.3406372070312,782.087890625,786.923095703125,786.1171875
348,789.7435913085938,782.893798828125,792.5640869140625,790.5494384765625
349,791.3552856445312,785.3113403320312,793.7728881835938,792.967041015625
350,791.3552856445312,786.5201416015625,791.3552856445312,786.5201416015625
351,795.3846435546875,785.7142944335938,789.7435913085938,786.5201416015625
352,793.3699340820312,787.3259887695312,785.7142944335938,785.7142944335938
353,787.7289428710938,790.5494384765625,784.908447265625,781.6849975585938
354,786.5201416015625,784.908447265625,788.1318969726562,786.923095703125
355,784.908447265625,780.879150390625,788.937744140625,793.3699340820312
356,784.908447265625,790.1465454101562,792.1611938476562,788.1318969726562
357,789.7435913085938,791.7582397460938,794.1758422851562,784.5054931640625
358,791.7582397460938,787.3259887695312,792.1611938476562,782.893798828125
359,794.5787353515625,792.1611938476562,793.7728881835938,780.4761962890625
360,801.025634765625,790.952392578125,795.7875366210938,784.5054931640625
361,796.1904907226562,783.6996459960938,790.1465454101562,785.3113403320312
362,791.3552856445312,788.5347900390625,788.937744140625,785.7142944335938
363,787.7289428710938,792.5640869140625,793.3699340820312,790.5494384765625
364,785.7142944335938,790.952392578125,794.5787353515625,788.5347900390625
365,792.967041015625,792.967041015625,793.7728881835938,786.923095703125
366,798.6080322265625,794.981689453125,790.1465454101562,790.5494384765625
367,795.3846435546875,791.3552856445312,784.908447265625,784.5054931640625
368,796.996337890625,791.3552856445312,787.3259887695312,782.087890625
369,800.2197875976562,792.5640869140625,789.3406372070312,789.7435913085938
370,803.8461303710938,787.3259887695312,789.3406372070312,792.5640869140625
371,801.025634765625,784.1025390625,794.1758422851562,791.7582397460938
372,790.952392578125,782.893798828125,796.1904907226562,790.5494384765625
373,791.7582397460938,780.0732421875,795.3846435546875,794.981689453125
374,790.5494384765625,779.6703491210938,792.5640869140625,790.5494384765625
375,794.5787353515625,789.7435913085938,794.1758422851562,791.7582397460938
376,799.010986328125,789.7435913085938,794.981689453125,796.1904907226562
377,796.5933837890625,788.1318969726562,792.5640869140625,794.981689453125
378,793.7728881835938,790.5494384765625,793.3699340820312,792.1611938476562
379,791.3552856445312,788.5347900390625,794.5787353515625,792.967041015625
380,791.7582397460938,791.3552856445312,794.5787353515625,792.5640869140625
381,790.1465454101562,793.3699340820312,788.5347900390625,788.1318969726562
382,792.1611938476562,790.952392578125,787.3259887695312,793.7728881835938
383,795.7875366210938,789.7435913085938,790.1465454101562,792.5640869140625
384,799.010986328125,792.5640869140625,788.937744140625,792.5640869140625
385,801.8314819335938,791.7582397460938,788.5347900390625,793.3699340820312
386,803.4432373046875,788.1318969726562,791.7582397460938,786.5201416015625
387,807.069580078125,791.7582397460938,799.010986328125,793.3699340820312
388,792.967041015625,792.5640869140625,796.5933837890625,796.5933837890625
389,792.1611938476562,793.3699340820312,793.7728881835938,793.7728881835938
390,799.8168334960938,794.5787353515625,792.967041015625,798.6080322265625
391,798.2051391601562,790.952392578125,793.3699340820312,803.4432373046875
392,797.3992919921875,792.967041015625,796.5933837890625,799.010986328125
393,797.8021850585938,799.010986328125,801.025634765625,795.7875366210938
394,794.5787353515625,796.5933837890625,799.4139404296875,792.967041015625
395,794.1758422851562,791.7582397460938,797.3992919921875,787.3259887695312
396,794.981689453125,791.3552856445312,796.5933837890625,784.1025390625
397,791.7582397460938,796.996337890625,792.967041015625,778.8644409179688
398,789.3406372070312,797.8021850585938,793.7728881835938,779.6703491210938
399,785.7142944335938,793.7728881835938,791.7582397460938,780.4761962890625
400,790.952392578125,793.3699340820312,788.1318969726562,782.087890625
401,797.8021850585938,794.981689453125,792.5640869140625,786.923095703125
402,788.937744140625,792.5640869140625,792.967041015625,783.6996459960938
403,780.0732421875,789.3406372070312,789.7435913085938,780.0732421875
404,778.4615478515625,788.937744140625,788.937744140625,784.5054931640625
405,785.3113403320312,789.3406372070312,790.5494384765625,792.1611938476562
406,791.3552856445312,793.3699340820312,789.7435913085938,788.937744140625
407,790.5494384765625,788.937744140625,789.3406372070312,778.8644409179688
408,781.2820434570312,785.3113403320312,788.937744140625,778.4615478515625
409,776.8497924804688,794.981689453125,784.1025390625,780.4761962890625
410,786.1171875,790.1465454101562,788.5347900390625,782.893798828125
411,789.7435913085938,788.5347900390625,794.1758422851562,785.3113403320312
412,783.6996459960938,792.967041015625,789.7435913085938,787.3259887695312
413,783.6996459960938,790.1465454101562,788.5347900390625,787.7289428710938
414,792.967041015625,795.3846435546875,789.3406372070312,787.3259887695312
415,798.2051391601562,792.5640869140625,791.7582397460938,792.1611938476562
416,795.3846435546875,782.4908447265625,784.1025390625,793.7728881835938
417,788.937744140625,784.5054931640625,776.0439453125,794.981689453125
418,785.7142944335938,784.1025390625,781.6849975585938,790.1465454101562
419,785.7142944335938,781.2820434570312,782.4908447265625,784.5054931640625
420,784.908447265625,780.0732421875,782.087890625,787.7289428710938
421,784.5054931640625,780.0732421875,784.5054931640625,791.3552856445312
422,786.1171875,785.3113403320312,786.1171875,795.3846435546875
423,785.3113403320312,788.1318969726562,787.7289428710938,789.7435913085938
424,776.4468994140625,784.1025390625,787.7289428710938,783.2966918945312
425,783.2966918945312,786.923095703125,790.952392578125,786.5201416015625
426,787.7289428710938,790.952392578125,794.5787353515625,785.7142944335938
427,780.879150390625,786.5201416015625,790.5494384765625,776.0439453125
428,781.2820434570312,782.893798828125,791.3552856445312,783.6996459960938
429,785.7142944335938,786.923095703125,794.5787353515625,788.1318969726562
430,784.908447265625,791.3552856445312,795.7875366210938,779.6703491210938
431,785.7142944335938,788.5347900390625,794.5787353515625,783.2966918945312
432,784.1025390625,786.5201416015625,792.5640869140625,789.7435913085938
433,784.908447265625,790.952392578125,797.8021850585938,790.1465454101562
434,791.7582397460938,790.5494384765625,798.6080322265625,786.5201416015625
435,794.981689453125,788.1318969726562,797.8021850585938,787.7289428710938
436,796.5933837890625,793.3699340820312,796.5933837890625,798.2051391601562
437,797.3992919921875,794.1758422851562,797.3992919921875,797.3992919921875
438,792.5640869140625,791.7582397460938,797.8021850585938,786.1171875
439,790.5494384765625,788.5347900390625,794.1758422851562,784.1025390625
440,796.1904907226562,786.5201416015625,794.5787353515625,792.1611938476562
441,794.5787353515625,790.5494384765625,791.3552856445312,789.7435913085938
442,789.7435913085938,790.1465454101562,789.3406372070312,784.908447265625
443,787.3259887695312,788.5347900390625,787.7289428710938,784.1025390625
444,782.893798828125,788.937744140625,786.923095703125,786.1171875
445,785.3113403320312,790.5494384765625,785.7142944335938,785.3113403320312
446,794.5787353515625,792.5640869140625,785.7142944335938,782.893798828125
447,799.8168334960938,791.3552856445312,785.7142944335938,783.6996459960938
448,796.5933837890625,788.937744140625,784.1025390625,781.2820434570312
449,792.967041015625,786.923095703125,788.5347900390625,783.2966918945312
450,788.937744140625,785.7142944335938,791.3552856445312,782.893798828125
451,795.7875366210938,790.5494384765625,791.7582397460938,789.7435913085938
452,796.5933837890625,788.937744140625,790.1465454101562,799.010986328125
453,793.7728881835938,786.923095703125,789.3406372070312,789.3406372070312
454,799.8168334960938,794.5787353515625,794.1758422851562,787.7289428710938
455,800.6226806640625,796.1904907226562,793.7728881835938,789.3406372070312
456,799.8168334960938,792.967041015625,790.5494384765625,786.5201416015625
457,801.4285888671875,792.967041015625,791.3552856445312,786.923095703125
458,799.010986328125,791.7582397460938,790.952392578125,787.7289428710938
459,796.1904907226562,790.5494384765625,789.7435913085938,786.923095703125
460,795.3846435546875,792.1611938476562,789.3406372070312,788.1318969726562
461,792.1611938476562,792.1611938476562,789.3406372070312,782.087890625
462,790.5494384765625,790.952392578125,787.3259887695312,782.893798828125
463,790.1465454101562,788.5347900390625,787.3259887695312,796.1904907226562
464,790.5494384765625,792.967041015625,788.937744140625,793.7728881835938
465,789.3406372070312,795.3846435546875,792.967041015625,793.3699340820312
466,790.1465454101562,794.981689453125,790.5494384765625,790.5494384765625
467,787.7289428710938,794.5787353515625,782.087890625,789.3406372070312
468,786.5201416015625,788.937744140625,778.8644409179688,793.3699340820312
469,786.923095703125,783.6996459960938,779.6703491210938,784.5054931640625
470,781.2820434570312,785.3113403320312,780.879150390625,782.087890625
471,779.2673950195312,788.937744140625,780.4761962890625,784.1025390625
472,779.2673950195312,788.1318969726562,780.4761962890625,782.087890625
473,788.1318969726562,786.1171875,781.2820434570312,790.1465454101562
474,791.3552856445312,786.923095703125,782.893798828125,796.5933837890625
475,788.1318969726562,783.6996459960938,786.1171875,789.7435913085938
476,789.3406372070312,783.6996459960938,788.937744140625,784.5054931640625
477,786.5201416015625,787.7289428710938,788.937744140625,788.937744140625
478,782.893798828125,788.937744140625,786.5201416015625,793.7728881835938
479,785.3113403320312,787.3259887695312,787.7289428710938,792.1611938476562
480,791.7582397460938,786.923095703125,785.7142944335938,791.7582397460938
481,797.3992919921875,789.7435913085938,784.5054931640625,795.7875366210938
482,803.4432373046875,792.1611938476562,789.7435913085938,798.6080322265625
483,798.2051391601562,790.1465454101562,786.5201416015625,792.967041015625
484,794.5787353515625,786.5201416015625,782.087890625,789.3406372070312
485,793.3699340820312,787.3259887695312,786.5201416015625,788.937744140625
486,790.5494384765625,788.5347900390625,792.1611938476562,789.7435913085938
487,790.1465454101562,790.5494384765625,792.5640869140625,791.3552856445312
488,790.5494384765625,791.3552856445312,790.1465454101562,795.7875366210938
489,793.3699340820312,787.3259887695312,790.5494384765625,799.4139404296875
490,794.5787353515625,788.5347900390625,790.5494384765625,799.8168334960938
491,789.7435913085938,792.5640869140625,788.5347900390625,794.1758422851562
492,785.7142944335938,792.5640869140625,788.1318969726562,786.5201416015625
493,786.1171875,792.1611938476562,788.5347900390625,783.2966918945312
494,784.1025390625,790.5494384765625,788.937744140625,781.6849975585938
495,783.6996459960938,789.3406372070312,788.1318969726562,780.4761962890625
496,787.7289428710938,788.937744140625,788.937744140625,782.087890625
497,792.967041015625,789.7435913085938,790.1465454101562,787.3259887695312
498,790.952392578125,789.7435913085938,788.5347900390625,786.5201416015625
499,790.952392578125,790.952392578125,786.923095703125,782.4908447265625
500,791.7582397460938,786.5201416015625,787.3259887695312,781.2820434570312
501,791.3552856445312,782.4908447265625,788.937744140625,788.937744140625
502,793.3699340820312,789.7435913085938,788.5347900390625,790.5494384765625
503,793.3699340820312,788.937744140625,787.3259887695312,788.1318969726562
504,793.7728881835938,784.5054931640625,787.3259887695312,793.3699340820312
505,797.3992919921875,791.3552856445312,789.7435913085938,794.5787353515625
506,795.3846435546875,796.5933837890625,791.7582397460938,793.7728881835938
507,789.7435913085938,796.996337890625,789.7435913085938,797.3992919921875
508,789.7435913085938,792.967041015625,790.5494384765625,792.967041015625
509,789.3406372070312,793.3699340820312,792.5640869140625,782.4908447265625
510,789.3406372070312,797.3992919921875,795.3846435546875,784.908447265625
511,785.3113403320312,792.5640869140625,795.3846435546875,782.087890625
512,786.1171875,790.1465454101562,791.3552856445312,775.2380981445312
513,790.5494384765625,788.5347900390625,790.952392578125,784.5054931640625
514,784.1025390625,786.923095703125,788.1318969726562,780.4761962890625
515,777.6557006835938,786.1171875,786.923095703125,776.4468994140625
516,779.6703491210938,782.4908447265625,788.937744140625,780.4761962890625
517,783.6996459960938,786.1171875,789.3406372070312,780.0732421875
518,784.5054931640625,789.3406372070312,789.7435913085938,781.6849975585938
519,784.908447265625,790.5494384765625,789.3406372070312,784.1025390625
520,788.5347900390625,791.3552856445312,790.1465454101562,782.4908447265625
521,791.3552856445312,791.7582397460938,790.952392578125,782.4908447265625
522,794.981689453125,792.5640869140625,789.3406372070312,790.952392578125
523,793.3699340820312,793.3699340820312,790.952392578125,791.7582397460938
524,789.7435913085938,790.1465454101562,790.952392578125,796.996337890625
525,794.981689453125,789.7435913085938,788.5347900390625,808.2783813476562
526,798.6080322265625,792.967041015625,787.7289428710938,803.4432373046875
527,798.6080322265625,792.1611938476562,790.952392578125,797.3992919921875
528,799.010986328125,788.937744140625,790.952392578125,798.2051391601562
529,802.2344360351562,788.937744140625,792.967041015625,800.6226806640625
530,796.1904907226562,790.1465454101562,793.3699340820312,793.7728881835938
531,790.952392578125,786.923095703125,792.967041015625,786.923095703125
532,787.7289428710938,787.7289428710938,791.3552856445312,791.3552856445312
533,788.937744140625,786.1171875,789.3406372070312,795.7875366210938
534,792.5640869140625,786.5201416015625,788.937744140625,792.967041015625
535,786.1171875,784.908447265625,790.5494384765625,788.5347900390625
536,783.2966918945312,786.923095703125,784.908447265625,793.3699340820312
537,784.908447265625,792.967041015625,782.4908447265625,784.5054931640625
538,792.967041015625,792.5640869140625,789.3406372070312,780.0732421875
539,801.8314819335938,793.7728881835938,791.3552856445312,786.1171875
540,794.5787353515625,794.981689453125,791.7582397460938,786.923095703125
541,786.923095703125,792.1611938476562,792.967041015625,785.3113403320312
542,794.1758422851562,790.1465454101562,790.952392578125,780.4761962890625
543,797.8021850585938,788.5347900390625,787.7289428710938,782.087890625
544,799.010986328125,789.3406372070312,789.3406372070312,781.2820434570312
545,804.2490844726562,789.3406372070312,789.3406372070312,782.087890625
546,798.6080322265625,787.7289428710938,785.7142944335938,781.6849975585938
547,795.7875366210938,788.1318969726562,784.908447265625,779.6703491210938
548,802.2344360351562,792.967041015625,792.5640869140625,788.937744140625
549,798.2051391601562,793.3699340820312,795.3846435546875,796.1904907226562
550,798.6080322265625,787.7289428710938,797.8021850585938,799.8168334960938
551,798.6080322265625,783.2966918945312,799.010986328125,804.6520385742188
552,794.1758422851562,786.5201416015625,794.1758422851562,800.2197875976562
553,799.010986328125,792.1611938476562,792.5640869140625,799.4139404296875
554,800.6226806640625,790.1465454101562,789.3406372070312,803.8461303710938
555,794.5787353515625,785.7142944335938,789.3406372070312,805.054931640625
556,787.7289428710938,788.5347900390625,794.5787353515625,802.2344360351562
557,782.4908447265625,791.7582397460938,794.5787353515625,791.3552856445312
558,779.6703491210938,786.923095703125,797.3992919921875,786.5201416015625
559,789.3406372070312,782.893798828125,797.3992919921875,792.5640869140625
560,799.4139404296875,783.2966918945312,794.981689453125,791.7582397460938
561,793.3699340820312,782.893798828125,790.1465454101562,783.6996459960938
562,788.937744140625,780.0732421875,789.3406372070312,781.6849975585938
563,791.7582397460938,784.5054931640625,789.7435913085938,790.1465454101562
564,792.967041015625,787.7289428710938,788.5347900390625,786.1171875
565,788.1318969726562,780.4761962890625,787.7289428710938,779.2673950195312
566,783.6996459960938,775.2380981445312,785.3113403320312,778.05859375
567,783.6996459960938,779.2673950195312,782.893798828125,771.6116943359375
568,784.5054931640625,784.908447265625,785.3113403320312,771.2088012695312
569,789.3406372070312,785.7142944335938,789.7435913085938,780.4761962890625
570,791.3552856445312,784.5054931640625,787.7289428710938,781.2820434570312
571,790.1465454101562,781.6849975585938,787.3259887695312,777.6557006835938
572,788.1318969726562,786.923095703125,787.3259887695312,780.4761962890625
573,789.3406372070312,788.937744140625,785.7142944335938,780.0732421875
574,787.3259887695312,787.7289428710938,790.5494384765625,785.7142944335938
575,785.7142944335938,791.7582397460938,792.967041015625,793.3699340820312
576,786.5201416015625,791.3552856445312,787.7289428710938,788.5347900390625
577,787.3259887695312,790.1465454101562,787.3259887695312,786.5201416015625
578,787.7289428710938,788.937744140625,790.5494384765625,788.937744140625
579,786.5201416015625,790.952392578125,794.1758422851562,789.7435913085938
580,792.967041015625,790.1465454101562,793.7728881835938,786.923095703125
581,798.2051391601562,785.7142944335938,790.1465454101562,784.1025390625
582,796.996337890625,784.908447265625,784.5054931640625,780.4761962890625
583,796.5933837890625,788.1318969726562,784.5054931640625,775.2380981445312
584,796.1904907226562,789.7435913085938,792.5640869140625,780.0732421875
585,797.3992919921875,784.5054931640625,790.1465454101562,791.7582397460938
586,795.3846435546875,780.0732421875,780.879150390625,797.3992919921875
587,787.3259887695312,784.1025390625,781.6849975585938,788.1318969726562
588,785.7142944335938,788.5347900390625,786.5201416015625,782.4908447265625
589,795.3846435546875,790.5494384765625,785.7142944335938,778.05859375
590,799.4139404296875,795.7875366210938,790.5494384765625,786.923095703125
591,803.040283203125,799.010986328125,792.967041015625,798.6080322265625
592,804.2490844726562,798.6080322265625,787.7289428710938,792.967041015625
593,800.6226806640625,800.6226806640625,793.7728881835938,792.5640869140625
594,797.3992919921875,801.4285888671875,796.5933837890625,792.967041015625
595,796.996337890625,793.7728881835938,794.1758422851562,793.7728881835938
596,799.010986328125,796.996337890625,794.1758422851562,792.5640869140625
597,796.996337890625,801.4285888671875,792.967041015625,792.5640869140625
598,793.7728881835938,797.8021850585938,798.2051391601562,798.6080322265625
599,793.3699340820312,796.5933837890625,797.3992919921875,793.3699340820312
600,797.8021850585938,791.3552856445312,793.3699340820312,788.5347900390625
601,798.6080322265625,791.7582397460938,797.8021850585938,798.2051391601562
602,797.3992919921875,796.5933837890625,795.3846435546875,796.996337890625
603,797.8021850585938,797.8021850585938,792.967041015625,793.3699340820312
604,790.5494384765625,796.1904907226562,794.1758422851562,786.923095703125
605,790.1465454101562,793.7728881835938,788.5347900390625,781.6849975585938
606,799.010986328125,792.5640869140625,782.087890625,788.937744140625
607,799.4139404296875,790.952392578125,784.1025390625,780.879150390625
608,794.5787353515625,792.5640869140625,786.923095703125,779.2673950195312
609,794.981689453125,794.1758422851562,788.937744140625,793.7728881835938
610,800.6226806640625,796.1904907226562,786.1171875,786.923095703125
611,796.996337890625,792.5640869140625,784.5054931640625,777.2527465820312
612,786.1171875,790.1465454101562,784.1025390625,778.05859375
613,783.6996459960938,791.7582397460938,788.5347900390625,776.0439453125
614,787.3259887695312,795.3846435546875,786.5201416015625,776.4468994140625
615,790.1465454101562,796.5933837890625,781.2820434570312,778.4615478515625
616,793.7728881835938,793.7728881835938,786.5201416015625,783.6996459960938
617,794.5787353515625,786.5201416015625,786.5201416015625,790.1465454101562
618,790.952392578125,786.923095703125,784.1025390625,786.5201416015625
619,788.5347900390625,789.7435913085938,784.5054931640625,781.2820434570312
620,783.6996459960938,785.7142944335938,787.3259887695312,785.7142944335938
621,788.937744140625,789.3406372070312,791.7582397460938,790.952392578125
622,796.5933837890625,794.1758422851562,789.7435913085938,790.5494384765625
623,793.3699340820312,791.7582397460938,788.1318969726562,786.1171875
624,793.3699340820312,787.7289428710938,788.5347900390625,792.1611938476562
625,794.981689453125,786.1171875,786.5201416015625,794.5787353515625
626,794.5787353515625,789.3406372070312,784.5054931640625,788.1318969726562
627,796.996337890625,788.5347900390625,784.5054931640625,784.908447265625
628,802.2344360351562,792.5640869140625,783.6996459960938,786.5201416015625
629,800.6226806640625,795.3846435546875,781.2820434570312,786.1171875
630,796.1904907226562,792.1611938476562,779.2673950195312,786.5201416015625
631,793.7728881835938,790.952392578125,782.087890625,785.3113403320312
632,788.1318969726562,784.5054931640625,782.893798828125,787.7289428710938
633,782.893798828125,786.5201416015625,784.908447265625,788.937744140625
634,781.6849975585938,789.3406372070312,790.5494384765625,787.3259887695312
635,782.087890625,785.3113403320312,788.937744140625,785.7142944335938
636,786.1171875,786.5201416015625,786.1171875,788.5347900390625
637,792.5640869140625,790.952392578125,787.7289428710938,794.981689453125
638,792.967041015625,792.967041015625,789.7435913085938,791.7582397460938
639,792.1611938476562,791.3552856445312,790.5494384765625,790.952392578125
640,792.1611938476562,792.967041015625,788.1318969726562,790.5494384765625
641,794.1758422851562,795.7875366210938,786.923095703125,791.7582397460938
642,793.3699340820312,793.3699340820312,788.5347900390625,792.5640869140625
643,791.7582397460938,793.3699340820312,786.923095703125,793.3699340820312
644,796.996337890625,794.981689453125,785.7142944335938,795.3846435546875
645,798.2051391601562,790.1465454101562,789.3406372070312,788.5347900390625
646,795.3846435546875,789.7435913085938,785.7142944335938,784.908447265625
647,796.5933837890625,790.5494384765625,782.893798828125,791.7582397460938
648,797.3992919921875,789.3406372070312,783.6996459960938,789.7435913085938
649,791.3552856445312,788.937744140625,787.7289428710938,794.1758422851562
650,786.5201416015625,789.3406372070312,789.3406372070312,800.6226806640625
651,790.952392578125,790.952392578125,788.1318969726562,794.981689453125
652,790.1465454101562,790.1465454101562,788.5347900390625,789.7435913085938
653,783.6996459960938,786.923095703125,788.1318969726562,782.893798828125
654,777.6557006835938,788.5347900390625,788.5347900390625,778.8644409179688
655,781.6849975585938,791.7582397460938,789.3406372070312,778.8644409179688
656,790.1465454101562,790.5494384765625,791.3552856445312,782.4908447265625
657,792.967041015625,787.3259887695312,790.5494384765625,789.3406372070312
658,790.5494384765625,790.952392578125,791.3552856445312,792.967041015625
659,785.7142944335938,792.1611938476562,788.937744140625,790.5494384765625
660,783.6996459960938,790.952392578125,786.1171875,784.5054931640625
661,790.1465454101562,797.8021850585938,792.1611938476562,783.2966918945312
662,794.981689453125,800.6226806640625,793.7728881835938,786.5201416015625
663,793.7728881835938,796.5933837890625,792.967041015625,789.7435913085938
664,787.3259887695312,793.7728881835938,792.967041015625,784.1025390625
665,790.5494384765625,791.3552856445312,795.3846435546875,782.087890625
666,799.8168334960938,795.3846435546875,795.7875366210938,790.5494384765625
667,799.010986328125,797.8021850585938,794.1758422851562,792.967041015625
668,799.010986328125,795.7875366210938,790.1465454101562,788.5347900390625
669,799.8168334960938,795.7875366210938,785.7142944335938,784.908447265625
670,797.3992919921875,791.3552856445312,786.923095703125,785.7142944335938
671,797.8021850585938,792.967041015625,784.908447265625,787.7289428710938
672,793.3699340820312,793.7728881835938,785.3113403320312,782.4908447265625
673,786.5201416015625,791.7582397460938,786.5201416015625,780.0732421875
674,782.087890625,790.952392578125,789.7435913085938,784.1025390625
675,780.879150390625,791.7582397460938,789.7435913085938,780.0732421875
676,784.1025390625,793.7728881835938,788.1318969726562,776.0439453125
677,786.923095703125,793.3699340820312,785.7142944335938,777.6557006835938
678,784.5054931640625,791.3552856445312,788.5347900390625,776.8497924804688
679,780.879150390625,788.1318969726562,788.1318969726562,771.2088012695312
680,778.8644409179688,792.967041015625,784.1025390625,772.8204956054688
681,785.7142944335938,794.981689453125,788.937744140625,783.2966918945312
682,792.967041015625,794.5787353515625,789.7435913085938,789.7435913085938
683,790.1465454101562,796.5933837890625,788.5347900390625,780.879150390625
684,782.087890625,798.6080322265625,790.5494384765625,777.2527465820312
685,785.3113403320312,803.040283203125,790.952392578125,782.4908447265625
686,794.1758422851562,800.2197875976562,792.967041015625,788.1318969726562
687,794.1758422851562,797.8021850585938,792.5640869140625,787.7289428710938
688,793.7728881835938,796.1904907226562,788.937744140625,788.1318969726562
689,796.996337890625,789.7435913085938,789.7435913085938,791.7582397460938
690,788.5347900390625,788.1318969726562,792.1611938476562,790.952392578125
691,780.4761962890625,786.1171875,793.7728881835938,791.3552856445312
692,783.6996459960938,787.7289428710938,793.3699340820312,790.952392578125
693,791.3552856445312,784.5054931640625,795.7875366210938,794.1758422851562
694,797.8021850585938,783.6996459960938,796.996337890625,792.1611938476562
695,794.5787353515625,790.952392578125,796.5933837890625,785.3113403320312
696,790.5494384765625,794.1758422851562,795.7875366210938,787.7289428710938
697,792.967041015625,792.967041015625,794.5787353515625,787.7289428710938
698,795.7875366210938,790.952392578125,797.8021850585938,788.5347900390625
699,798.2051391601562,797.3992919921875,798.2051391601562,787.7289428710938
700,792.967041015625,794.5787353515625,797.3992919921875,786.5201416015625
701,791.3552856445312,786.5201416015625,795.7875366210938,785.3113403320312
702,801.8314819335938,790.5494384765625,795.3846435546875,786.923095703125
703,801.8314819335938,796.1904907226562,799.4139404296875,796.996337890625
704,793.3699340820312,794.5787353515625,799.010986328125,795.7875366210938
705,787.7289428710938,791.3552856445312,795.3846435546875,792.967041015625
706,788.5347900390625,788.5347900390625,794.981689453125,792.967041015625
707,791.3552856445312,788.5347900390625,793.7728881835938,794.5787353515625
708,792.1611938476562,786.5201416015625,790.952392578125,789.3406372070312
709,790.1465454101562,789.3406372070312,794.981689453125,776.4468994140625
710,791.3552856445312,793.7728881835938,796.5933837890625,776.4468994140625
711,794.1758422851562,789.7435913085938,789.7435913085938,785.3113403320312
712,800.6226806640625,790.952392578125,786.1171875,794.5787353515625
713,803.040283203125,796.996337890625,785.7142944335938,792.967041015625
714,792.5640869140625,797.8021850585938,784.5054931640625,785.7142944335938
715,785.7142944335938,790.952392578125,789.7435913085938,783.6996459960938
716,786.5201416015625,789.7435913085938,791.3552856445312,782.087890625
717,792.1611938476562,789.3406372070312,793.3699340820312,785.7142944335938
718,795.7875366210938,790.952392578125,790.5494384765625,790.952392578125
719,793.3699340820312,793.7728881835938,788.937744140625,793.7728881835938
720,788.937744140625,793.7728881835938,789.3406372070312,785.3113403320312
721,788.5347900390625,792.1611938476562,786.5201416015625,774.8351440429688
722,796.5933837890625,792.5640869140625,788.937744140625,782.087890625
723,801.025634765625,792.1611938476562,793.3699340820312,784.908447265625
724,794.981689453125,787.7289428710938,795.3846435546875,791.7582397460938
725,791.7582397460938,789.3406372070312,794.5787353515625,792.5640869140625
726,795.7875366210938,789.3406372070312,793.3699340820312,785.3113403320312
727,807.4725341796875,786.1171875,794.1758422851562,787.7289428710938
728,804.6520385742188,791.7582397460938,792.1611938476562,794.5787353515625
729,786.5201416015625,790.952392578125,791.3552856445312,790.5494384765625
730,781.6849975585938,783.2966918945312,790.1465454101562,789.7435913085938
731,777.6557006835938,785.3113403320312,790.952392578125,789.7435913085938
732,778.8644409179688,792.1611938476562,794.981689453125,793.7728881835938
733,788.5347900390625,792.1611938476562,793.7728881835938,795.3846435546875
734,792.967041015625,792.5640869140625,793.7728881835938,788.937744140625
735,795.7875366210938,794.5787353515625,796.1904907226562,790.1465454101562
736,792.967041015625,794.981689453125,796.5933837890625,791.3552856445312
737,787.7289428710938,795.3846435546875,794.5787353515625,785.3113403320312
738,791.7582397460938,793.3699340820312,793.3699340820312,782.087890625
739,795.3846435546875,788.5347900390625,795.7875366210938,786.5201416015625
740,796.996337890625,789.7435913085938,794.1758422851562,786.923095703125
741,801.025634765625,794.1758422851562,789.7435913085938,782.4908447265625
742,802.2344360351562,794.981689453125,786.923095703125,781.6849975585938
743,795.7875366210938,788.937744140625,785.7142944335938,777.2527465820312
744,790.1465454101562,781.2820434570312,789.7435913085938,778.4615478515625
745,789.3406372070312,782.4908447265625,793.7728881835938,778.4615478515625
746,790.5494384765625,787.3259887695312,790.1465454101562,776.0439453125
747,785.7142944335938,788.5347900390625,787.7289428710938,773.6264038085938
748,788.937744140625,787.3259887695312,790.952392578125,771.2088012695312
749,790.952392578125,786.1171875,787.7289428710938,770.4029541015625
750,789.3406372070312,787.7289428710938,786.5201416015625,774.4322509765625
751,787.7289428710938,787.7289428710938,790.952392578125,782.4908447265625
752,787.7289428710938,785.7142944335938,792.967041015625,782.087890625
753,788.5347900390625,786.1171875,789.3406372070312,778.05859375
754,790.5494384765625,789.3406372070312,792.5640869140625,785.7142944335938
755,790.1465454101562,791.7582397460938,798.2051391601562,794.5787353515625
756,780.879150390625,792.1611938476562,792.5640869140625,791.3552856445312
757,783.2966918945312,788.5347900390625,793.3699340820312,788.937744140625
758,787.3259887695312,788.1318969726562,789.3406372070312,787.7289428710938
759,789.3406372070312,793.3699340820312,786.5201416015625,786.923095703125
760,792.1611938476562,791.3552856445312,786.1171875,788.937744140625
761,791.3552856445312,784.5054931640625,788.1318969726562,788.5347900390625
762,792.967041015625,788.1318969726562,794.1758422851562,792.5640869140625
763,794.981689453125,790.1465454101562,795.3846435546875,801.4285888671875
764,795.7875366210938,783.2966918945312,800.6226806640625,794.5787353515625
765,801.025634765625,781.2820434570312,794.981689453125,785.7142944335938
766,803.040283203125,789.3406372070312,786.923095703125,785.7142944335938
767,791.3552856445312,791.3552856445312,792.1611938476562,780.0732421875
768,787.3259887695312,786.923095703125,795.3846435546875,779.2673950195312
769,788.1318969726562,787.3259887695312,796.5933837890625,781.6849975585938
770,781.6849975585938,788.1318969726562,795.3846435546875,781.6849975585938
771,777.2527465820312,787.3259887695312,791.7582397460938,777.6557006835938
772,779.6703491210938,790.1465454101562,789.3406372070312,775.6410522460938
773,782.4908447265625,788.937744140625,785.3113403320312,783.6996459960938
774,780.0732421875,783.6996459960938,783.2966918945312,788.5347900390625
775,777.2527465820312,783.2966918945312,783.2966918945312,778.4615478515625
776,778.05859375,779.6703491210938,784.1025390625,770.8058471679688
777,781.6849975585938,778.8644409179688,779.6703491210938,773.6264038085938
778,784.1025390625,782.087890625,779.6703491210938,782.893798828125
779,787.7289428710938,785.3113403320312,782.087890625,783.6996459960938
780,788.937744140625,782.893798828125,781.6849975585938,782.087890625
781,789.3406372070312,776.8497924804688,784.5054931640625,783.2966918945312
782,796.5933837890625,780.0732421875,788.937744140625,786.923095703125
783,792.1611938476562,784.908447265625,789.7435913085938,790.5494384765625
784,783.2966918945312,783.2966918945312,786.5201416015625,784.908447265625
785,781.6849975585938,785.7142944335938,787.7289428710938,783.2966918945312
786,783.6996459960938,786.923095703125,790.952392578125,786.1171875
787,780.879150390625,786.1171875,793.7728881835938,785.7142944335938
788,782.893798828125,786.1171875,795.3846435546875,782.4908447265625
789,787.7289428710938,784.908447265625,795.7875366210938,784.5054931640625
790,790.5494384765625,787.7289428710938,796.5933837890625,795.3846435546875
791,796.5933837890625,794.1758422851562,794.1758422851562,788.937744140625
792,792.1611938476562,793.3699340820312,794.5787353515625,784.908447265625
793,785.7142944335938,790.1465454101562,795.3846435546875,784.5054931640625
794,787.3259887695312,795.3846435546875,792.5640869140625,782.4908447265625
795,789.7435913085938,799.010986328125,791.7582397460938,783.6996459960938
796,792.5640869140625,799.8168334960938,790.1465454101562,783.2966918945312
797,793.3699340820312,795.7875366210938,789.7435913085938,782.4908447265625
798,795.7875366210938,796.1904907226562,788.5347900390625,784.908447265625
799,797.3992919921875,796.996337890625,788.1318969726562,782.4908447265625
800,798.2051391601562,792.967041015625,787.7289428710938,780.4761962890625
801,802.2344360351562,797.3992919921875,793.3699340820312,792.1611938476562
802,794.981689453125,796.1904907226562,793.7728881835938,791.7582397460938
803,784.5054931640625,792.1611938476562,790.952392578125,779.2673950195312
804,791.7582397460938,789.7435913085938,793.7728881835938,786.923095703125
805,792.967041015625,790.952392578125,792.967041015625,800.6226806640625
806,784.908447265625,792.1611938476562,792.967041015625,796.996337890625
807,780.4761962890625,788.5347900390625,792.967041015625,790.1465454101562
808,783.2966918945312,787.7289428710938,795.7875366210938,790.1465454101562
809,794.981689453125,791.3552856445312,796.1904907226562,796.5933837890625
810,797.3992919921875,793.7728881835938,787.3259887695312,796.996337890625
811,793.3699340820312,794.5787353515625,792.967041015625,793.3699340820312
812,790.952392578125,792.1611938476562,792.5640869140625,793.3699340820312
813,788.937744140625,790.952392578125,785.3113403320312,789.7435913085938
814,784.908447265625,786.923095703125,787.3259887695312,779.6703491210938
815,782.4908447265625,790.952392578125,787.3259887695312,777.6557006835938
816,780.4761962890625,788.1318969726562,782.4908447265625,783.2966918945312
817,780.0732421875,783.6996459960938,782.087890625,786.923095703125
818,784.5054931640625,786.5201416015625,785.7142944335938,785.7142944335938
819,791.7582397460938,788.1318969726562,786.923095703125,783.6996459960938
820,794.5787353515625,790.1465454101562,788.937744140625,787.7289428710938
821,799.4139404296875,794.5787353515625,792.5640869140625,787.3259887695312
822,795.3846435546875,790.952392578125,793.3699340820312,782.087890625
823,788.937744140625,788.937744140625,789.7435913085938,785.3113403320312
824,790.952392578125,788.5347900390625,782.893798828125,790.1465454101562
825,796.1904907226562,790.5494384765625,783.6996459960938,790.1465454101562
826,790.5494384765625,792.1611938476562,791.3552856445312,790.5494384765625
827,786.5201416015625,791.3552856445312,791.3552856445312,791.3552856445312
828,785.3113403320312,790.952392578125,791.3552856445312,792.967041015625
829,785.3113403320312,788.1318969726562,791.3552856445312,794.1758422851562
830,790.1465454101562,784.1025390625,791.3552856445312,790.952392578125
831,796.1904907226562,788.5347900390625,789.3406372070312,786.5201416015625
832,797.8021850585938,792.967041015625,787.7289428710938,786.923095703125
833,790.1465454101562,788.937744140625,789.7435913085938,787.3259887695312
834,781.6849975585938,787.7289428710938,789.3406372070312,784.5054931640625
835,782.4908447265625,785.3113403320312,787.7289428710938,788.5347900390625
836,788.1318969726562,789.7435913085938,789.7435913085938,792.1611938476562
837,792.5640869140625,792.967041015625,791.7582397460938,784.5054931640625
838,795.3846435546875,793.3699340820312,795.3846435546875,782.4908447265625
839,798.2051391601562,791.3552856445312,799.010986328125,788.937744140625
840,803.040283203125,792.5640869140625,801.025634765625,797.8021850585938
841,803.4432373046875,797.3992919921875,799.8168334960938,795.3846435546875
842,799.8168334960938,797.3992919921875,793.7728881835938,790.952392578125
843,794.1758422851562,796.996337890625,789.7435913085938,792.5640869140625
844,789.7435913085938,795.3846435546875,786.5201416015625,787.3259887695312
845,799.010986328125,794.5787353515625,787.7289428710938,788.5347900390625
846,806.2637329101562,793.7728881835938,793.7728881835938,792.5640869140625
847,810.2930297851562,796.1904907226562,797.3992919921875,796.1904907226562
848,810.6959838867188,803.040283203125,794.1758422851562,794.1758422851562
849,797.8021850585938,796.1904907226562,790.5494384765625,787.3259887695312
850,797.8021850585938,790.1465454101562,790.1465454101562,792.5640869140625
851,801.025634765625,793.7728881835938,789.3406372070312,790.952392578125
852,796.996337890625,794.1758422851562,786.5201416015625,786.1171875
853,793.7728881835938,795.7875366210938,782.893798828125,784.908447265625
854,791.3552856445312,796.1904907226562,784.908447265625,784.1025390625
855,792.5640869140625,797.3992919921875,788.1318969726562,790.1465454101562
856,798.6080322265625,794.1758422851562,784.1025390625,793.7728881835938
857,795.7875366210938,787.3259887695312,782.893798828125,789.3406372070312
858,795.7875366210938,789.3406372070312,781.6849975585938,787.3259887695312
859,800.6226806640625,785.3113403320312,783.6996459960938,785.3113403320312
860,801.8314819335938,785.3113403320312,787.7289428710938,782.087890625
861,801.8314819335938,791.7582397460938,786.1171875,786.5201416015625
862,801.025634765625,792.1611938476562,784.908447265625,789.7435913085938
863,799.4139404296875,795.3846435546875,785.3113403320312,789.3406372070312
864,797.8021850585938,799.010986328125,787.3259887695312,793.3699340820312
865,798.6080322265625,799.4139404296875,784.5054931640625,792.967041015625
866,797.8021850585938,795.3846435546875,787.3259887695312,788.937744140625
867,797.8021850585938,788.1318969726562,789.7435913085938,789.3406372070312
868,796.996337890625,789.7435913085938,788.937744140625,788.937744140625
869,793.7728881835938,790.1465454101562,786.5201416015625,788.5347900390625
870,798.6080322265625,789.7435913085938,782.893798828125,794.1758422851562
871,802.6373901367188,788.1318969726562,782.4908447265625,794.5787353515625
872,796.1904907226562,784.1025390625,785.3113403320312,792.967041015625
873,795.7875366210938,788.937744140625,784.908447265625,795.7875366210938
874,801.8314819335938,788.5347900390625,785.3113403320312,804.2490844726562
875,799.8168334960938,786.5201416015625,785.3113403320312,799.010986328125
876,797.3992919921875,785.7142944335938,784.5054931640625,795.7875366210938
877,804.2490844726562,782.893798828125,789.3406372070312,800.6226806640625
878,805.4578857421875,784.908447265625,791.3552856445312,799.4139404296875
879,793.7728881835938,788.937744140625,790.952392578125,797.3992919921875
880,792.5640869140625,787.3259887695312,789.7435913085938,793.3699340820312
881,797.3992919921875,788.1318969726562,792.1611938476562,790.5494384765625
882,791.7582397460938,790.952392578125,797.3992919921875,791.3552856445312
883,793.7728881835938,794.1758422851562,795.7875366210938,789.7435913085938
884,799.010986328125,793.3699340820312,792.1611938476562,786.1171875
885,792.1611938476562,786.923095703125,789.7435913085938,786.5201416015625
886,785.7142944335938,783.6996459960938,786.923095703125,790.1465454101562
887,788.1318969726562,783.2966918945312,785.7142944335938,785.7142944335938
888,789.3406372070312,785.7142944335938,788.1318969726562,778.05859375
889,788.5347900390625,788.1318969726562,788.937744140625,780.4761962890625
890,788.1318969726562,786.1171875,788.1318969726562,786.923095703125
891,786.1171875,792.1611938476562,790.5494384765625,787.7289428710938
892,794.1758422851562,798.6080322265625,792.5640869140625,796.1904907226562
893,792.967041015625,796.5933837890625,793.7728881835938,798.2051391601562
894,786.1171875,794.1758422851562,790.1465454101562,789.7435913085938
895,793.7728881835938,793.3699340820312,786.923095703125,784.1025390625
896,798.6080322265625,792.1611938476562,787.3259887695312,789.3406372070312
897,801.025634765625,791.3552856445312,786.1171875,806.2637329101562
898,805.054931640625,793.7728881835938,785.3113403320312,805.4578857421875
899,799.010986328125,792.967041015625,786.5201416015625,794.981689453125
900,792.1611938476562,792.967041015625,787.7289428710938,791.7582397460938
901,796.5933837890625,795.7875366210938,788.937744140625,793.3699340820312
902,793.7728881835938,792.5640869140625,791.3552856445312,795.3846435546875
903,790.1465454101562,788.937744140625,792.5640869140625,796.1904907226562
904,790.5494384765625,790.1465454101562,789.7435913085938,795.7875366210938
905,783.2966918945312,790.1465454101562,787.7289428710938,789.7435913085938
906,784.908447265625,790.1465454101562,786.5201416015625,788.937744140625
907,788.937744140625,796.1904907226562,783.6996459960938,786.1171875
908,790.1465454101562,798.6080322265625,788.1318969726562,782.087890625
909,786.5201416015625,796.996337890625,787.3259887695312,778.05859375
910,777.6557006835938,794.981689453125,782.087890625,769.1941528320312
911,777.2527465820312,790.5494384765625,784.5054931640625,770.0
912,783.6996459960938,789.3406372070312,784.1025390625,771.6116943359375
913,777.2527465820312,786.5201416015625,776.8497924804688,764.3589477539062
914,772.0146484375,788.1318969726562,772.4176025390625,761.5384521484375
915,781.2820434570312,792.5640869140625,777.2527465820312,768.3883056640625
916,786.5201416015625,790.5494384765625,782.4908447265625,772.8204956054688
917,794.981689453125,791.7582397460938,782.4908447265625,776.0439453125
918,803.4432373046875,795.3846435546875,784.1025390625,777.6557006835938
919,802.2344360351562,790.952392578125,788.937744140625,781.2820434570312
920,796.1904907226562,788.937744140625,785.3113403320312,791.7582397460938
921,795.3846435546875,796.996337890625,788.5347900390625,790.5494384765625
922,801.8314819335938,796.1904907226562,794.1758422851562,788.937744140625
923,807.069580078125,794.1758422851562,791.3552856445312,790.5494384765625
924,801.025634765625,791.7582397460938,792.1611938476562,787.3259887695312
925,798.2051391601562,790.952392578125,793.7728881835938,789.3406372070312
926,802.2344360351562,794.1758422851562,796.5933837890625,792.5640869140625
927,798.6080322265625,791.7582397460938,795.7875366210938,794.981689453125
928,797.3992919921875,789.3406372070312,790.5494384765625,791.7582397460938
929,795.3846435546875,790.1465454101562,792.5640869140625,792.967041015625
930,783.6996459960938,790.5494384765625,796.5933837890625,794.981689453125
931,775.6410522460938,785.3113403320312,797.3992919921875,790.1465454101562
932,775.6410522460938,785.3113403320312,793.7728881835938,785.3113403320312
933,778.8644409179688,791.7582397460938,791.7582397460938,783.6996459960938
934,784.908447265625,789.3406372070312,792.967041015625,787.7289428710938
935,776.4468994140625,782.893798828125,790.1465454101562,777.2527465820312
936,777.6557006835938,790.1465454101562,788.5347900390625,772.8204956054688
937,786.923095703125,793.7728881835938,786.1171875,781.6849975585938
938,784.908447265625,790.1465454101562,782.893798828125,784.5054931640625
939,786.5201416015625,784.1025390625,784.5054931640625,786.5201416015625
940,787.7289428710938,782.893798828125,786.5201416015625,782.087890625
941,795.3846435546875,787.3259887695312,785.7142944335938,786.5201416015625
942,801.025634765625,785.7142944335938,784.5054931640625,793.7728881835938
943,804.2490844726562,783.6996459960938,783.6996459960938,792.5640869140625
944,803.8461303710938,784.908447265625,784.1025390625,789.7435913085938
945,802.6373901367188,784.908447265625,784.908447265625,788.937744140625
946,800.6226806640625,784.5054931640625,783.6996459960938,788.5347900390625
947,800.6226806640625,784.1025390625,786.1171875,791.3552856445312
948,795.3846435546875,786.5201416015625,786.1171875,792.5640869140625
949,796.1904907226562,786.1171875,785.7142944335938,784.1025390625
950,800.6226806640625,783.2966918945312,786.923095703125,784.1025390625
951,794.1758422851562,788.1318969726562,790.1465454101562,792.5640869140625
952,787.7289428710938,791.7582397460938,792.5640869140625,789.7435913085938
953,788.937744140625,789.3406372070312,790.1465454101562,789.7435913085938
954,791.7582397460938,786.1171875,789.7435913085938,790.952392578125
955,783.6996459960938,782.893798828125,790.952392578125,782.893798828125
956,781.6849975585938,787.7289428710938,794.981689453125,784.5054931640625
957,781.6849975585938,787.3259887695312,795.7875366210938,787.7289428710938
958,780.879150390625,785.3113403320312,794.5787353515625,794.1758422851562
959,782.087890625,791.7582397460938,794.981689453125,796.996337890625
960,783.6996459960938,795.7875366210938,796.1904907226562,790.952392578125
961,786.1171875,796.5933837890625,792.967041015625,784.5054931640625
962,792.5640869140625,790.952392578125,792.5640869140625,784.5054931640625
963,797.8021850585938,787.3259887695312,790.952392578125,786.5201416015625
964,794.5787353515625,790.952392578125,784.908447265625,778.4615478515625
965,794.1758422851562,788.937744140625,788.937744140625,779.6703491210938
966,794.1758422851562,784.908447265625,790.1465454101562,781.6849975585938
967,792.5640869140625,782.893798828125,783.6996459960938,780.4761962890625
968,801.4285888671875,790.5494384765625,782.4908447265625,784.5054931640625
969,804.6520385742188,790.5494384765625,782.4908447265625,786.923095703125
970,802.2344360351562,782.4908447265625,781.2820434570312,796.5933837890625
971,801.4285888671875,784.1025390625,781.2820434570312,798.6080322265625
972,798.2051391601562,787.3259887695312,786.1171875,792.967041015625
973,797.8021850585938,791.3552856445312,787.3259887695312,791.7582397460938
974,797.3992919921875,794.1758422851562,784.1025390625,792.1611938476562
975,796.5933837890625,792.5640869140625,784.5054931640625,796.5933837890625
976,793.7728881835938,789.7435913085938,787.7289428710938,792.5640869140625
977,790.1465454101562,788.5347900390625,789.3406372070312,794.1758422851562
978,794.1758422851562,790.952392578125,788.1318969726562,800.6226806640625
979,791.7582397460938,789.3406372070312,786.923095703125,795.3846435546875
980,785.3113403320312,786.5201416015625,788.937744140625,788.5347900390625
981,784.5054931640625,789.3406372070312,794.981689453125,793.3699340820312
982,775.2380981445312,790.1465454101562,793.3699340820312,790.1465454101562
983,768.3883056640625,787.3259887695312,788.1318969726562,781.2820434570312
984,770.8058471679688,783.2966918945312,786.5201416015625,782.893798828125
985,773.6264038085938,785.7142944335938,789.3406372070312,785.3113403320312
986,776.4468994140625,788.5347900390625,793.3699340820312,785.3113403320312
987,774.4322509765625,790.952392578125,792.967041015625,788.5347900390625
988,778.4615478515625,794.1758422851562,791.7582397460938,792.1611938476562
989,789.3406372070312,788.937744140625,789.7435913085938,787.3259887695312
990,790.952392578125,788.1318969726562,784.1025390625,784.1025390625
991,794.1758422851562,794.5787353515625,784.1025390625,787.7289428710938
992,799.010986328125,794.1758422851562,781.2820434570312,792.967041015625
993,801.8314819335938,787.7289428710938,782.893798828125,796.1904907226562
994,808.6813354492188,788.5347900390625,786.1171875,791.3552856445312
995,808.6813354492188,792.1611938476562,782.893798828125,787.3259887695312
996,803.8461303710938,793.3699340820312,781.2820434570312,786.1171875
997,807.069580078125,796.5933837890625,781.2820434570312,787.3259887695312
998,807.4725341796875,784.908447265625,785.3113403320312,790.5494384765625
999,804.6520385742188,785.3113403320312,789.3406372070312,792.5640869140625
1000,810.2930297851562,792.967041015625,792.967041015625,796.996337890625
1001,809.89013671875,792.5640869140625,796.1904907226562,799.8168334960938
1002,799.4139404296875,789.3406372070312,794.1758422851562,796.996337890625
1003,798.6080322265625,784.908447265625,794.5787353515625,799.4139404296875
1004,792.1611938476562,780.879150390625,793.3699340820312,807.069580078125
1005,780.4761962890625,780.4761962890625,794.981689453125,803.8461303710938
1006,778.8644409179688,785.3113403320312,796.5933837890625,796.1904907226562
1007,782.4908447265625,786.5201416015625,793.7728881835938,790.1465454101562
1008,788.1318969726562,787.7289428710938,797.8021850585938,790.1465454101562
1009,791.3552856445312,792.967041015625,793.3699340820312,792.967041015625
1010,793.3699340820312,789.3406372070312,788.5347900390625,794.5787353515625
1011,794.5787353515625,786.1171875,792.5640869140625,792.1611938476562
1012,796.1904907226562,787.3259887695312,790.952392578125,790.1465454101562
1013,803.4432373046875,785.3113403320312,791.3552856445312,788.1318969726562
1014,808.2783813476562,790.1465454101562,794.981689453125,784.908447265625
1015,803.8461303710938,794.981689453125,793.7728881835938,787.7289428710938
1016,801.025634765625,790.952392578125,790.1465454101562,792.5640869140625
1017,803.040283203125,792.5640869140625,786.923095703125,786.5201416015625
1018,790.952392578125,789.7435913085938,783.2966918945312,778.4615478515625
1019,789.3406372070312,784.1025390625,780.4761962890625,778.8644409179688
1020,791.7582397460938,785.3113403320312,778.05859375,780.0732421875
1021,783.2966918945312,780.0732421875,775.6410522460938,778.4615478515625
1022,793.7728881835938,782.087890625,780.0732421875,781.6849975585938
1023,798.6080322265625,784.5054931640625,783.6996459960938,785.7142944335938
1024,795.3846435546875,783.6996459960938,783.6996459960938,786.923095703125
1025,796.996337890625,780.0732421875,783.6996459960938,790.952392578125
1026,795.3846435546875,776.8497924804688,786.923095703125,800.2197875976562
1027,791.7582397460938,781.2820434570312,786.923095703125,800.6226806640625
1028,794.1758422851562,785.7142944335938,790.1465454101562,800.2197875976562
1029,799.8168334960938,788.1318969726562,796.5933837890625,794.981689453125
1030,799.4139404296875,786.5201416015625,797.8021850585938,796.5933837890625
1031,794.981689453125,787.7289428710938,794.5787353515625,803.4432373046875
1032,790.952392578125,792.1611938476562,791.3552856445312,792.967041015625
1033,789.7435913085938,789.7435913085938,788.5347900390625,785.3113403320312
1034,794.981689453125,790.952392578125,788.5347900390625,788.1318969726562
1035,799.010986328125,795.3846435546875,786.5201416015625,787.3259887695312
1036,799.4139404296875,796.5933837890625,784.908447265625,786.923095703125
1037,797.3992919921875,794.981689453125,784.5054931640625,787.3259887695312
1038,794.1758422851562,793.3699340820312,784.5054931640625,785.3113403320312
1039,794.981689453125,794.5787353515625,782.087890625,788.5347900390625
1040,796.1904907226562,797.3992919921875,781.2820434570312,789.3406372070312
1041,794.5787353515625,794.5787353515625,783.6996459960938,788.937744140625
1042,790.1465454101562,791.7582397460938,786.1171875,780.4761962890625
1043,792.967041015625,796.1904907226562,786.1171875,781.6849975585938
1044,795.3846435546875,794.981689453125,782.4908447265625,777.2527465820312
1045,798.2051391601562,796.5933837890625,780.0732421875,772.8204956054688
1046,798.2051391601562,795.7875366210938,780.879150390625,778.05859375
1047,794.5787353515625,788.5347900390625,783.6996459960938,777.6557006835938
1048,797.3992919921875,789.7435913085938,786.5201416015625,779.2673950195312
1049,796.996337890625,794.1758422851562,790.1465454101562,783.6996459960938
1050,796.1904907226562,794.5787353515625,790.952392578125,786.923095703125
1051,796.5933837890625,791.3552856445312,789.3406372070312,783.6996459960938
1052,798.6080322265625,789.3406372070312,790.5494384765625,784.1025390625
1053,795.3846435546875,789.3406372070312,788.1318969726562,784.908447265625
1054,786.1171875,782.4908447265625,786.923095703125,781.2820434570312
1055,782.893798828125,782.087890625,789.7435913085938,786.5201416015625
1056,783.2966918945312,781.6849975585938,788.5347900390625,784.908447265625
1057,784.908447265625,780.879150390625,786.1171875,780.879150390625
1058,782.893798828125,782.087890625,792.5640869140625,777.2527465820312
1059,786.5201416015625,784.1025390625,798.6080322265625,778.05859375
1060,786.923095703125,783.2966918945312,791.7582397460938,780.0732421875
1061,784.908447265625,782.4908447265625,790.952392578125,781.2820434570312
1062,784.1025390625,784.1025390625,792.1611938476562,782.4908447265625
1063,780.4761962890625,783.6996459960938,790.1465454101562,776.0439453125
1064,784.908447265625,784.5054931640625,792.5640869140625,772.4176025390625
1065,789.3406372070312,783.2966918945312,793.3699340820312,774.4322509765625
1066,786.923095703125,785.7142944335938,793.3699340820312,781.2820434570312
1067,782.893798828125,788.937744140625,791.3552856445312,776.8497924804688
1068,784.5054931640625,790.1465454101562,785.3113403320312,771.2088012695312
1069,782.893798828125,790.5494384765625,784.1025390625,772.8204956054688
1070,781.2820434570312,794.981689453125,784.908447265625,770.8058471679688
1071,787.7289428710938,797.3992919921875,784.5054931640625,774.029296875
1072,787.3259887695312,792.5640869140625,781.6849975585938,774.8351440429688
1073,790.952392578125,790.1465454101562,780.0732421875,776.4468994140625
1074,799.8168334960938,793.3699340820312,784.1025390625,781.6849975585938
1075,801.8314819335938,793.3699340820312,782.087890625,783.2966918945312
1076,797.8021850585938,788.937744140625,782.087890625,787.3259887695312
1077,795.7875366210938,789.7435913085938,782.893798828125,794.5787353515625
1078,791.7582397460938,790.1465454101562,783.2966918945312,794.1758422851562
1079,784.5054931640625,789.7435913085938,782.4908447265625,784.908447265625
1080,789.3406372070312,786.1171875,780.879150390625,786.1171875
1081,794.981689453125,786.5201416015625,781.2820434570312,792.5640869140625
1082,794.981689453125,790.952392578125,786.5201416015625,796.996337890625
1083,796.5933837890625,791.3552856445312,791.7582397460938,798.2051391601562
1084,792.967041015625,792.1611938476562,786.923095703125,799.4139404296875
1085,789.7435913085938,788.937744140625,787.3259887695312,803.8461303710938
1086,795.3846435546875,786.5201416015625,789.7435913085938,803.040283203125
1087,796.5933837890625,788.5347900390625,788.5347900390625,796.5933837890625
1088,787.7289428710938,786.5201416015625,790.1465454101562,789.7435913085938
1089,786.1171875,786.5201416015625,794.981689453125,792.967041015625
1090,791.3552856445312,787.7289428710938,795.3846435546875,794.1758422851562
1091,787.7289428710938,782.893798828125,790.1465454101562,788.937744140625
1092,789.3406372070312,784.1025390625,790.952392578125,786.5201416015625
1093,791.7582397460938,787.3259887695312,792.967041015625,784.5054931640625
1094,786.5201416015625,788.5347900390625,798.6080322265625,782.087890625
1095,791.3552856445312,793.3699340820312,804.6520385742188,783.2966918945312
1096,796.996337890625,793.7728881835938,805.8607788085938,788.937744140625
1097,790.952392578125,792.5640869140625,799.010986328125,789.7435913085938
1098,785.7142944335938,792.1611938476562,792.5640869140625,787.3259887695312
1099,785.7142944335938,790.952392578125,792.967041015625,782.4908447265625
1100,786.1171875,796.5933837890625,792.5640869140625,780.879150390625
1101,788.937744140625,798.6080322265625,792.5640869140625,785.3113403320312
1102,794.981689453125,796.1904907226562,792.5640869140625,784.1025390625
1103,807.4725341796875,799.4139404296875,797.3992919921875,786.5201416015625
1104,811.098876953125,800.6226806640625,800.2197875976562,792.5640869140625
1105,807.4725341796875,798.6080322265625,798.2051391601562,791.7582397460938
1106,805.054931640625,804.6520385742188,794.981689453125,794.5787353515625
1107,807.069580078125,803.8461303710938,796.996337890625,794.5787353515625
1108,811.5018310546875,795.3846435546875,794.5787353515625,795.7875366210938
1109,809.084228515625,803.4432373046875,788.937744140625,798.2051391601562
1110,802.6373901367188,800.2197875976562,791.7582397460938,795.3846435546875
1111,803.040283203125,794.1758422851562,789.3406372070312,799.8168334960938
1112,804.2490844726562,798.2051391601562,788.1318969726562,801.025634765625
1113,803.040283203125,796.5933837890625,792.5640869140625,799.4139404296875
1114,797.3992919921875,795.3846435546875,795.3846435546875,794.5787353515625
1115,786.923095703125,794.981689453125,797.8021850585938,793.3699340820312
1116,786.923095703125,793.7728881835938,799.010986328125,792.967041015625
1117,796.1904907226562,792.5640869140625,803.8461303710938,793.3699340820312
1118,799.8168334960938,791.3552856445312,804.6520385742188,790.952392578125
1119,795.3846435546875,791.3552856445312,803.040283203125,790.5494384765625
1120,795.3846435546875,791.7582397460938,805.8607788085938,797.3992919921875
1121,797.3992919921875,789.7435913085938,803.040283203125,791.3552856445312
1122,795.3846435546875,788.5347900390625,798.6080322265625,782.4908447265625
1123,792.1611938476562,791.3552856445312,799.4139404296875,784.1025390625
1124,801.025634765625,794.981689453125,802.6373901367188,791.3552856445312
1125,810.2930297851562,796.1904907226562,804.2490844726562,791.7582397460938
1126,798.6080322265625,792.1611938476562,797.8021850585938,784.1025390625
1127,788.5347900390625,788.937744140625,793.3699340820312,782.087890625
1128,792.967041015625,787.7289428710938,795.7875366210938,785.7142944335938
1129,786.1171875,787.3259887695312,795.3846435546875,786.5201416015625
1130,786.1171875,785.3113403320312,796.1904907226562,784.908447265625
1131,792.967041015625,784.908447265625,790.5494384765625,790.5494384765625
1132,795.7875366210938,787.7289428710938,787.3259887695312,795.3846435546875
1133,802.2344360351562,792.967041015625,792.967041015625,794.5787353515625
1134,797.8021850585938,796.1904907226562,791.3552856445312,790.952392578125
1135,789.7435913085938,792.967041015625,789.7435913085938,790.1465454101562
1136,787.7289428710938,791.3552856445312,792.1611938476562,791.3552856445312
1137,793.7728881835938,789.3406372070312,794.5787353515625,790.5494384765625
1138,799.010986328125,791.7582397460938,794.981689453125,795.3846435546875
1139,793.3699340820312,794.981689453125,791.7582397460938,798.2051391601562
1140,791.7582397460938,794.5787353515625,788.937744140625,792.5640869140625
1141,785.3113403320312,792.5640869140625,789.7435913085938,789.3406372070312
1142,786.5201416015625,791.3552856445312,790.5494384765625,793.3699340820312
1143,794.1758422851562,788.5347900390625,787.7289428710938,789.7435913085938
1144,796.1904907226562,788.1318969726562,789.7435913085938,781.6849975585938
1145,796.5933837890625,790.952392578125,786.5201416015625,781.2820434570312
1146,792.1611938476562,790.1465454101562,786.923095703125,786.923095703125
1147,799.8168334960938,790.1465454101562,791.7582397460938,793.7728881835938
1148,802.2344360351562,796.5933837890625,790.1465454101562,793.3699340820312
1149,789.3406372070312,792.967041015625,787.7289428710938,784.5054931640625
1150,788.1318969726562,786.1171875,790.1465454101562,785.7142944335938
1151,791.3552856445312,786.923095703125,793.3699340820312,792.967041015625
1152,783.2966918945312,786.1171875,792.1611938476562,789.3406372070312
1153,781.6849975585938,784.5054931640625,790.5494384765625,790.5494384765625
1154,788.937744140625,792.967041015625,792.1611938476562,791.7582397460938
1155,786.5201416015625,796.996337890625,792.967041015625,790.952392578125
1156,786.5201416015625,794.981689453125,789.7435913085938,788.5347900390625
1157,795.3846435546875,796.1904907226562,790.952392578125,786.5201416015625
1158,795.7875366210938,792.967041015625,792.5640869140625,789.3406372070312
1159,790.952392578125,786.5201416015625,791.3552856445312,785.3113403320312
1160,789.7435913085938,787.3259887695312,795.7875366210938,783.2966918945312
1161,785.7142944335938,795.3846435546875,797.8021850585938,785.7142944335938
1162,788.1318969726562,792.967041015625,796.1904907226562,786.923095703125
1163,790.1465454101562,788.937744140625,796.996337890625,782.4908447265625
1164,788.937744140625,793.3699340820312,798.2051391601562,786.1171875
1165,785.3113403320312,788.1318969726562,796.996337890625,784.1025390625
1166,780.4761962890625,783.6996459960938,787.3259887695312,774.8351440429688
1167,781.2820434570312,780.879150390625,782.087890625,776.8497924804688
1168,785.3113403320312,779.2673950195312,785.3113403320312,778.4615478515625
1169,794.5787353515625,787.7289428710938,788.937744140625,786.1171875
1170,794.1758422851562,787.3259887695312,788.5347900390625,790.1465454101562
1171,795.3846435546875,788.937744140625,792.967041015625,789.7435913085938
1172,795.7875366210938,792.1611938476562,794.981689453125,788.1318969726562
1173,792.967041015625,786.5201416015625,790.5494384765625,791.3552856445312
1174,798.6080322265625,791.7582397460938,789.3406372070312,797.3992919921875
1175,794.981689453125,791.7582397460938,787.3259887695312,789.3406372070312
1176,792.1611938476562,787.7289428710938,786.1171875,785.3113403320312
1177,795.3846435546875,787.7289428710938,788.937744140625,783.2966918945312
1178,793.3699340820312,788.1318969726562,790.1465454101562,785.3113403320312
1179,796.5933837890625,791.3552856445312,790.5494384765625,789.3406372070312
1180,798.2051391601562,796.996337890625,792.5640869140625,790.1465454101562
1181,793.7728881835938,794.1758422851562,788.1318969726562,785.7142944335938
1182,786.1171875,794.1758422851562,786.5201416015625,784.1025390625
1183,790.5494384765625,798.2051391601562,789.7435913085938,788.5347900390625
1184,792.967041015625,796.1904907226562,787.3259887695312,789.3406372070312
1185,792.5640869140625,794.1758422851562,787.7289428710938,801.8314819335938
1186,790.5494384765625,791.7582397460938,787.7289428710938,796.5933837890625
1187,789.3406372070312,792.5640869140625,786.923095703125,778.4615478515625
1188,794.981689453125,799.010986328125,788.1318969726562,782.4908447265625
1189,802.6373901367188,795.3846435546875,788.1318969726562,784.908447265625
1190,809.4871826171875,789.7435913085938,789.7435913085938,782.4908447265625
1191,810.6959838867188,789.7435913085938,790.5494384765625,782.893798828125
1192,804.2490844726562,789.3406372070312,787.3259887695312,783.6996459960938
1193,798.6080322265625,788.937744140625,788.937744140625,780.0732421875
1194,794.5787353515625,786.5201416015625,790.1465454101562,779.6703491210938
1195,787.7289428710938,782.4908447265625,785.7142944335938,778.4615478515625
1196,782.893798828125,781.2820434570312,784.908447265625,782.087890625
1197,781.2820434570312,784.1025390625,789.7435913085938,788.5347900390625
1198,784.908447265625,787.3259887695312,791.7582397460938,786.5201416015625
1199,785.7142944335938,786.1171875,794.5787353515625,792.1611938476562
1200,780.879150390625,784.5054931640625,791.3552856445312,790.5494384765625
1201,782.893798828125,781.6849975585938,789.3406372070312,786.1171875
1202,781.6849975585938,783.6996459960938,790.1465454101562,786.923095703125
1203,776.4468994140625,783.2966918945312,787.7289428710938,781.2820434570312
1204,784.1025390625,782.4908447265625,790.1465454101562,781.6849975585938
1205,790.1465454101562,790.5494384765625,796.996337890625,787.3259887695312
1206,783.2966918945312,791.3552856445312,798.2051391601562,788.5347900390625
1207,788.937744140625,781.6849975585938,794.5787353515625,784.5054931640625
1208,792.967041015625,781.2820434570312,789.3406372070312,786.5201416015625
1209,785.7142944335938,787.7289428710938,786.5201416015625,782.893798828125
1210,787.7289428710938,781.2820434570312,786.5201416015625,780.879150390625
1211,786.1171875,782.087890625,785.7142944335938,778.8644409179688
1212,783.6996459960938,788.5347900390625,786.1171875,779.6703491210938
1213,785.7142944335938,788.5347900390625,788.937744140625,786.1171875
1214,786.5201416015625,788.937744140625,783.6996459960938,785.7142944335938
1215,794.1758422851562,787.7289428710938,781.2820434570312,785.7142944335938
1216,789.3406372070312,785.7142944335938,786.1171875,783.6996459960938
1217,783.2966918945312,788.5347900390625,788.937744140625,782.893798828125
1218,788.5347900390625,787.7289428710938,787.7289428710938,781.2820434570312
1219,788.5347900390625,783.6996459960938,786.923095703125,780.0732421875
1220,784.908447265625,784.5054931640625,785.7142944335938,784.1025390625
1221,774.4322509765625,783.2966918945312,784.1025390625,777.6557006835938
1222,772.8204956054688,783.2966918945312,784.5054931640625,778.4615478515625
1223,779.2673950195312,782.087890625,780.4761962890625,778.4615478515625
1224,786.1171875,779.6703491210938,780.4761962890625,776.8497924804688
1225,788.5347900390625,780.0732421875,786.923095703125,781.6849975585938
1226,792.967041015625,782.893798828125,787.3259887695312,787.3259887695312
1227,792.5640869140625,784.908447265625,785.7142944335938,789.3406372070312
1228,782.087890625,785.3113403320312,786.5201416015625,769.5970458984375
1229,781.2820434570312,785.7142944335938,786.5201416015625,769.1941528320312
1230,786.1171875,787.3259887695312,782.893798828125,777.6557006835938
1231,790.5494384765625,789.3406372070312,782.087890625,774.4322509765625
1232,794.1758422851562,783.2966918945312,782.893798828125,774.4322509765625
1233,791.7582397460938,784.5054931640625,784.908447265625,778.4615478515625
1234,785.7142944335938,790.952392578125,786.923095703125,778.8644409179688
1235,779.6703491210938,788.1318969726562,786.1171875,778.05859375
1236,775.6410522460938,785.3113403320312,784.5054931640625,782.893798828125
1237,780.879150390625,782.893798828125,784.5054931640625,784.908447265625
1238,794.5787353515625,782.4908447265625,784.1025390625,788.937744140625
1239,796.996337890625,784.1025390625,787.3259887695312,793.3699340820312
1240,793.3699340820312,783.6996459960938,790.1465454101562,790.1465454101562
1241,796.1904907226562,782.893798828125,787.7289428710938,792.967041015625
1242,792.5640869140625,776.4468994140625,787.7289428710938,790.5494384765625
1243,782.893798828125,776.8497924804688,788.5347900390625,784.1025390625
1244,782.4908447265625,781.2820434570312,789.3406372070312,778.4615478515625
1245,791.3552856445312,784.1025390625,789.3406372070312,778.8644409179688
1246,796.1904907226562,785.3113403320312,784.908447265625,784.1025390625
1247,795.3846435546875,783.2966918945312,787.3259887695312,783.2966918945312
1248,792.5640869140625,788.1318969726562,790.5494384765625,786.923095703125
1249,788.1318969726562,788.937744140625,792.967041015625,789.7435913085938
1250,788.1318969726562,788.1318969726562,795.3846435546875,787.7289428710938
1251,786.923095703125,790.952392578125,789.3406372070312,782.893798828125
1252,787.3259887695312,788.937744140625,790.1465454101562,781.6849975585938
1253,792.1611938476562,788.5347900390625,794.1758422851562,788.5347900390625
1254,788.1318969726562,785.7142944335938,793.7728881835938,793.7728881835938
1255,789.3406372070312,787.3259887695312,796.1904907226562,796.996337890625
1256,790.952392578125,791.3552856445312,797.3992919921875,792.967041015625
1257,792.967041015625,788.5347900390625,798.6080322265625,793.7728881835938
1258,790.5494384765625,788.1318969726562,798.2051391601562,799.010986328125
1259,782.893798828125,788.1318969726562,792.5640869140625,793.7728881835938
1260,784.908447265625,784.1025390625,787.3259887695312,780.0732421875
1261,789.7435913085938,788.1318969726562,788.5347900390625,780.4761962890625
1262,788.5347900390625,791.7582397460938,795.3846435546875,785.7142944335938
1263,790.1465454101562,788.1318969726562,796.996337890625,784.908447265625
1264,792.967041015625,791.7582397460938,792.967041015625,785.3113403320312
1265,798.2051391601562,796.996337890625,790.5494384765625,789.3406372070312
1266,797.8021850585938,790.5494384765625,792.5640869140625,790.952392578125
1267,790.5494384765625,790.5494384765625,789.3406372070312,784.5054931640625
1268,788.1318969726562,794.1758422851562,784.908447265625,779.6703491210938
1269,791.3552856445312,791.3552856445312,787.3259887695312,786.5201416015625
1270,797.3992919921875,788.937744140625,790.5494384765625,792.1611938476562
1271,804.2490844726562,791.3552856445312,794.1758422851562,784.5054931640625
1272,798.2051391601562,795.7875366210938,792.967041015625,781.2820434570312
1273,787.7289428710938,797.3992919921875,794.981689453125,783.6996459960938
1274,788.5347900390625,796.996337890625,796.996337890625,786.1171875
1275,792.5640869140625,798.6080322265625,796.5933837890625,788.1318969726562
1276,799.8168334960938,800.6226806640625,804.2490844726562,794.1758422851562
1277,796.1904907226562,799.4139404296875,806.2637329101562,792.967041015625
1278,783.6996459960938,793.3699340820312,801.025634765625,778.05859375
1279,785.3113403320312,799.8168334960938,796.1904907226562,774.8351440429688
1280,784.1025390625,804.6520385742188,789.7435913085938,775.6410522460938
1281,775.6410522460938,799.8168334960938,788.937744140625,761.94140625
1282,775.2380981445312,803.4432373046875,787.7289428710938,753.076904296875
1283,772.0146484375,814.7252807617188,784.908447265625,751.4652099609375
1284,753.076904296875,821.1721801757812,774.8351440429688,743.8095092773438
1285,746.2271118164062,830.03662109375,775.6410522460938,734.945068359375
1286,750.6593627929688,849.3773193359375,782.893798828125,733.3333129882812
1287,734.945068359375,854.6153564453125,770.4029541015625,724.06591796875
1288,709.96337890625,855.4212646484375,766.3735961914062,703.91943359375
1289,689.4139404296875,857.8388061523438,774.029296875,687.8021850585938
1290,676.923095703125,863.076904296875,786.5201416015625,664.029296875
1291,661.2088012695312,867.5091552734375,780.0732421875,639.047607421875
1292,645.8974609375,866.3003540039062,777.6557006835938,637.032958984375
1293,632.6007080078125,866.7033081054688,787.7289428710938,634.6153564453125
1294,609.6337280273438,861.8681030273438,789.7435913085938,603.1868286132812
1295,611.2454223632812,865.091552734375,791.7582397460938,599.1575317382812
1296,624.5421142578125,867.106201171875,794.1758422851562,614.8717651367188
1297,622.5274658203125,859.047607421875,797.8021850585938,613.2600708007812
1298,610.8424682617188,855.8241577148438,800.6226806640625,601.5750732421875
1299,616.4835205078125,852.6007080078125,799.010986328125,610.4395751953125
1300,619.3040161132812,847.7655639648438,798.2051391601562,623.7362670898438
1301,613.6630249023438,840.915771484375,797.3992919921875,617.2893676757812
1302,614.4688720703125,837.2893676757812,802.6373901367188,621.3186645507812
1303,625.3479614257812,834.4688720703125,803.4432373046875,635.018310546875
1304,637.4359130859375,833.2600708007812,805.054931640625,648.7179565429688
1305,641.062255859375,830.8424682617188,808.6813354492188,653.9560546875
1306,651.1355590820312,829.6337280273438,807.4725341796875,662.0146484375
1307,672.893798828125,828.8278198242188,810.6959838867188,677.7289428710938
1308,684.5787353515625,828.4249267578125,810.6959838867188,691.8314819335938
1309,691.8314819335938,823.99267578125,811.098876953125,706.3369750976562
1310,713.1868286132812,826.4102783203125,809.4871826171875,725.2747192382812
1311,723.6630249023438,832.4542236328125,803.8461303710938,730.5128173828125
1312,734.1392211914062,828.4249267578125,797.3992919921875,735.7509155273438
1313,751.062255859375,827.2161254882812,794.5787353515625,746.6300659179688
1314,763.1502075195312,825.6043701171875,797.8021850585938,760.7326049804688
1315,766.7765502929688,821.97802734375,797.8021850585938,774.8351440429688
1316,765.5677490234375,815.1282348632812,800.2197875976562,776.0439453125
1317,774.4322509765625,805.4578857421875,800.6226806640625,778.8644409179688
1318,786.1171875,800.2197875976562,793.3699340820312,791.7582397460938
1319,788.1318969726562,794.1758422851562,792.5640869140625,791.3552856445312
1320,791.7582397460938,786.923095703125,797.3992919921875,790.952392578125
1321,791.3552856445312,784.908447265625,795.3846435546875,793.7728881835938
1322,800.6226806640625,775.2380981445312,793.7728881835938,799.010986328125
1323,812.3076782226562,770.0,794.1758422851562,809.89013671875
1324,812.7106323242188,771.2088012695312,792.967041015625,814.7252807617188
1325,815.1282348632812,771.2088012695312,796.996337890625,821.97802734375
1326,818.7545776367188,768.3883056640625,799.4139404296875,826.00732421875
1327,830.4395751953125,767.1795043945312,797.3992919921875,838.4981689453125
1328,839.3040161132812,766.7765502929688,794.981689453125,841.7216186523438
1329,839.3040161132812,764.3589477539062,790.5494384765625,828.8278198242188
1330,838.09521484375,763.1502075195312,791.3552856445312,834.8717651367188
1331,847.3626098632812,765.1648559570312,792.5640869140625,846.959716796875
1332,853.003662109375,765.1648559570312,790.952392578125,840.5128173828125
1333,844.5421142578125,759.120849609375,790.1465454101562,844.5421142578125
1334,838.4981689453125,755.8974609375,785.3113403320312,848.1685180664062
1335,836.4835205078125,755.8974609375,781.6849975585938,836.08056640625
1336,841.3186645507812,752.2710571289062,777.6557006835938,835.6776733398438
1337,842.930419921875,747.4359130859375,773.2234497070312,835.2747192382812
1338,844.5421142578125,749.4505615234375,775.6410522460938,836.886474609375
1339,850.1831665039062,757.912109375,782.893798828125,846.1538696289062
1340,849.3773193359375,760.7326049804688,787.7289428710938,850.989013671875
1341,854.6153564453125,755.4945068359375,791.3552856445312,847.7655639648438
1342,861.4652099609375,755.091552734375,792.1611938476562,852.6007080078125
1343,859.4505615234375,759.120849609375,789.7435913085938,857.032958984375
1344,856.6300659179688,755.4945068359375,785.3113403320312,847.3626098632812
1345,861.062255859375,755.8974609375,786.923095703125,850.1831665039062
1346,859.8534545898438,757.5091552734375,790.5494384765625,863.8828125
1347,853.8095092773438,755.091552734375,792.5640869140625,869.120849609375
1348,854.2124633789062,759.9267578125,791.7582397460938,865.091552734375
1349,858.2417602539062,759.5238037109375,793.7728881835938,859.047607421875
1350,856.2271118164062,757.106201171875,795.3846435546875,861.062255859375
1351,858.2417602539062,756.7033081054688,792.967041015625,861.4652099609375
1352,860.6593627929688,760.7326049804688,792.5640869140625,852.1978149414062
1353,861.8681030273438,767.9853515625,792.5640869140625,857.032958984375
1354,859.047607421875,765.970703125,790.952392578125,862.2710571289062
1355,858.6447143554688,763.9560546875,792.1611938476562,849.3773193359375
1356,859.4505615234375,765.970703125,796.996337890625,846.959716796875
1357,849.3773193359375,766.7765502929688,796.1904907226562,850.5860595703125
1358,849.7802124023438,767.9853515625,795.7875366210938,849.3773193359375
1359,848.974365234375,765.1648559570312,796.5933837890625,848.1685180664062
1360,836.4835205078125,765.970703125,797.8021850585938,845.7509155273438
1361,837.2893676757812,771.2088012695312,791.7582397460938,841.7216186523438
1362,844.1392211914062,775.2380981445312,791.3552856445312,838.4981689453125
1363,846.959716796875,773.6264038085938,794.981689453125,839.3040161132812
1364,840.915771484375,765.5677490234375,793.7728881835938,834.06591796875
1365,836.08056640625,767.9853515625,792.967041015625,827.2161254882812
1366,837.2893676757812,779.2673950195312,793.7728881835938,828.4249267578125
1367,843.3333129882812,780.0732421875,799.010986328125,829.6337280273438
1368,842.930419921875,772.8204956054688,797.3992919921875,827.6190185546875
1369,841.7216186523438,768.7911987304688,792.5640869140625,822.7838745117188
1370,836.08056640625,772.4176025390625,792.5640869140625,819.96337890625
1371,830.03662109375,775.2380981445312,794.981689453125,821.5750732421875
1372,820.3662719726562,774.4322509765625,797.8021850585938,819.1575317382812
1373,815.5311279296875,772.4176025390625,795.7875366210938,813.5164794921875
1374,817.5457763671875,770.8058471679688,792.5640869140625,813.113525390625
1375,815.1282348632812,772.8204956054688,790.952392578125,812.3076782226562
1376,823.99267578125,777.2527465820312,792.1611938476562,815.5311279296875
1377,835.2747192382812,775.6410522460938,793.3699340820312,826.4102783203125
1378,836.4835205078125,774.029296875,796.5933837890625,819.96337890625
1379,827.6190185546875,776.0439453125,799.8168334960938,807.069580078125
1380,826.4102783203125,779.2673950195312,801.8314819335938,811.90478515625
1381,829.6337280273438,786.1171875,799.4139404296875,818.7545776367188
1382,822.7838745117188,784.5054931640625,796.5933837890625,815.93408203125
1383,815.5311279296875,780.4761962890625,803.4432373046875,821.5750732421875
1384,813.113525390625,781.6849975585938,810.2930297851562,830.8424682617188
1385,813.5164794921875,784.5054931640625,808.6813354492188,826.8131713867188
1386,810.6959838867188,782.4908447265625,803.4432373046875,816.3369750976562
1387,807.4725341796875,780.879150390625,800.6226806640625,811.098876953125
1388,809.084228515625,780.879150390625,799.010986328125,811.90478515625
1389,813.113525390625,778.8644409179688,798.6080322265625,809.89013671875
1390,808.6813354492188,778.4615478515625,793.7728881835938,798.6080322265625
1391,806.2637329101562,781.6849975585938,793.3699340820312,801.025634765625
1392,808.2783813476562,776.8497924804688,792.1611938476562,807.4725341796875
1393,812.7106323242188,775.2380981445312,788.5347900390625,809.084228515625
1394,819.5604248046875,781.2820434570312,793.7728881835938,811.098876953125
1395,811.90478515625,784.5054931640625,794.981689453125,807.4725341796875
1396,800.2197875976562,783.2966918945312,793.7728881835938,801.025634765625
1397,801.8314819335938,781.6849975585938,796.1904907226562,796.996337890625
1398,804.2490844726562,780.0732421875,795.3846435546875,799.8168334960938
1399,799.8168334960938,778.8644409179688,792.1611938476562,799.8168334960938
1400,807.069580078125,783.2966918945312,794.981689453125,803.8461303710938
1401,803.4432373046875,788.1318969726562,796.1904907226562,801.4285888671875
1402,800.2197875976562,788.1318969726562,799.010986328125,805.054931640625
1403,806.6666870117188,785.3113403320312,800.6226806640625,809.89013671875
1404,814.7252807617188,780.0732421875,799.4139404296875,810.6959838867188
1405,819.5604248046875,782.4908447265625,790.952392578125,813.113525390625
1406,811.5018310546875,784.5054931640625,783.2966918945312,802.6373901367188
1407,805.054931640625,780.0732421875,788.937744140625,802.6373901367188
1408,805.4578857421875,784.5054931640625,794.981689453125,801.025634765625
1409,805.8607788085938,779.6703491210938,798.2051391601562,798.2051391601562
1410,807.87548828125,772.0146484375,799.4139404296875,798.6080322265625
1411,811.098876953125,778.4615478515625,797.8021850585938,803.040283203125
1412,812.7106323242188,784.1025390625,792.967041015625,812.7106323242188
1413,808.2783813476562,784.5054931640625,790.952392578125,806.6666870117188
1414,809.89013671875,782.4908447265625,797.8021850585938,805.8607788085938
1415,811.098876953125,783.2966918945312,796.996337890625,811.5018310546875
1416,803.040283203125,781.6849975585938,790.952392578125,807.87548828125
1417,800.2197875976562,781.2820434570312,794.1758422851562,806.6666870117188
1418,798.2051391601562,790.952392578125,794.5787353515625,805.054931640625
1419,800.6226806640625,791.7582397460938,794.5787353515625,804.6520385742188
1420,806.6666870117188,784.1025390625,796.996337890625,807.069580078125
1421,802.6373901367188,781.6849975585938,795.3846435546875,800.2197875976562
1422,802.6373901367188,785.7142944335938,795.3846435546875,796.996337890625
1423,806.6666870117188,787.3259887695312,795.3846435546875,804.2490844726562
1424,808.2783813476562,786.923095703125,795.7875366210938,802.2344360351562
1425,803.040283203125,786.1171875,795.7875366210938,800.6226806640625
1426,798.2051391601562,786.1171875,794.1758422851562,802.6373901367188
1427,793.7728881835938,789.3406372070312,791.7582397460938,796.5933837890625
1428,796.1904907226562,791.3552856445312,794.5787353515625,792.5640869140625
1429,804.6520385742188,789.7435913085938,792.967041015625,799.8168334960938
1430,812.3076782226562,789.7435913085938,789.7435913085938,801.025634765625
1431,814.3223266601562,789.7435913085938,788.5347900390625,799.8168334960938
1432,807.069580078125,785.3113403320312,787.3259887695312,799.8168334960938
1433,803.8461303710938,784.5054931640625,788.5347900390625,799.4139404296875
1434,805.8607788085938,782.4908447265625,787.7289428710938,799.8168334960938
1435,798.2051391601562,780.4761962890625,782.087890625,792.1611938476562
1436,794.981689453125,781.2820434570312,779.6703491210938,783.6996459960938
1437,798.6080322265625,785.3113403320312,782.893798828125,782.087890625
1438,803.4432373046875,792.1611938476562,787.3259887695312,786.923095703125
1439,796.996337890625,790.1465454101562,792.5640869140625,792.5640869140625
1440,792.1611938476562,790.5494384765625,790.952392578125,788.937744140625
1441,788.5347900390625,791.3552856445312,783.2966918945312,784.1025390625
1442,785.7142944335938,788.1318969726562,781.6849975585938,782.893798828125
1443,787.3259887695312,785.7142944335938,783.6996459960938,783.6996459960938
1444,789.3406372070312,785.7142944335938,785.3113403320312,784.5054931640625
1445,793.7728881835938,790.5494384765625,785.7142944335938,790.952392578125
1446,793.7728881835938,787.7289428710938,782.087890625,790.952392578125
1447,790.952392578125,786.923095703125,779.6703491210938,786.5201416015625
1448,786.5201416015625,788.5347900390625,782.087890625,786.1171875
1449,791.3552856445312,788.5347900390625,785.7142944335938,789.3406372070312
1450,793.3699340820312,787.7289428710938,787.3259887695312,792.1611938476562
1451,792.5640869140625,790.1465454101562,790.1465454101562,785.7142944335938
1452,794.5787353515625,794.5787353515625,795.3846435546875,782.893798828125
1453,790.1465454101562,788.5347900390625,792.5640869140625,780.879150390625
1454,789.3406372070312,783.2966918945312,789.3406372070312,785.3113403320312
1455,791.3552856445312,787.3259887695312,791.7582397460938,788.937744140625
1456,797.3992919921875,787.7289428710938,790.5494384765625,783.6996459960938
1457,797.3992919921875,788.5347900390625,790.1465454101562,784.908447265625
1458,793.3699340820312,787.7289428710938,794.1758422851562,786.1171875
1459,795.3846435546875,786.1171875,793.3699340820312,779.2673950195312
1460,793.3699340820312,785.3113403320312,790.5494384765625,783.2966918945312
1461,789.3406372070312,781.6849975585938,789.7435913085938,791.3552856445312
1462,787.7289428710938,778.8644409179688,788.5347900390625,785.3113403320312
1463,779.6703491210938,783.2966918945312,787.7289428710938,772.4176025390625
1464,774.8351440429688,784.908447265625,787.3259887695312,773.6264038085938
1465,784.1025390625,783.2966918945312,790.1465454101562,779.2673950195312
1466,784.5054931640625,785.3113403320312,793.3699340820312,782.087890625
1467,778.8644409179688,786.1171875,786.923095703125,774.8351440429688
1468,784.1025390625,783.6996459960938,786.923095703125,774.4322509765625
1469,782.087890625,786.923095703125,790.5494384765625,780.879150390625
1470,784.1025390625,788.937744140625,788.937744140625,779.2673950195312
1471,790.1465454101562,783.2966918945312,786.5201416015625,776.8497924804688
1472,788.937744140625,783.6996459960938,787.3259887695312,776.4468994140625
1473,789.3406372070312,784.5054931640625,793.7728881835938,782.893798828125
1474,787.3259887695312,791.7582397460938,795.3846435546875,786.1171875
1475,782.087890625,796.1904907226562,792.5640869140625,784.5054931640625
1476,781.6849975585938,790.952392578125,792.967041015625,784.1025390625
1477,783.2966918945312,788.5347900390625,797.3992919921875,784.5054931640625
1478,786.5201416015625,792.5640869140625,797.3992919921875,787.3259887695312
1479,790.1465454101562,792.5640869140625,795.3846435546875,788.5347900390625
1480,795.3846435546875,793.7728881835938,796.5933837890625,790.952392578125
1481,799.4139404296875,798.6080322265625,800.6226806640625,789.3406372070312
1482,791.3552856445312,794.1758422851562,798.2051391601562,785.7142944335938
1483,788.5347900390625,794.1758422851562,794.1758422851562,776.8497924804688
1484,793.7728881835938,796.5933837890625,798.2051391601562,784.1025390625
1485,796.1904907226562,794.5787353515625,794.981689453125,792.5640869140625
1486,796.1904907226562,798.6080322265625,794.981689453125,782.4908447265625
1487,797.8021850585938,799.010986328125,799.4139404296875,780.879150390625
1488,798.2051391601562,797.3992919921875,793.3699340820312,786.5201416015625
1489,792.1611938476562,797.8021850585938,792.5640869140625,785.7142944335938
1490,789.7435913085938,796.996337890625,798.6080322265625,785.7142944335938
1491,797.8021850585938,799.8168334960938,797.3992919921875,795.3846435546875
1492,799.4139404296875,799.8168334960938,795.7875366210938,792.1611938476562
1493,796.1904907226562,797.3992919921875,797.8021850585938,784.908447265625
1494,788.5347900390625,793.7728881835938,796.1904907226562,787.7289428710938
1495,793.7728881835938,790.952392578125,792.5640869140625,790.952392578125
1496,800.6226806640625,790.952392578125,794.5787353515625,792.5640869140625
1497,799.010986328125,793.7728881835938,797.8021850585938,793.3699340820312
1498,793.3699340820312,794.1758422851562,798.2051391601562,791.7582397460938
1499,793.3699340820312,792.967041015625,799.8168334960938,790.1465454101562
1500,801.8314819335938,793.7728881835938,799.010986328125,790.1465454101562
1501,808.2783813476562,794.981689453125,799.8168334960938,794.981689453125
1502,810.6959838867188,796.1904907226562,803.040283203125,795.7875366210938
1503,805.054931640625,796.996337890625,803.4432373046875,797.3992919921875
1504,797.3992919921875,796.996337890625,799.8168334960938,802.2344360351562
1505,804.2490844726562,798.6080322265625,799.010986328125,800.2197875976562
1506,807.4725341796875,799.4139404296875,800.6226806640625,797.3992919921875
1507,799.010986328125,800.2197875976562,801.8314819335938,799.4139404296875
1508,788.5347900390625,792.967041015625,800.2197875976562,801.025634765625
1509,783.2966918945312,792.5640869140625,799.010986328125,796.5933837890625
1510,792.1611938476562,795.7875366210938,795.7875366210938,795.3846435546875
1511,798.2051391601562,790.1465454101562,795.7875366210938,796.1904907226562
1512,790.5494384765625,790.5494384765625,796.1904907226562,791.7582397460938
1513,789.3406372070312,792.5640869140625,792.5640869140625,789.3406372070312
1514,794.5787353515625,792.5640869140625,794.5787353515625,788.5347900390625
1515,795.7875366210938,796.5933837890625,795.3846435546875,789.7435913085938
1516,797.3992919921875,798.2051391601562,791.3552856445312,793.3699340820312
1517,799.010986328125,794.981689453125,795.3846435546875,792.1611938476562
1518,801.8314819335938,796.5933837890625,797.3992919921875,792.5640869140625
1519,799.4139404296875,794.981689453125,797.3992919921875,799.010986328125
1520,796.1904907226562,793.7728881835938,799.4139404296875,795.7875366210938
1521,796.996337890625,790.1465454101562,796.1904907226562,790.5494384765625
1522,801.8314819335938,788.937744140625,796.1904907226562,796.1904907226562
1523,793.3699340820312,794.1758422851562,797.8021850585938,797.8021850585938
1524,787.7289428710938,790.5494384765625,798.6080322265625,796.1904907226562
1525,790.5494384765625,792.1611938476562,797.8021850585938,796.5933837890625
1526,790.952392578125,795.7875366210938,794.981689453125,790.5494384765625
1527,791.7582397460938,793.7728881835938,792.5640869140625,785.7142944335938
1528,794.5787353515625,796.996337890625,794.5787353515625,788.1318969726562
1529,797.8021850585938,798.6080322265625,797.3992919921875,788.937744140625
1530,791.3552856445312,792.5640869140625,794.5787353515625,786.923095703125
1531,788.1318969726562,790.5494384765625,789.7435913085938,785.3113403320312
1532,789.3406372070312,792.967041015625,788.937744140625,788.937744140625
1533,788.937744140625,794.1758422851562,792.5640869140625,791.3552856445312
1534,784.908447265625,788.1318969726562,792.1611938476562,788.1318969726562
1535,782.087890625,787.3259887695312,789.7435913085938,786.5201416015625
1536,787.3259887695312,788.5347900390625,791.7582397460938,793.7728881835938
1537,790.952392578125,784.5054931640625,796.5933837890625,800.6226806640625
1538,795.7875366210938,788.1318969726562,794.981689453125,796.1904907226562
1539,793.7728881835938,786.1171875,793.7728881835938,786.1171875
1540,793.3699340820312,785.3113403320312,794.5787353515625,784.1025390625
1541,798.2051391601562,787.7289428710938,796.5933837890625,785.3113403320312
1542,794.981689453125,784.908447265625,798.2051391601562,789.3406372070312
1543,796.1904907226562,788.937744140625,799.8168334960938,794.5787353515625
1544,795.7875366210938,794.5787353515625,801.4285888671875,789.7435913085938
1545,793.3699340820312,794.981689453125,797.3992919921875,787.3259887695312
1546,792.1611938476562,798.2051391601562,795.7875366210938,793.3699340820312
1547,785.7142944335938,798.6080322265625,797.3992919921875,785.3113403320312
1548,784.5054931640625,792.967041015625,796.5933837890625,781.2820434570312
1549,778.05859375,792.967041015625,792.967041015625,787.3259887695312
1550,765.970703125,792.967041015625,793.7728881835938,783.6996459960938
1551,771.2088012695312,792.5640869140625,793.3699340820312,783.6996459960938
1552,778.05859375,791.7582397460938,790.5494384765625,781.6849975585938
1553,777.2527465820312,786.1171875,785.7142944335938,776.4468994140625
1554,784.5054931640625,787.7289428710938,788.5347900390625,781.2820434570312
1555,788.1318969726562,788.1318969726562,792.967041015625,785.7142944335938
1556,786.923095703125,787.3259887695312,792.1611938476562,784.908447265625
1557,791.3552856445312,787.7289428710938,788.5347900390625,786.923095703125
1558,792.1611938476562,792.1611938476562,791.3552856445312,784.908447265625
1559,788.1318969726562,796.5933837890625,795.3846435546875,782.087890625
1560,782.4908447265625,795.7875366210938,792.5640869140625,782.4908447265625
1561,780.879150390625,796.5933837890625,789.7435913085938,788.937744140625
1562,781.2820434570312,796.1904907226562,791.7582397460938,795.3846435546875
1563,786.923095703125,795.3846435546875,797.8021850585938,796.1904907226562
1564,789.3406372070312,792.5640869140625,796.5933837890625,796.996337890625
1565,788.1318969726562,792.5640869140625,794.5787353515625,796.5933837890625
1566,795.3846435546875,795.3846435546875,796.996337890625,787.7289428710938
1567,798.6080322265625,794.981689453125,793.7728881835938,787.3259887695312
1568,793.3699340820312,796.996337890625,792.967041015625,790.5494384765625
1569,790.1465454101562,794.5787353515625,792.5640869140625,791.7582397460938
1570,796.996337890625,792.967041015625,794.5787353515625,789.7435913085938
1571,788.1318969726562,792.967041015625,795.3846435546875,786.5201416015625
1572,784.1025390625,792.5640869140625,796.5933837890625,791.3552856445312
1573,784.5054931640625,789.7435913085938,795.3846435546875,791.7582397460938
1574,778.05859375,790.1465454101562,790.5494384765625,785.7142944335938
1575,776.8497924804688,793.3699340820312,792.1611938476562,784.5054931640625
1576,778.4615478515625,793.7728881835938,796.1904907226562,790.5494384765625
1577,781.6849975585938,791.3552856445312,792.1611938476562,792.1611938476562
1578,788.5347900390625,792.967041015625,787.3259887695312,792.1611938476562
1579,788.1318969726562,795.3846435546875,792.1611938476562,788.1318969726562
1580,784.1025390625,795.3846435546875,797.3992919921875,787.3259887695312
1581,788.5347900390625,792.5640869140625,795.7875366210938,795.7875366210938
1582,796.1904907226562,792.1611938476562,799.4139404296875,792.5640869140625
1583,792.967041015625,792.1611938476562,796.5933837890625,788.5347900390625
1584,792.5640869140625,786.5201416015625,794.1758422851562,796.1904907226562
1585,796.1904907226562,789.7435913085938,797.8021850585938,796.1904907226562
1586,796.1904907226562,792.1611938476562,796.996337890625,790.1465454101562
1587,792.5640869140625,791.3552856445312,792.1611938476562,790.952392578125
1588,789.3406372070312,788.937744140625,788.5347900390625,789.3406372070312
1589,793.3699340820312,786.923095703125,794.1758422851562,794.981689453125
