timestamp,RAW_TP9,RAW_AF7,RAW_AF8,RAW_TP10
1,796.996337890625,792.967041015625,799.010986328125,785.7142944335938
2,801.025634765625,794.981689453125,801.4285888671875,786.5201416015625
3,802.6373901367188,791.3552856445312,798.2051391601562,790.952392578125
4,795.3846435546875,788.1318969726562,789.3406372070312,786.923095703125
5,790.5494384765625,794.5787353515625,790.952392578125,786.923095703125
6,794.1758422851562,788.937744140625,796.996337890625,798.6080322265625
7,795.7875366210938,777.6557006835938,798.6080322265625,811.5018310546875
8,792.5640869140625,784.5054931640625,799.4139404296875,809.4871826171875
9,790.5494384765625,792.5640869140625,797.3992919921875,792.5640869140625
10,792.1611938476562,791.3552856445312,794.5787353515625,786.1171875
11,798.2051391601562,794.1758422851562,794.5787353515625,792.1611938476562
12,796.996337890625,795.3846435546875,796.5933837890625,792.967041015625
13,794.981689453125,792.967041015625,798.6080322265625,790.1465454101562
14,796.1904907226562,795.3846435546875,798.6080322265625,792.1611938476562
15,796.996337890625,798.6080322265625,796.5933837890625,788.937744140625
16,794.5787353515625,796.996337890625,794.1758422851562,789.3406372070312
17,786.923095703125,790.952392578125,796.5933837890625,789.3406372070312
18,786.5201416015625,787.7289428710938,798.6080322265625,784.908447265625
19,787.7289428710938,792.5640869140625,795.3846435546875,794.1758422851562
20,783.6996459960938,796.5933837890625,798.2051391601562,790.5494384765625
21,784.5054931640625,794.981689453125,800.2197875976562,787.3259887695312
22,785.3113403320312,794.5787353515625,794.5787353515625,792.5640869140625
23,786.923095703125,793.7728881835938,792.967041015625,790.5494384765625
24,789.3406372070312,799.8168334960938,798.6080322265625,794.5787353515625
25,786.1171875,799.8168334960938,798.6080322265625,796.5933837890625
26,787.7289428710938,795.7875366210938,796.5933837890625,798.6080322265625
27,796.996337890625,799.4139404296875,797.8021850585938,803.040283203125
28,796.1904907226562,797.3992919921875,796.996337890625,796.996337890625
29,785.3113403320312,792.5640869140625,790.5494384765625,788.937744140625
30,792.5640869140625,788.937744140625,791.3552856445312,801.025634765625
31,796.5933837890625,788.937744140625,795.3846435546875,805.8607788085938
32,796.996337890625,798.6080322265625,796.1904907226562,803.040283203125
33,799.8168334960938,800.2197875976562,796.1904907226562,805.054931640625
34,797.3992919921875,794.5787353515625,794.1758422851562,801.025634765625
35,798.6080322265625,792.1611938476562,792.967041015625,796.996337890625
36,799.8168334960938,794.1758422851562,795.7875366210938,799.010986328125
37,798.6080322265625,793.3699340820312,796.5933837890625,806.2637329101562
38,795.7875366210938,793.7728881835938,790.1465454101562,805.8607788085938
39,793.3699340820312,799.010986328125,789.7435913085938,802.2344360351562
40,791.3552856445312,798.6080322265625,794.5787353515625,802.2344360351562
41,788.937744140625,800.6226806640625,797.8021850585938,805.8607788085938
42,794.1758422851562,794.981689453125,794.5787353515625,811.098876953125
43,793.7728881835938,790.952392578125,790.952392578125,807.069580078125
44,784.908447265625,796.996337890625,787.3259887695312,794.981689453125
45,790.5494384765625,796.5933837890625,788.937744140625,792.1611938476562
46,796.5933837890625,796.996337890625,796.1904907226562,798.2051391601562
47,791.7582397460938,794.1758422851562,794.981689453125,799.010986328125
48,791.7582397460938,791.7582397460938,792.5640869140625,799.010986328125
49,795.7875366210938,794.5787353515625,794.1758422851562,801.025634765625
50,799.4139404296875,788.937744140625,792.967041015625,800.2197875976562
51,801.025634765625,784.5054931640625,793.3699340820312,801.4285888671875
52,796.996337890625,791.7582397460938,790.952392578125,792.967041015625
53,797.8021850585938,793.3699340820312,789.7435913085938,799.8168334960938
54,796.996337890625,789.3406372070312,792.5640869140625,808.6813354492188
55,790.1465454101562,788.1318969726562,795.3846435546875,803.040283203125
56,791.7582397460938,783.2966918945312,794.981689453125,802.2344360351562
57,794.981689453125,784.1025390625,792.1611938476562,794.1758422851562
58,792.5640869140625,790.1465454101562,793.7728881835938,790.952392578125
59,792.1611938476562,792.967041015625,796.5933837890625,796.5933837890625
60,790.5494384765625,796.5933837890625,796.996337890625,797.3992919921875
61,787.3259887695312,794.1758422851562,795.7875366210938,793.7728881835938
62,790.5494384765625,791.7582397460938,793.3699340820312,794.5787353515625
63,795.3846435546875,791.7582397460938,794.981689453125,789.7435913085938
64,795.3846435546875,788.1318969726562,794.981689453125,782.4908447265625
65,787.3259887695312,787.7289428710938,794.1758422851562,786.923095703125
66,788.5347900390625,792.967041015625,800.2197875976562,786.923095703125
67,792.967041015625,793.3699340820312,803.040283203125,784.908447265625
68,792.1611938476562,788.1318969726562,801.8314819335938,791.7582397460938
69,794.5787353515625,790.952392578125,800.2197875976562,791.7582397460938
70,792.5640869140625,794.5787353515625,798.2051391601562,789.7435913085938
71,788.1318969726562,793.7728881835938,801.8314819335938,792.1611938476562
72,788.5347900390625,797.3992919921875,799.4139404296875,794.5787353515625
73,791.3552856445312,796.5933837890625,798.2051391601562,803.4432373046875
74,790.952392578125,794.5787353515625,799.4139404296875,799.4139404296875
75,792.967041015625,796.5933837890625,798.2051391601562,791.7582397460938
76,794.5787353515625,798.6080322265625,798.2051391601562,799.010986328125
77,795.3846435546875,799.4139404296875,801.025634765625,807.069580078125
78,794.981689453125,794.1758422851562,801.8314819335938,799.010986328125
79,796.996337890625,790.1465454101562,802.6373901367188,789.3406372070312
80,801.025634765625,790.5494384765625,802.6373901367188,794.1758422851562
81,800.2197875976562,791.3552856445312,794.981689453125,794.981689453125
82,799.010986328125,788.937744140625,792.5640869140625,783.2966918945312
83,801.4285888671875,787.3259887695312,796.1904907226562,786.1171875
84,798.6080322265625,791.7582397460938,793.7728881835938,792.1611938476562
85,792.967041015625,792.967041015625,790.952392578125,788.5347900390625
86,793.7728881835938,791.3552856445312,792.1611938476562,789.7435913085938
87,790.1465454101562,789.3406372070312,789.3406372070312,796.5933837890625
88,794.5787353515625,791.7582397460938,788.1318969726562,803.4432373046875
89,796.996337890625,789.3406372070312,789.7435913085938,791.7582397460938
90,793.7728881835938,788.5347900390625,789.7435913085938,778.4615478515625
91,788.1318969726562,791.3552856445312,792.1611938476562,780.879150390625
92,779.6703491210938,792.967041015625,794.1758422851562,784.1025390625
93,786.923095703125,798.2051391601562,793.7728881835938,785.3113403320312
94,792.5640869140625,793.3699340820312,794.5787353515625,788.5347900390625
95,791.7582397460938,785.3113403320312,793.7728881835938,795.3846435546875
96,798.2051391601562,794.5787353515625,789.3406372070312,795.3846435546875
97,793.7728881835938,804.2490844726562,789.3406372070312,787.3259887695312
98,788.937744140625,799.8168334960938,788.937744140625,784.908447265625
99,788.1318969726562,796.1904907226562,788.5347900390625,787.7289428710938
100,785.7142944335938,794.981689453125,793.3699340820312,792.5640869140625
101,784.5054931640625,794.1758422851562,794.5787353515625,793.3699340820312
102,788.937744140625,795.3846435546875,792.5640869140625,797.8021850585938
103,792.1611938476562,793.7728881835938,794.5787353515625,799.4139404296875
104,788.937744140625,794.1758422851562,796.1904907226562,792.5640869140625
105,792.1611938476562,796.1904907226562,794.5787353515625,790.5494384765625
106,799.010986328125,789.3406372070312,792.5640869140625,793.7728881835938
107,796.1904907226562,790.1465454101562,795.3846435546875,791.7582397460938
108,791.7582397460938,789.3406372070312,796.1904907226562,792.1611938476562
109,790.1465454101562,792.5640869140625,795.7875366210938,792.967041015625
110,794.5787353515625,799.4139404296875,797.8021850585938,793.3699340820312
111,793.7728881835938,794.981689453125,796.996337890625,795.3846435546875
112,791.3552856445312,792.967041015625,795.7875366210938,795.3846435546875
113,792.1611938476562,792.5640869140625,794.981689453125,793.3699340820312
114,792.5640869140625,792.1611938476562,794.1758422851562,799.010986328125
115,792.967041015625,792.967041015625,794.5787353515625,806.2637329101562
116,789.7435913085938,795.7875366210938,799.4139404296875,801.8314819335938
117,789.7435913085938,796.996337890625,800.6226806640625,793.7728881835938
118,792.967041015625,790.952392578125,802.2344360351562,791.7582397460938
119,795.3846435546875,789.3406372070312,803.4432373046875,799.8168334960938
120,798.2051391601562,791.7582397460938,802.6373901367188,799.8168334960938
121,798.6080322265625,792.5640869140625,799.4139404296875,794.5787353515625
122,795.7875366210938,792.1611938476562,794.1758422851562,800.6226806640625
123,795.3846435546875,795.3846435546875,792.1611938476562,799.4139404296875
124,801.4285888671875,795.3846435546875,793.7728881835938,790.5494384765625
125,799.4139404296875,790.1465454101562,796.5933837890625,785.7142944335938
126,794.981689453125,790.952392578125,796.1904907226562,790.5494384765625
127,792.5640869140625,785.3113403320312,790.952392578125,791.3552856445312
128,788.5347900390625,783.6996459960938,790.5494384765625,786.1171875
129,787.3259887695312,788.1318969726562,791.7582397460938,789.7435913085938
130,786.1171875,790.1465454101562,788.937744140625,787.3259887695312
131,788.937744140625,790.5494384765625,785.3113403320312,781.6849975585938
132,791.7582397460938,783.2966918945312,785.7142944335938,781.6849975585938
133,788.5347900390625,782.4908447265625,792.1611938476562,782.893798828125
134,790.952392578125,786.5201416015625,793.3699340820312,781.6849975585938
135,794.981689453125,788.937744140625,795.3846435546875,787.3259887695312
136,793.7728881835938,794.981689453125,797.3992919921875,793.7728881835938
137,797.8021850585938,794.1758422851562,798.6080322265625,793.3699340820312
138,798.2051391601562,788.937744140625,798.2051391601562,802.6373901367188
139,794.981689453125,790.5494384765625,799.8168334960938,806.6666870117188
140,793.3699340820312,791.3552856445312,800.2197875976562,802.6373901367188
141,797.8021850585938,793.7728881835938,801.025634765625,806.6666870117188
142,802.6373901367188,792.1611938476562,801.025634765625,804.6520385742188
143,801.025634765625,790.5494384765625,797.3992919921875,805.8607788085938
144,798.6080322265625,795.3846435546875,796.996337890625,807.87548828125
145,797.3992919921875,793.3699340820312,795.7875366210938,796.996337890625
146,797.8021850585938,795.7875366210938,795.7875366210938,796.5933837890625
147,791.7582397460938,792.1611938476562,796.5933837890625,801.4285888671875
148,792.967041015625,789.3406372070312,795.7875366210938,800.2197875976562
149,801.4285888671875,796.1904907226562,794.981689453125,806.6666870117188
150,804.6520385742188,797.8021850585938,796.996337890625,811.90478515625
151,797.3992919921875,798.2051391601562,798.2051391601562,799.8168334960938
152,791.7582397460938,794.981689453125,796.1904907226562,788.5347900390625
153,794.5787353515625,795.7875366210938,797.8021850585938,787.3259887695312
154,800.2197875976562,799.010986328125,797.3992919921875,790.5494384765625
155,800.6226806640625,798.2051391601562,799.010986328125,798.6080322265625
156,798.6080322265625,797.3992919921875,800.6226806640625,803.8461303710938
157,804.6520385742188,794.1758422851562,799.010986328125,802.6373901367188
158,800.6226806640625,794.5787353515625,796.5933837890625,797.3992919921875
159,787.3259887695312,795.3846435546875,792.1611938476562,789.7435913085938
160,784.5054931640625,791.7582397460938,794.1758422851562,792.1611938476562
161,786.5201416015625,793.3699340820312,799.8168334960938,796.996337890625
162,782.4908447265625,793.3699340820312,799.4139404296875,792.1611938476562
163,782.893798828125,787.7289428710938,795.7875366210938,790.1465454101562
164,784.1025390625,784.5054931640625,793.3699340820312,786.5201416015625
165,784.908447265625,787.7289428710938,794.1758422851562,786.1171875
166,789.3406372070312,790.952392578125,799.010986328125,791.3552856445312
167,790.1465454101562,790.5494384765625,801.8314819335938,792.967041015625
168,792.967041015625,790.952392578125,799.010986328125,791.3552856445312
169,796.1904907226562,787.3259887695312,796.996337890625,785.3113403320312
170,791.7582397460938,785.7142944335938,800.6226806640625,780.4761962890625
171,793.3699340820312,787.3259887695312,797.8021850585938,787.7289428710938
172,799.4139404296875,786.5201416015625,792.967041015625,794.981689453125
173,799.4139404296875,788.937744140625,796.1904907226562,801.025634765625
174,796.996337890625,789.3406372070312,794.5787353515625,792.1611938476562
175,801.025634765625,788.937744140625,793.3699340820312,787.3259887695312
176,805.054931640625,789.7435913085938,798.2051391601562,794.5787353515625
177,802.2344360351562,791.7582397460938,799.8168334960938,794.5787353515625
178,799.4139404296875,793.3699340820312,799.010986328125,790.5494384765625
179,794.981689453125,786.5201416015625,794.5787353515625,792.1611938476562
180,794.981689453125,784.908447265625,791.3552856445312,800.6226806640625
181,789.3406372070312,787.7289428710938,789.7435913085938,795.3846435546875
182,780.0732421875,787.7289428710938,787.3259887695312,789.7435913085938
183,778.05859375,784.1025390625,783.6996459960938,795.7875366210938
184,785.7142944335938,784.1025390625,784.908447265625,798.2051391601562
185,784.908447265625,784.908447265625,790.952392578125,794.5787353515625
186,783.2966918945312,785.3113403320312,790.1465454101562,792.967041015625
187,792.1611938476562,784.1025390625,790.952392578125,796.5933837890625
188,792.967041015625,783.2966918945312,794.1758422851562,801.025634765625
189,786.5201416015625,788.5347900390625,794.5787353515625,794.1758422851562
190,788.1318969726562,783.6996459960938,792.1611938476562,787.7289428710938
191,791.3552856445312,779.6703491210938,791.3552856445312,792.967041015625
192,792.967041015625,787.7289428710938,793.3699340820312,795.7875366210938
193,796.5933837890625,791.3552856445312,796.996337890625,793.7728881835938
194,798.6080322265625,789.7435913085938,796.996337890625,802.6373901367188
195,798.2051391601562,788.937744140625,792.1611938476562,810.6959838867188
196,799.010986328125,788.937744140625,791.7582397460938,804.2490844726562
197,801.025634765625,793.3699340820312,798.2051391601562,796.5933837890625
198,796.5933837890625,796.5933837890625,796.5933837890625,794.5787353515625
199,790.5494384765625,789.7435913085938,790.1465454101562,796.5933837890625
200,790.5494384765625,790.5494384765625,795.7875366210938,801.8314819335938
201,793.3699340820312,792.5640869140625,797.8021850585938,799.8168334960938
202,794.1758422851562,789.7435913085938,793.3699340820312,799.010986328125
203,792.5640869140625,794.5787353515625,796.1904907226562,797.3992919921875
204,788.1318969726562,796.1904907226562,797.3992919921875,798.2051391601562
205,783.6996459960938,789.7435913085938,798.6080322265625,799.4139404296875
206,782.893798828125,790.1465454101562,799.010986328125,794.5787353515625
207,780.4761962890625,790.1465454101562,796.5933837890625,796.5933837890625
208,778.4615478515625,789.3406372070312,797.3992919921875,793.3699340820312
209,784.908447265625,794.981689453125,795.3846435546875,786.923095703125
210,786.1171875,787.3259887695312,792.1611938476562,789.7435913085938
211,782.4908447265625,786.1171875,793.3699340820312,793.7728881835938
212,784.908447265625,794.981689453125,799.010986328125,792.5640869140625
213,793.7728881835938,799.8168334960938,801.4285888671875,796.996337890625
214,792.5640869140625,798.2051391601562,797.8021850585938,796.1904907226562
215,788.937744140625,793.3699340820312,794.5787353515625,792.1611938476562
216,797.3992919921875,796.996337890625,794.5787353515625,793.7728881835938
217,807.4725341796875,797.3992919921875,793.7728881835938,794.981689453125
218,811.5018310546875,796.1904907226562,794.1758422851562,793.7728881835938
219,806.2637329101562,798.2051391601562,796.1904907226562,796.1904907226562
220,802.2344360351562,798.6080322265625,799.010986328125,799.4139404296875
221,808.6813354492188,797.8021850585938,797.8021850585938,797.3992919921875
222,810.2930297851562,794.1758422851562,795.7875366210938,801.4285888671875
223,802.6373901367188,793.3699340820312,797.8021850585938,799.010986328125
224,792.1611938476562,799.010986328125,797.3992919921875,785.7142944335938
225,784.908447265625,796.1904907226562,791.7582397460938,785.3113403320312
226,788.1318969726562,793.7728881835938,792.5640869140625,790.5494384765625
227,792.967041015625,797.3992919921875,795.3846435546875,790.5494384765625
228,791.3552856445312,794.1758422851562,792.967041015625,787.7289428710938
229,795.3846435546875,790.1465454101562,788.5347900390625,789.7435913085938
230,794.1758422851562,791.7582397460938,789.3406372070312,790.1465454101562
231,788.937744140625,788.937744140625,790.952392578125,787.3259887695312
232,785.3113403320312,786.923095703125,794.981689453125,786.5201416015625
233,784.1025390625,791.3552856445312,796.1904907226562,787.7289428710938
234,784.908447265625,789.7435913085938,790.5494384765625,801.025634765625
235,785.7142944335938,790.1465454101562,794.5787353515625,800.2197875976562
236,788.937744140625,796.1904907226562,795.7875366210938,790.1465454101562
237,789.7435913085938,793.3699340820312,791.7582397460938,790.952392578125
238,788.1318969726562,787.7289428710938,792.5640869140625,788.1318969726562
239,785.3113403320312,786.923095703125,790.5494384765625,786.5201416015625
240,785.7142944335938,792.5640869140625,791.7582397460938,788.1318969726562
241,788.5347900390625,794.1758422851562,797.8021850585938,791.3552856445312
242,791.7582397460938,793.3699340820312,800.6226806640625,797.8021850585938
243,791.7582397460938,791.3552856445312,800.2197875976562,801.025634765625
244,785.7142944335938,787.3259887695312,798.6080322265625,797.3992919921875
245,788.5347900390625,788.5347900390625,799.4139404296875,798.2051391601562
246,793.3699340820312,792.5640869140625,803.4432373046875,806.2637329101562
247,794.5787353515625,796.1904907226562,803.8461303710938,809.89013671875
248,793.3699340820312,791.7582397460938,801.8314819335938,806.2637329101562
249,788.5347900390625,784.5054931640625,803.4432373046875,806.6666870117188
250,786.923095703125,788.1318969726562,802.6373901367188,805.054931640625
251,789.7435913085938,795.3846435546875,801.025634765625,801.025634765625
252,792.1611938476562,797.8021850585938,801.025634765625,799.4139404296875
253,790.5494384765625,795.3846435546875,797.3992919921875,797.3992919921875
254,788.5347900390625,795.3846435546875,798.6080322265625,792.967041015625
255,790.1465454101562,797.3992919921875,800.6226806640625,787.7289428710938
256,791.7582397460938,798.2051391601562,799.010986328125,792.5640869140625
257,794.1758422851562,799.010986328125,797.3992919921875,803.4432373046875
258,793.7728881835938,797.8021850585938,795.7875366210938,799.8168334960938
259,793.3699340820312,792.967041015625,793.3699340820312,790.5494384765625
260,791.3552856445312,794.981689453125,794.5787353515625,790.5494384765625
261,788.5347900390625,792.967041015625,792.1611938476562,786.5201416015625
262,792.1611938476562,789.7435913085938,791.7582397460938,788.937744140625
263,796.996337890625,792.1611938476562,795.7875366210938,788.937744140625
264,797.8021850585938,792.5640869140625,798.2051391601562,792.5640869140625
265,796.996337890625,791.3552856445312,799.8168334960938,798.6080322265625
266,803.4432373046875,792.5640869140625,797.3992919921875,798.2051391601562
267,807.4725341796875,794.981689453125,794.5787353515625,801.4285888671875
268,800.6226806640625,794.1758422851562,793.3699340820312,801.8314819335938
269,801.025634765625,794.981689453125,792.967041015625,791.3552856445312
270,803.040283203125,799.8168334960938,794.981689453125,787.7289428710938
271,797.8021850585938,796.1904907226562,797.3992919921875,790.5494384765625
272,797.8021850585938,786.5201416015625,793.7728881835938,792.1611938476562
273,794.1758422851562,789.3406372070312,790.952392578125,787.7289428710938
274,795.7875366210938,795.7875366210938,793.7728881835938,785.7142944335938
275,801.8314819335938,796.996337890625,793.7728881835938,797.3992919921875
276,799.010986328125,799.010986328125,792.5640869140625,800.2197875976562
277,800.2197875976562,800.2197875976562,795.7875366210938,796.5933837890625
278,801.4285888671875,800.6226806640625,797.3992919921875,796.996337890625
279,799.8168334960938,797.3992919921875,796.996337890625,801.8314819335938
280,801.025634765625,790.5494384765625,799.010986328125,807.069580078125
281,794.981689453125,795.3846435546875,800.2197875976562,799.4139404296875
282,790.952392578125,801.8314819335938,798.6080322265625,786.923095703125
283,794.5787353515625,793.3699340820312,797.3992919921875,788.5347900390625
284,795.7875366210938,789.3406372070312,797.3992919921875,792.5640869140625
285,791.7582397460938,788.937744140625,796.5933837890625,791.3552856445312
286,787.3259887695312,794.1758422851562,800.2197875976562,794.981689453125
287,788.5347900390625,797.3992919921875,802.6373901367188,798.6080322265625
288,791.7582397460938,795.7875366210938,800.6226806640625,797.3992919921875
289,794.5787353515625,795.7875366210938,799.4139404296875,798.6080322265625
290,795.7875366210938,793.3699340820312,800.2197875976562,798.2051391601562
291,794.981689453125,792.967041015625,797.3992919921875,802.2344360351562
292,794.981689453125,792.967041015625,795.7875366210938,801.025634765625
293,792.967041015625,788.937744140625,800.2197875976562,790.952392578125
294,796.1904907226562,792.967041015625,799.010986328125,794.1758422851562
295,794.1758422851562,797.3992919921875,794.5787353515625,796.1904907226562
296,788.1318969726562,792.5640869140625,795.7875366210938,794.5787353515625
297,786.5201416015625,794.1758422851562,795.3846435546875,786.923095703125
298,788.5347900390625,795.7875366210938,794.1758422851562,781.2820434570312
299,791.3552856445312,795.7875366210938,794.5787353515625,784.5054931640625
300,791.7582397460938,792.967041015625,791.3552856445312,784.5054931640625
301,788.937744140625,786.923095703125,790.952392578125,782.893798828125
302,786.923095703125,783.6996459960938,792.5640869140625,784.5054931640625
303,786.923095703125,782.087890625,787.7289428710938,782.893798828125
304,784.5054931640625,782.087890625,785.3113403320312,786.1171875
305,778.4615478515625,782.087890625,786.923095703125,785.3113403320312
306,777.6557006835938,787.3259887695312,785.7142944335938,784.1025390625
307,782.893798828125,788.937744140625,788.1318969726562,797.8021850585938
308,786.1171875,784.908447265625,792.5640869140625,802.6373901367188
309,786.923095703125,790.1465454101562,788.1318969726562,794.1758422851562
310,791.7582397460938,795.7875366210938,784.1025390625,790.1465454101562
311,792.967041015625,794.981689453125,788.937744140625,790.952392578125
312,785.3113403320312,794.1758422851562,790.5494384765625,788.5347900390625
313,786.923095703125,790.952392578125,788.1318969726562,789.7435913085938
314,794.5787353515625,788.937744140625,787.3259887695312,798.6080322265625
315,803.8461303710938,793.3699340820312,790.5494384765625,804.6520385742188
316,808.6813354492188,797.3992919921875,794.1758422851562,803.8461303710938
317,804.6520385742188,798.6080322265625,794.981689453125,802.6373901367188
318,796.996337890625,791.3552856445312,791.3552856445312,803.8461303710938
319,796.5933837890625,787.3259887695312,790.5494384765625,805.4578857421875
320,804.6520385742188,794.1758422851562,793.3699340820312,799.8168334960938
321,805.8607788085938,790.952392578125,792.967041015625,792.5640869140625
322,795.7875366210938,784.908447265625,794.5787353515625,796.5933837890625
323,791.3552856445312,790.5494384765625,792.967041015625,796.1904907226562
324,794.1758422851562,791.3552856445312,794.1758422851562,790.952392578125
325,796.996337890625,786.923095703125,794.1758422851562,797.8021850585938
326,790.5494384765625,784.908447265625,792.1611938476562,794.981689453125
327,787.7289428710938,786.923095703125,790.5494384765625,788.5347900390625
328,791.7582397460938,787.3259887695312,785.7142944335938,790.5494384765625
329,791.3552856445312,786.923095703125,787.3259887695312,795.3846435546875
330,794.1758422851562,787.7289428710938,791.3552856445312,804.2490844726562
331,790.5494384765625,792.1611938476562,793.7728881835938,801.8314819335938
332,790.952392578125,796.5933837890625,796.5933837890625,795.7875366210938
333,798.6080322265625,796.1904907226562,797.3992919921875,804.6520385742188
334,801.025634765625,791.7582397460938,796.1904907226562,801.8314819335938
335,807.87548828125,790.5494384765625,801.025634765625,799.010986328125
336,807.87548828125,800.2197875976562,802.2344360351562,805.8607788085938
337,801.8314819335938,803.040283203125,797.3992919921875,800.2197875976562
338,805.4578857421875,800.2197875976562,795.7875366210938,801.8314819335938
339,803.8461303710938,797.3992919921875,799.010986328125,811.5018310546875
340,796.5933837890625,795.3846435546875,799.4139404296875,816.3369750976562
341,794.1758422851562,796.1904907226562,794.5787353515625,811.098876953125
342,793.3699340820312,796.1904907226562,794.981689453125,804.2490844726562
343,788.5347900390625,799.8168334960938,798.2051391601562,796.1904907226562
344,785.3113403320312,796.996337890625,796.1904907226562,792.5640869140625
345,781.6849975585938,788.937744140625,791.7582397460938,788.5347900390625
346,778.8644409179688,792.5640869140625,792.967041015625,782.087890625
347,785.7142944335938,795.7875366210938,791.3552856445312,783.2966918945312
348,786.923095703125,788.5347900390625,789.7435913085938,788.5347900390625
349,782.087890625,790.1465454101562,791.3552856445312,792.967041015625
350,780.879150390625,796.5933837890625,793.7728881835938,793.7728881835938
351,787.7289428710938,797.8021850585938,796.996337890625,794.1758422851562
352,799.010986328125,793.3699340820312,796.996337890625,798.6080322265625
353,796.1904907226562,788.1318969726562,796.996337890625,801.025634765625
354,784.1025390625,792.967041015625,795.3846435546875,794.5787353515625
355,788.937744140625,794.981689453125,793.7728881835938,785.3113403320312
356,796.5933837890625,793.3699340820312,793.7728881835938,786.1171875
357,792.967041015625,792.967041015625,794.1758422851562,790.1465454101562
358,790.1465454101562,791.7582397460938,795.3846435546875,789.3406372070312
359,788.5347900390625,792.967041015625,796.996337890625,788.1318969726562
360,788.5347900390625,793.7728881835938,792.1611938476562,782.893798828125
361,789.7435913085938,796.1904907226562,788.1318969726562,786.5201416015625
362,792.967041015625,799.010986328125,790.1465454101562,796.996337890625
363,799.010986328125,793.3699340820312,787.7289428710938,791.7582397460938
364,798.6080322265625,790.1465454101562,790.1465454101562,795.7875366210938
365,796.5933837890625,794.5787353515625,793.7728881835938,805.8607788085938
366,794.981689453125,795.3846435546875,796.5933837890625,797.3992919921875
367,797.8021850585938,790.952392578125,796.5933837890625,794.5787353515625
368,799.010986328125,786.1171875,795.7875366210938,794.1758422851562
369,794.1758422851562,784.5054931640625,790.5494384765625,787.3259887695312
370,794.5787353515625,788.1318969726562,788.1318969726562,785.3113403320312
371,795.7875366210938,788.937744140625,793.3699340820312,786.5201416015625
372,793.3699340820312,786.5201416015625,792.967041015625,781.2820434570312
373,794.1758422851562,787.3259887695312,792.5640869140625,782.087890625
374,792.967041015625,788.5347900390625,793.3699340820312,782.893798828125
375,796.1904907226562,788.1318969726562,792.5640869140625,782.087890625
376,799.8168334960938,789.3406372070312,792.1611938476562,791.3552856445312
377,794.1758422851562,790.1465454101562,794.981689453125,794.1758422851562
378,786.1171875,786.1171875,790.5494384765625,787.3259887695312
379,788.5347900390625,784.1025390625,786.5201416015625,790.5494384765625
380,793.7728881835938,786.5201416015625,791.7582397460938,802.6373901367188
381,789.3406372070312,794.5787353515625,799.010986328125,803.4432373046875
382,784.1025390625,794.981689453125,798.6080322265625,797.3992919921875
383,779.6703491210938,793.3699340820312,793.3699340820312,792.967041015625
384,784.1025390625,790.1465454101562,795.3846435546875,792.967041015625
385,791.3552856445312,789.3406372070312,798.6080322265625,796.1904907226562
386,795.7875366210938,794.1758422851562,791.7582397460938,795.3846435546875
387,792.5640869140625,794.5787353515625,787.7289428710938,800.6226806640625
388,783.6996459960938,796.1904907226562,793.7728881835938,801.025634765625
389,784.1025390625,795.3846435546875,794.5787353515625,791.3552856445312
390,788.937744140625,794.5787353515625,795.7875366210938,792.5640869140625
391,792.967041015625,794.1758422851562,797.8021850585938,802.2344360351562
392,795.7875366210938,792.1611938476562,796.1904907226562,799.8168334960938
393,796.5933837890625,795.3846435546875,798.6080322265625,790.5494384765625
394,794.981689453125,796.996337890625,799.4139404296875,788.5347900390625
395,790.1465454101562,790.5494384765625,797.8021850585938,787.7289428710938
396,790.5494384765625,784.5054931640625,794.1758422851562,789.7435913085938
397,795.3846435546875,787.3259887695312,791.3552856445312,790.1465454101562
398,796.5933837890625,788.1318969726562,791.7582397460938,790.952392578125
399,797.3992919921875,788.1318969726562,793.7728881835938,794.5787353515625
400,801.4285888671875,794.981689453125,801.4285888671875,799.8168334960938
401,801.4285888671875,794.5787353515625,804.6520385742188,801.4285888671875
402,801.4285888671875,794.1758422851562,799.4139404296875,803.040283203125
403,798.6080322265625,792.1611938476562,794.1758422851562,805.054931640625
404,787.3259887695312,793.7728881835938,789.3406372070312,792.5640869140625
405,786.1171875,794.981689453125,790.5494384765625,785.7142944335938
406,796.5933837890625,796.5933837890625,793.7728881835938,794.981689453125
407,798.2051391601562,796.1904907226562,794.1758422851562,800.6226806640625
408,787.7289428710938,789.7435913085938,797.3992919921875,796.1904907226562
409,780.879150390625,786.1171875,792.1611938476562,787.7289428710938
410,781.2820434570312,789.7435913085938,785.3113403320312,784.1025390625
411,788.1318969726562,794.1758422851562,786.5201416015625,788.5347900390625
412,792.5640869140625,794.1758422851562,788.937744140625,797.3992919921875
413,793.3699340820312,792.967041015625,790.1465454101562,796.1904907226562
414,800.2197875976562,787.7289428710938,791.7582397460938,801.025634765625
415,796.5933837890625,793.7728881835938,789.7435913085938,802.6373901367188
416,789.3406372070312,798.6080322265625,792.1611938476562,796.1904907226562
417,799.4139404296875,792.967041015625,799.8168334960938,801.8314819335938
418,802.2344360351562,787.3259887695312,799.8168334960938,802.2344360351562
419,798.2051391601562,792.5640869140625,799.4139404296875,802.6373901367188
420,800.2197875976562,799.8168334960938,800.2197875976562,799.8168334960938
421,805.054931640625,790.952392578125,801.4285888671875,796.5933837890625
422,801.4285888671875,789.3406372070312,803.4432373046875,799.8168334960938
423,800.2197875976562,796.1904907226562,801.8314819335938,800.2197875976562
424,798.6080322265625,799.8168334960938,799.010986328125,797.3992919921875
425,797.3992919921875,799.4139404296875,796.5933837890625,794.1758422851562
426,801.025634765625,792.5640869140625,796.5933837890625,801.4285888671875
427,794.1758422851562,789.3406372070312,791.3552856445312,797.8021850585938
428,785.3113403320312,790.5494384765625,792.1611938476562,792.1611938476562
429,784.1025390625,791.7582397460938,792.5640869140625,796.5933837890625
430,781.6849975585938,790.5494384765625,790.1465454101562,795.3846435546875
431,782.4908447265625,796.1904907226562,792.5640869140625,793.7728881835938
432,792.1611938476562,793.3699340820312,794.1758422851562,797.8021850585938
433,798.6080322265625,789.7435913085938,796.996337890625,806.6666870117188
434,800.6226806640625,799.4139404296875,799.010986328125,799.8168334960938
435,796.5933837890625,798.6080322265625,801.4285888671875,792.5640869140625
436,795.3846435546875,794.981689453125,801.4285888671875,796.996337890625
437,798.2051391601562,792.967041015625,797.3992919921875,800.6226806640625
438,803.040283203125,789.7435913085938,796.1904907226562,799.8168334960938
439,803.040283203125,791.3552856445312,800.2197875976562,790.5494384765625
440,801.8314819335938,795.7875366210938,799.4139404296875,792.1611938476562
441,797.8021850585938,791.7582397460938,799.4139404296875,796.5933837890625
442,792.5640869140625,784.908447265625,797.8021850585938,800.6226806640625
443,796.1904907226562,783.6996459960938,796.5933837890625,801.8314819335938
444,802.2344360351562,784.908447265625,800.2197875976562,802.6373901367188
445,810.6959838867188,786.1171875,800.6226806640625,810.6959838867188
446,805.8607788085938,790.5494384765625,798.6080322265625,806.6666870117188
447,790.1465454101562,787.7289428710938,798.2051391601562,792.5640869140625
448,788.937744140625,786.1171875,796.996337890625,791.3552856445312
449,794.1758422851562,791.7582397460938,799.8168334960938,790.1465454101562
450,794.5787353515625,790.952392578125,799.4139404296875,783.6996459960938
451,792.967041015625,788.937744140625,793.7728881835938,791.3552856445312
452,792.5640869140625,788.1318969726562,793.3699340820312,796.996337890625
453,794.5787353515625,789.3406372070312,794.5787353515625,792.5640869140625
454,796.996337890625,790.1465454101562,792.967041015625,795.7875366210938
455,795.3846435546875,789.3406372070312,788.5347900390625,797.3992919921875
456,804.6520385742188,793.3699340820312,787.3259887695312,801.8314819335938
457,810.6959838867188,793.3699340820312,787.3259887695312,809.084228515625
458,799.010986328125,789.7435913085938,790.952392578125,805.4578857421875
459,792.1611938476562,792.5640869140625,795.3846435546875,800.2197875976562
460,790.952392578125,794.1758422851562,788.937744140625,795.3846435546875
461,794.5787353515625,795.3846435546875,783.6996459960938,793.3699340820312
462,793.3699340820312,795.7875366210938,790.5494384765625,790.1465454101562
463,790.5494384765625,796.1904907226562,794.1758422851562,793.7728881835938
464,792.5640869140625,794.5787353515625,796.1904907226562,800.6226806640625
465,793.3699340820312,792.1611938476562,797.3992919921875,799.010986328125
466,788.5347900390625,794.981689453125,796.1904907226562,797.8021850585938
467,789.3406372070312,791.7582397460938,795.3846435546875,800.6226806640625
468,794.5787353515625,792.5640869140625,795.7875366210938,805.8607788085938
469,790.5494384765625,792.967041015625,795.3846435546875,803.8461303710938
470,790.952392578125,791.3552856445312,792.5640869140625,796.1904907226562
471,793.3699340820312,791.3552856445312,793.3699340820312,801.025634765625
472,793.3699340820312,790.5494384765625,792.1611938476562,804.2490844726562
473,786.923095703125,790.1465454101562,790.1465454101562,795.7875366210938
474,782.087890625,786.1171875,792.1611938476562,790.1465454101562
475,781.2820434570312,785.3113403320312,792.967041015625,791.7582397460938
476,775.6410522460938,788.937744140625,792.1611938476562,791.3552856445312
477,780.879150390625,787.3259887695312,793.7728881835938,788.1318969726562
478,785.3113403320312,784.1025390625,792.5640869140625,788.937744140625
479,788.937744140625,789.7435913085938,790.952392578125,788.5347900390625
480,790.1465454101562,784.908447265625,791.3552856445312,792.1611938476562
481,781.6849975585938,776.8497924804688,792.967041015625,792.5640869140625
482,780.879150390625,784.5054931640625,792.5640869140625,788.1318969726562
483,790.1465454101562,792.5640869140625,794.1758422851562,791.3552856445312
484,792.5640869140625,789.7435913085938,801.025634765625,797.3992919921875
485,789.3406372070312,790.1465454101562,801.025634765625,795.7875366210938
486,787.3259887695312,787.7289428710938,796.5933837890625,789.3406372070312
487,792.5640869140625,786.1171875,796.1904907226562,796.1904907226562
488,796.5933837890625,795.3846435546875,796.996337890625,796.996337890625
489,798.2051391601562,790.5494384765625,794.5787353515625,787.7289428710938
490,796.5933837890625,791.3552856445312,793.3699340820312,791.3552856445312
491,793.7728881835938,796.996337890625,796.5933837890625,801.8314819335938
492,794.1758422851562,794.981689453125,792.967041015625,802.2344360351562
493,791.3552856445312,793.7728881835938,788.1318969726562,791.3552856445312
494,793.7728881835938,792.967041015625,789.3406372070312,793.3699340820312
495,797.3992919921875,790.952392578125,790.5494384765625,795.7875366210938
496,795.7875366210938,786.5201416015625,792.5640869140625,795.3846435546875
497,790.1465454101562,787.3259887695312,794.1758422851562,793.3699340820312
498,792.5640869140625,789.3406372070312,799.4139404296875,794.5787353515625
499,794.1758422851562,787.3259887695312,801.4285888671875,799.4139404296875
500,790.5494384765625,788.937744140625,803.040283203125,799.4139404296875
501,787.3259887695312,788.5347900390625,804.2490844726562,799.4139404296875
502,787.7289428710938,787.3259887695312,801.4285888671875,794.981689453125
503,784.908447265625,789.3406372070312,801.4285888671875,792.967041015625
504,782.087890625,790.952392578125,797.3992919921875,792.967041015625
505,789.7435913085938,794.1758422851562,795.7875366210938,788.5347900390625
506,790.952392578125,788.5347900390625,793.3699340820312,784.1025390625
507,784.908447265625,784.908447265625,789.7435913085938,780.879150390625
508,783.6996459960938,789.7435913085938,793.3699340820312,783.2966918945312
509,794.5787353515625,791.3552856445312,794.5787353515625,788.5347900390625
510,801.4285888671875,788.5347900390625,793.3699340820312,794.1758422851562
511,801.4285888671875,789.3406372070312,794.1758422851562,800.6226806640625
512,798.2051391601562,790.5494384765625,793.3699340820312,791.7582397460938
513,799.4139404296875,797.3992919921875,796.1904907226562,789.7435913085938
514,803.8461303710938,796.996337890625,798.6080322265625,798.6080322265625
515,802.2344360351562,794.981689453125,797.3992919921875,799.4139404296875
516,803.4432373046875,797.3992919921875,799.010986328125,799.010986328125
517,801.025634765625,788.1318969726562,794.5787353515625,794.1758422851562
518,799.010986328125,788.937744140625,791.3552856445312,791.7582397460938
519,795.7875366210938,796.1904907226562,794.1758422851562,790.1465454101562
520,793.3699340820312,794.981689453125,792.5640869140625,786.1171875
521,792.967041015625,790.5494384765625,792.5640869140625,785.7142944335938
522,793.3699340820312,792.5640869140625,795.3846435546875,792.967041015625
523,792.967041015625,793.3699340820312,793.3699340820312,795.3846435546875
524,790.5494384765625,789.3406372070312,791.7582397460938,793.7728881835938
525,792.1611938476562,792.1611938476562,793.3699340820312,794.981689453125
526,787.3259887695312,797.8021850585938,791.3552856445312,784.908447265625
527,783.6996459960938,794.981689453125,790.952392578125,775.6410522460938
528,794.981689453125,788.937744140625,793.7728881835938,786.1171875
529,792.967041015625,788.5347900390625,792.5640869140625,792.967041015625
530,788.1318969726562,794.1758422851562,794.981689453125,789.7435913085938
531,780.0732421875,793.3699340820312,792.967041015625,788.1318969726562
532,775.2380981445312,783.6996459960938,791.7582397460938,793.3699340820312
533,782.893798828125,785.7142944335938,793.7728881835938,801.025634765625
534,783.6996459960938,790.5494384765625,792.5640869140625,801.8314819335938
535,784.908447265625,785.3113403320312,795.3846435546875,796.996337890625
536,793.7728881835938,787.3259887695312,796.5933837890625,796.996337890625
537,796.996337890625,788.1318969726562,794.5787353515625,793.7728881835938
538,792.1611938476562,786.5201416015625,793.7728881835938,790.5494384765625
539,789.3406372070312,782.893798828125,792.5640869140625,788.1318969726562
540,794.1758422851562,782.893798828125,792.967041015625,790.1465454101562
541,795.7875366210938,786.5201416015625,789.7435913085938,794.5787353515625
542,790.952392578125,786.5201416015625,783.6996459960938,788.937744140625
543,790.1465454101562,783.6996459960938,779.2673950195312,781.2820434570312
544,790.1465454101562,786.1171875,782.4908447265625,790.952392578125
545,790.5494384765625,787.7289428710938,784.908447265625,795.3846435546875
546,788.5347900390625,784.908447265625,781.2820434570312,784.1025390625
547,794.5787353515625,789.7435913085938,782.4908447265625,783.2966918945312
548,803.4432373046875,793.7728881835938,785.7142944335938,787.7289428710938
549,794.981689453125,794.5787353515625,783.6996459960938,784.5054931640625
550,788.937744140625,797.3992919921875,780.4761962890625,779.2673950195312
551,795.3846435546875,799.8168334960938,784.908447265625,780.4761962890625
552,792.1611938476562,798.6080322265625,790.1465454101562,778.8644409179688
553,793.3699340820312,794.1758422851562,789.7435913085938,773.6264038085938
554,796.996337890625,796.5933837890625,785.3113403320312,777.6557006835938
555,797.8021850585938,797.8021850585938,784.1025390625,783.2966918945312
556,799.8168334960938,794.1758422851562,787.3259887695312,791.7582397460938
557,797.8021850585938,794.1758422851562,790.1465454101562,795.3846435546875
558,799.010986328125,794.5787353515625,795.3846435546875,790.1465454101562
559,799.8168334960938,788.5347900390625,799.4139404296875,794.1758422851562
560,798.2051391601562,791.3552856445312,799.010986328125,798.2051391601562
561,798.2051391601562,798.6080322265625,798.6080322265625,802.2344360351562
562,795.3846435546875,796.996337890625,799.010986328125,801.025634765625
563,795.7875366210938,794.981689453125,798.2051391601562,803.4432373046875
564,795.3846435546875,794.981689453125,799.8168334960938,808.2783813476562
565,792.5640869140625,793.3699340820312,805.8607788085938,809.89013671875
566,790.5494384765625,789.3406372070312,804.2490844726562,812.3076782226562
567,790.952392578125,790.1465454101562,801.8314819335938,809.89013671875
568,801.025634765625,792.1611938476562,805.8607788085938,803.8461303710938
569,801.4285888671875,794.1758422851562,808.6813354492188,806.2637329101562
570,792.1611938476562,793.3699340820312,807.069580078125,811.098876953125
571,794.1758422851562,790.952392578125,801.8314819335938,807.069580078125
572,801.025634765625,787.3259887695312,796.5933837890625,804.6520385742188
573,793.3699340820312,788.1318969726562,794.1758422851562,797.8021850585938
574,793.3699340820312,794.981689453125,795.7875366210938,789.3406372070312
575,801.4285888671875,792.967041015625,794.5787353515625,789.7435913085938
576,799.8168334960938,788.5347900390625,796.996337890625,792.5640869140625
577,797.8021850585938,795.7875366210938,801.025634765625,794.1758422851562
578,801.025634765625,796.1904907226562,800.6226806640625,793.3699340820312
579,803.4432373046875,792.5640869140625,796.996337890625,796.1904907226562
580,796.1904907226562,790.1465454101562,792.5640869140625,790.952392578125
581,796.1904907226562,788.937744140625,792.5640869140625,780.0732421875
582,796.5933837890625,790.952392578125,794.981689453125,781.6849975585938
583,794.1758422851562,787.7289428710938,793.7728881835938,791.3552856445312
584,792.967041015625,790.952392578125,795.7875366210938,793.7728881835938
585,789.7435913085938,798.2051391601562,794.5787353515625,786.923095703125
586,785.7142944335938,797.3992919921875,789.7435913085938,783.6996459960938
587,784.5054931640625,791.7582397460938,792.5640869140625,788.937744140625
588,783.6996459960938,789.7435913085938,790.5494384765625,792.1611938476562
589,778.05859375,791.7582397460938,793.3699340820312,789.3406372070312
590,779.2673950195312,786.5201416015625,793.3699340820312,795.3846435546875
591,783.6996459960938,775.2380981445312,790.5494384765625,802.2344360351562
592,782.4908447265625,785.3113403320312,788.5347900390625,799.010986328125
593,782.4908447265625,793.3699340820312,791.7582397460938,791.3552856445312
594,780.0732421875,786.1171875,795.7875366210938,790.5494384765625
595,784.1025390625,789.3406372070312,797.8021850585938,795.7875366210938
596,790.1465454101562,797.3992919921875,798.2051391601562,795.3846435546875
597,790.952392578125,794.1758422851562,796.996337890625,794.5787353515625
598,796.1904907226562,791.3552856445312,797.3992919921875,799.8168334960938
599,797.8021850585938,794.5787353515625,795.7875366210938,803.040283203125
600,791.3552856445312,792.5640869140625,794.5787353515625,801.025634765625
601,794.1758422851562,789.7435913085938,796.5933837890625,803.040283203125
602,801.4285888671875,792.967041015625,794.5787353515625,798.2051391601562
603,805.4578857421875,792.5640869140625,793.3699340820312,790.1465454101562
604,796.996337890625,794.981689453125,792.1611938476562,788.937744140625
605,791.7582397460938,799.010986328125,791.7582397460938,789.7435913085938
606,799.8168334960938,797.3992919921875,793.3699340820312,794.5787353515625
607,799.010986328125,795.3846435546875,796.1904907226562,793.7728881835938
608,795.7875366210938,797.3992919921875,796.1904907226562,791.3552856445312
609,798.2051391601562,800.6226806640625,793.7728881835938,797.8021850585938
610,790.1465454101562,801.8314819335938,798.6080322265625,796.5933837890625
611,787.7289428710938,799.4139404296875,797.3992919921875,792.5640869140625
612,789.3406372070312,799.010986328125,796.5933837890625,793.7728881835938
613,792.5640869140625,799.8168334960938,797.8021850585938,801.025634765625
614,792.5640869140625,794.5787353515625,797.3992919921875,803.8461303710938
615,790.1465454101562,793.7728881835938,794.981689453125,798.6080322265625
616,792.967041015625,797.3992919921875,796.5933837890625,793.7728881835938
617,795.7875366210938,796.1904907226562,793.7728881835938,792.967041015625
618,796.996337890625,796.996337890625,793.7728881835938,801.4285888671875
619,796.996337890625,801.8314819335938,797.3992919921875,803.8461303710938
620,798.2051391601562,796.996337890625,797.3992919921875,799.4139404296875
621,799.010986328125,789.7435913085938,796.1904907226562,794.981689453125
622,798.2051391601562,794.5787353515625,794.981689453125,792.5640869140625
623,796.996337890625,796.1904907226562,796.5933837890625,793.7728881835938
624,799.8168334960938,796.1904907226562,796.1904907226562,796.5933837890625
625,799.4139404296875,798.2051391601562,796.1904907226562,795.7875366210938
626,792.967041015625,794.1758422851562,795.3846435546875,791.7582397460938
627,793.7728881835938,791.7582397460938,790.952392578125,790.5494384765625
628,799.010986328125,793.7728881835938,791.3552856445312,792.5640869140625
629,796.996337890625,791.7582397460938,794.981689453125,790.1465454101562
630,792.5640869140625,789.3406372070312,792.967041015625,789.3406372070312
631,790.952392578125,788.937744140625,791.7582397460938,792.5640869140625
632,789.7435913085938,786.923095703125,789.7435913085938,797.3992919921875
633,796.5933837890625,791.3552856445312,790.952392578125,801.4285888671875
634,803.040283203125,791.3552856445312,794.981689453125,793.3699340820312
635,803.040283203125,793.3699340820312,797.8021850585938,795.3846435546875
636,798.6080322265625,796.996337890625,798.6080322265625,798.6080322265625
637,796.5933837890625,792.5640869140625,794.981689453125,802.2344360351562
638,789.7435913085938,792.5640869140625,793.7728881835938,801.8314819335938
639,792.5640869140625,795.3846435546875,793.3699340820312,794.1758422851562
640,799.8168334960938,794.981689453125,791.7582397460938,794.5787353515625
641,797.8021850585938,792.1611938476562,790.5494384765625,789.3406372070312
642,792.1611938476562,790.1465454101562,792.5640869140625,784.1025390625
643,793.3699340820312,790.5494384765625,794.1758422851562,784.5054931640625
644,794.981689453125,792.5640869140625,792.1611938476562,780.879150390625
645,792.5640869140625,793.7728881835938,794.981689453125,777.2527465820312
646,794.5787353515625,796.1904907226562,797.8021850585938,782.087890625
647,801.4285888671875,794.981689453125,793.3699340820312,784.1025390625
648,804.6520385742188,790.5494384765625,792.5640869140625,786.5201416015625
649,803.040283203125,791.3552856445312,795.7875366210938,792.1611938476562
650,795.3846435546875,789.3406372070312,796.1904907226562,785.3113403320312
651,793.7728881835938,786.5201416015625,798.6080322265625,787.3259887695312
652,799.010986328125,790.5494384765625,801.4285888671875,805.4578857421875
653,796.996337890625,796.1904907226562,799.4139404296875,812.3076782226562
654,790.5494384765625,799.010986328125,799.4139404296875,799.010986328125
655,796.996337890625,795.3846435546875,797.8021850585938,796.1904907226562
656,805.8607788085938,792.967041015625,792.967041015625,797.3992919921875
657,801.4285888671875,793.7728881835938,796.1904907226562,794.1758422851562
658,801.4285888671875,789.3406372070312,796.996337890625,798.2051391601562
659,807.87548828125,786.5201416015625,795.3846435546875,802.2344360351562
660,806.2637329101562,790.952392578125,795.3846435546875,805.8607788085938
661,797.3992919921875,793.3699340820312,795.3846435546875,806.6666870117188
662,797.3992919921875,791.3552856445312,796.5933837890625,801.025634765625
663,798.2051391601562,787.3259887695312,792.5640869140625,799.4139404296875
664,797.3992919921875,791.7582397460938,794.1758422851562,804.2490844726562
665,801.025634765625,794.981689453125,796.1904907226562,798.6080322265625
666,801.4285888671875,794.5787353515625,796.1904907226562,783.2966918945312
667,801.8314819335938,798.2051391601562,799.8168334960938,788.937744140625
668,799.4139404296875,796.996337890625,798.6080322265625,797.3992919921875
669,794.5787353515625,796.1904907226562,792.5640869140625,788.937744140625
670,792.967041015625,794.1758422851562,794.981689453125,785.3113403320312
671,792.1611938476562,787.7289428710938,794.1758422851562,789.7435913085938
672,787.3259887695312,783.6996459960938,790.1465454101562,790.1465454101562
673,791.3552856445312,786.1171875,792.5640869140625,794.5787353515625
674,796.1904907226562,786.923095703125,795.3846435546875,798.2051391601562
675,798.2051391601562,784.908447265625,796.5933837890625,807.87548828125
676,797.3992919921875,790.1465454101562,799.4139404296875,807.069580078125
677,788.937744140625,795.7875366210938,801.025634765625,788.1318969726562
678,789.7435913085938,796.5933837890625,802.6373901367188,793.3699340820312
679,794.5787353515625,797.3992919921875,805.054931640625,808.2783813476562
680,788.1318969726562,792.5640869140625,801.8314819335938,803.4432373046875
681,784.1025390625,788.5347900390625,803.040283203125,796.1904907226562
682,790.952392578125,787.3259887695312,802.2344360351562,796.996337890625
683,798.2051391601562,782.893798828125,802.6373901367188,799.4139404296875
684,800.2197875976562,784.1025390625,801.4285888671875,796.1904907226562
685,807.069580078125,787.7289428710938,799.010986328125,797.8021850585938
686,804.2490844726562,788.937744140625,801.4285888671875,800.2197875976562
687,804.6520385742188,794.1758422851562,801.025634765625,792.967041015625
688,804.6520385742188,794.5787353515625,799.8168334960938,787.3259887695312
689,799.010986328125,793.7728881835938,801.8314819335938,785.7142944335938
690,799.4139404296875,796.1904907226562,802.2344360351562,787.3259887695312
691,797.8021850585938,791.3552856445312,793.3699340820312,796.996337890625
692,790.1465454101562,791.7582397460938,792.967041015625,794.1758422851562
693,792.967041015625,794.5787353515625,800.6226806640625,788.937744140625
694,795.3846435546875,790.1465454101562,794.981689453125,794.1758422851562
695,791.3552856445312,790.1465454101562,792.5640869140625,799.4139404296875
696,790.1465454101562,790.5494384765625,796.1904907226562,800.2197875976562
697,785.3113403320312,791.7582397460938,792.1611938476562,796.1904907226562
698,789.7435913085938,801.025634765625,788.5347900390625,801.025634765625
699,790.1465454101562,799.4139404296875,791.3552856445312,796.5933837890625
700,790.5494384765625,792.967041015625,791.7582397460938,792.967041015625
701,792.967041015625,795.3846435546875,792.967041015625,800.2197875976562
702,790.1465454101562,789.3406372070312,794.981689453125,801.8314819335938
703,790.5494384765625,785.7142944335938,792.967041015625,803.4432373046875
704,788.5347900390625,788.937744140625,798.2051391601562,800.6226806640625
705,784.1025390625,787.3259887695312,798.2051391601562,799.4139404296875
706,786.5201416015625,784.5054931640625,792.1611938476562,793.3699340820312
707,790.952392578125,789.3406372070312,796.996337890625,787.7289428710938
708,786.5201416015625,792.5640869140625,796.5933837890625,786.5201416015625
709,783.2966918945312,791.7582397460938,788.1318969726562,782.893798828125
710,786.5201416015625,791.3552856445312,790.1465454101562,786.1171875
711,787.7289428710938,787.3259887695312,794.1758422851562,792.5640869140625
712,787.3259887695312,784.1025390625,787.7289428710938,790.1465454101562
713,790.5494384765625,778.8644409179688,788.5347900390625,786.5201416015625
714,793.7728881835938,778.8644409179688,797.8021850585938,796.1904907226562
715,790.952392578125,789.3406372070312,799.8168334960938,796.5933837890625
716,785.7142944335938,788.5347900390625,796.1904907226562,788.1318969726562
717,788.5347900390625,787.3259887695312,797.8021850585938,793.7728881835938
718,788.5347900390625,789.3406372070312,798.6080322265625,794.981689453125
719,786.923095703125,790.952392578125,795.7875366210938,788.1318969726562
720,794.1758422851562,787.7289428710938,796.1904907226562,788.1318969726562
721,791.7582397460938,786.1171875,798.2051391601562,788.1318969726562
722,787.7289428710938,794.981689453125,797.8021850585938,793.7728881835938
723,793.3699340820312,796.1904907226562,797.3992919921875,800.2197875976562
724,793.3699340820312,791.7582397460938,802.6373901367188,799.4139404296875
725,793.3699340820312,787.7289428710938,803.8461303710938,802.2344360351562
726,796.1904907226562,790.952392578125,800.6226806640625,805.8607788085938
727,794.1758422851562,790.952392578125,799.4139404296875,796.1904907226562
728,796.996337890625,790.1465454101562,800.2197875976562,792.967041015625
729,801.4285888671875,796.1904907226562,798.6080322265625,796.5933837890625
730,797.3992919921875,793.7728881835938,793.3699340820312,795.7875366210938
731,793.3699340820312,794.5787353515625,793.7728881835938,794.1758422851562
732,798.6080322265625,796.996337890625,795.3846435546875,795.3846435546875
733,801.8314819335938,795.7875366210938,796.1904907226562,791.3552856445312
734,800.2197875976562,797.3992919921875,795.3846435546875,789.3406372070312
735,800.2197875976562,797.3992919921875,796.1904907226562,791.3552856445312
736,804.2490844726562,799.8168334960938,795.7875366210938,791.7582397460938
737,800.6226806640625,802.2344360351562,791.7582397460938,792.967041015625
738,792.5640869140625,797.8021850585938,793.3699340820312,796.1904907226562
739,792.1611938476562,788.5347900390625,790.1465454101562,789.3406372070312
740,798.2051391601562,793.3699340820312,786.5201416015625,785.7142944335938
741,797.3992919921875,799.010986328125,792.967041015625,793.7728881835938
742,794.981689453125,798.2051391601562,795.7875366210938,794.1758422851562
743,797.3992919921875,792.5640869140625,791.3552856445312,792.1611938476562
744,796.5933837890625,791.3552856445312,789.3406372070312,797.3992919921875
745,796.1904907226562,800.2197875976562,793.7728881835938,799.8168334960938
746,798.2051391601562,801.025634765625,796.996337890625,798.2051391601562
747,796.996337890625,797.3992919921875,792.5640869140625,792.967041015625
748,798.6080322265625,794.981689453125,788.937744140625,794.5787353515625
749,798.2051391601562,799.010986328125,789.7435913085938,800.6226806640625
750,784.1025390625,796.996337890625,792.967041015625,787.3259887695312
751,787.3259887695312,791.3552856445312,792.967041015625,786.1171875
752,792.1611938476562,794.1758422851562,792.5640869140625,788.1318969726562
753,787.7289428710938,797.8021850585938,797.3992919921875,784.1025390625
754,789.3406372070312,797.3992919921875,797.8021850585938,786.923095703125
755,794.981689453125,796.5933837890625,794.981689453125,792.1611938476562
756,799.8168334960938,792.1611938476562,798.2051391601562,796.996337890625
757,794.1758422851562,789.3406372070312,800.6226806640625,794.981689453125
758,791.7582397460938,794.5787353515625,797.3992919921875,797.8021850585938
759,796.5933837890625,796.1904907226562,797.3992919921875,797.8021850585938
760,800.2197875976562,792.967041015625,797.3992919921875,804.2490844726562
761,791.3552856445312,792.967041015625,798.2051391601562,807.069580078125
762,786.1171875,794.1758422851562,799.010986328125,799.4139404296875
763,797.8021850585938,792.5640869140625,795.7875366210938,799.4139404296875
764,804.2490844726562,794.1758422851562,802.2344360351562,800.2197875976562
765,799.4139404296875,798.6080322265625,805.054931640625,801.025634765625
766,796.1904907226562,796.1904907226562,801.4285888671875,804.2490844726562
767,794.5787353515625,786.1171875,798.6080322265625,798.6080322265625
768,788.5347900390625,788.5347900390625,798.6080322265625,790.5494384765625
769,788.1318969726562,796.5933837890625,801.8314819335938,796.5933837890625
770,793.7728881835938,796.5933837890625,798.6080322265625,798.6080322265625
771,790.5494384765625,798.6080322265625,796.996337890625,796.5933837890625
772,787.7289428710938,796.996337890625,797.3992919921875,795.3846435546875
773,788.1318969726562,793.3699340820312,798.2051391601562,792.5640869140625
774,786.5201416015625,793.7728881835938,795.7875366210938,794.5787353515625
775,790.5494384765625,792.967041015625,790.5494384765625,801.025634765625
776,788.937744140625,793.3699340820312,792.1611938476562,797.3992919921875
777,787.3259887695312,790.5494384765625,797.8021850585938,793.3699340820312
778,788.1318969726562,781.2820434570312,796.1904907226562,796.1904907226562
779,781.6849975585938,787.7289428710938,792.5640869140625,792.1611938476562
780,779.6703491210938,795.7875366210938,791.7582397460938,792.1611938476562
781,786.5201416015625,793.7728881835938,791.7582397460938,792.967041015625
782,785.7142944335938,792.1611938476562,788.5347900390625,788.5347900390625
783,778.8644409179688,787.7289428710938,790.952392578125,788.937744140625
784,782.087890625,784.908447265625,795.7875366210938,790.952392578125
785,779.6703491210938,786.1171875,792.967041015625,786.5201416015625
786,777.6557006835938,790.5494384765625,792.1611938476562,782.4908447265625
787,784.908447265625,788.5347900390625,793.7728881835938,790.1465454101562
788,782.087890625,788.5347900390625,797.3992919921875,792.1611938476562
789,778.05859375,793.3699340820312,801.8314819335938,785.7142944335938
790,786.5201416015625,790.952392578125,798.2051391601562,786.5201416015625
791,794.5787353515625,786.1171875,798.6080322265625,790.5494384765625
792,791.7582397460938,790.5494384765625,801.025634765625,795.3846435546875
793,788.5347900390625,794.1758422851562,798.2051391601562,800.6226806640625
794,789.7435913085938,794.1758422851562,799.4139404296875,803.8461303710938
795,792.5640869140625,792.1611938476562,802.2344360351562,800.6226806640625
796,794.981689453125,791.3552856445312,801.025634765625,801.8314819335938
797,795.3846435546875,793.7728881835938,798.6080322265625,802.6373901367188
798,796.1904907226562,794.981689453125,800.2197875976562,802.6373901367188
799,789.3406372070312,791.3552856445312,797.8021850585938,803.8461303710938
800,785.7142944335938,786.923095703125,794.5787353515625,799.010986328125
801,791.3552856445312,786.923095703125,797.8021850585938,800.2197875976562
802,795.3846435546875,790.952392578125,799.4139404296875,799.010986328125
803,796.5933837890625,784.908447265625,796.5933837890625,793.3699340820312
804,796.5933837890625,779.6703491210938,797.8021850585938,793.7728881835938
805,791.7582397460938,788.5347900390625,799.4139404296875,794.981689453125
806,790.5494384765625,788.1318969726562,797.3992919921875,803.8461303710938
807,784.908447265625,784.1025390625,799.010986328125,809.084228515625
808,781.2820434570312,788.937744140625,798.6080322265625,797.8021850585938
809,790.1465454101562,790.952392578125,796.5933837890625,796.5933837890625
810,798.2051391601562,792.5640869140625,796.996337890625,800.2197875976562
811,790.952392578125,796.1904907226562,799.4139404296875,789.3406372070312
812,785.7142944335938,792.5640869140625,799.010986328125,784.1025390625
813,784.908447265625,786.5201416015625,792.5640869140625,785.7142944335938
814,784.908447265625,788.1318969726562,791.7582397460938,784.1025390625
815,786.1171875,785.3113403320312,791.3552856445312,779.2673950195312
816,790.5494384765625,781.2820434570312,791.7582397460938,786.923095703125
817,798.2051391601562,785.3113403320312,794.981689453125,800.6226806640625
818,796.5933837890625,788.5347900390625,794.5787353515625,799.8168334960938
819,797.3992919921875,794.981689453125,794.1758422851562,799.8168334960938
820,792.967041015625,794.5787353515625,793.7728881835938,794.1758422851562
821,789.3406372070312,792.5640869140625,795.3846435546875,791.7582397460938
822,790.952392578125,794.5787353515625,795.3846435546875,791.7582397460938
823,794.1758422851562,795.3846435546875,793.7728881835938,790.952392578125
824,794.5787353515625,790.1465454101562,794.981689453125,788.937744140625
825,796.5933837890625,785.3113403320312,796.996337890625,794.981689453125
826,795.7875366210938,792.967041015625,796.996337890625,793.7728881835938
827,788.1318969726562,792.967041015625,796.996337890625,787.3259887695312
828,790.952392578125,784.5054931640625,794.981689453125,792.967041015625
829,791.3552856445312,783.6996459960938,795.7875366210938,788.5347900390625
830,783.2966918945312,786.5201416015625,796.5933837890625,784.1025390625
831,780.0732421875,789.7435913085938,794.1758422851562,786.5201416015625
832,782.893798828125,793.3699340820312,793.7728881835938,784.908447265625
833,787.7289428710938,794.5787353515625,793.7728881835938,792.967041015625
834,783.2966918945312,794.981689453125,795.3846435546875,797.8021850585938
835,776.0439453125,793.3699340820312,796.1904907226562,787.3259887695312
836,782.4908447265625,788.5347900390625,795.3846435546875,791.7582397460938
837,789.3406372070312,784.908447265625,794.981689453125,798.2051391601562
838,791.7582397460938,791.7582397460938,794.5787353515625,795.7875366210938
839,786.1171875,796.996337890625,794.1758422851562,784.5054931640625
840,784.1025390625,792.5640869140625,799.4139404296875,783.6996459960938
841,790.1465454101562,792.967041015625,804.2490844726562,799.010986328125
842,789.7435913085938,790.5494384765625,801.8314819335938,799.8168334960938
843,792.967041015625,786.923095703125,800.2197875976562,788.937744140625
844,801.025634765625,788.937744140625,799.8168334960938,793.7728881835938
845,804.2490844726562,792.967041015625,794.1758422851562,802.6373901367188
846,804.6520385742188,793.7728881835938,789.3406372070312,794.1758422851562
847,804.6520385742188,792.1611938476562,790.952392578125,788.937744140625
848,801.025634765625,792.1611938476562,786.923095703125,792.967041015625
849,799.8168334960938,794.981689453125,784.1025390625,788.5347900390625
850,801.4285888671875,795.7875366210938,784.908447265625,782.087890625
851,792.1611938476562,790.5494384765625,784.1025390625,779.2673950195312
852,788.1318969726562,795.7875366210938,788.937744140625,780.879150390625
853,795.7875366210938,797.8021850585938,788.937744140625,784.908447265625
854,801.025634765625,794.1758422851562,787.7289428710938,790.5494384765625
855,801.025634765625,792.1611938476562,786.5201416015625,790.1465454101562
856,792.1611938476562,789.7435913085938,786.923095703125,791.7582397460938
857,787.7289428710938,794.981689453125,790.5494384765625,802.2344360351562
858,791.7582397460938,803.040283203125,792.5640869140625,807.4725341796875
859,794.1758422851562,801.025634765625,795.3846435546875,810.6959838867188
860,791.3552856445312,797.8021850585938,794.981689453125,807.069580078125
861,791.3552856445312,799.010986328125,794.5787353515625,794.981689453125
862,795.7875366210938,800.2197875976562,797.3992919921875,794.1758422851562
863,796.5933837890625,799.010986328125,799.010986328125,794.981689453125
864,800.6226806640625,796.5933837890625,795.3846435546875,793.3699340820312
865,804.6520385742188,798.2051391601562,794.1758422851562,796.1904907226562
866,802.6373901367188,796.996337890625,796.996337890625,793.7728881835938
867,806.2637329101562,798.2051391601562,796.1904907226562,790.5494384765625
868,805.054931640625,797.3992919921875,798.6080322265625,794.5787353515625
869,798.6080322265625,797.3992919921875,799.010986328125,792.5640869140625
870,796.1904907226562,801.025634765625,791.7582397460938,788.1318969726562
871,791.3552856445312,790.5494384765625,788.937744140625,790.5494384765625
872,791.7582397460938,788.5347900390625,792.1611938476562,794.981689453125
873,795.3846435546875,794.981689453125,794.5787353515625,789.7435913085938
874,800.6226806640625,794.981689453125,795.7875366210938,788.937744140625
875,797.3992919921875,791.7582397460938,794.1758422851562,789.3406372070312
876,796.5933837890625,789.3406372070312,792.967041015625,788.1318969726562
877,798.2051391601562,788.5347900390625,792.967041015625,786.923095703125
878,797.8021850585938,785.3113403320312,792.1611938476562,790.952392578125
879,799.4139404296875,784.5054931640625,791.3552856445312,796.5933837890625
880,795.7875366210938,789.3406372070312,790.5494384765625,796.1904907226562
881,790.5494384765625,794.981689453125,793.7728881835938,795.7875366210938
882,791.7582397460938,799.010986328125,799.8168334960938,797.8021850585938
883,798.2051391601562,792.5640869140625,799.010986328125,802.2344360351562
884,793.3699340820312,788.1318969726562,797.3992919921875,790.1465454101562
885,798.6080322265625,792.1611938476562,796.996337890625,785.3113403320312
886,801.8314819335938,795.7875366210938,792.967041015625,794.1758422851562
887,795.3846435546875,795.3846435546875,792.1611938476562,792.1611938476562
888,795.3846435546875,793.3699340820312,795.7875366210938,785.3113403320312
889,796.996337890625,791.3552856445312,794.981689453125,786.923095703125
890,794.1758422851562,788.5347900390625,795.3846435546875,788.5347900390625
891,793.3699340820312,788.1318969726562,796.1904907226562,785.3113403320312
892,796.5933837890625,794.1758422851562,796.1904907226562,787.3259887695312
893,797.8021850585938,792.1611938476562,796.5933837890625,791.3552856445312
894,801.4285888671875,782.893798828125,796.1904907226562,801.025634765625
895,801.025634765625,786.923095703125,794.981689453125,801.8314819335938
896,796.5933837890625,794.1758422851562,798.6080322265625,798.6080322265625
897,793.3699340820312,793.7728881835938,802.2344360351562,806.2637329101562
898,794.1758422851562,792.967041015625,803.4432373046875,802.2344360351562
899,793.3699340820312,788.937744140625,802.6373901367188,797.8021850585938
900,793.7728881835938,784.5054931640625,799.8168334960938,801.025634765625
901,796.5933837890625,785.7142944335938,798.6080322265625,803.4432373046875
902,792.5640869140625,784.5054931640625,799.010986328125,800.2197875976562
903,794.1758422851562,790.952392578125,799.010986328125,793.3699340820312
904,792.5640869140625,804.6520385742188,801.025634765625,796.1904907226562
905,788.1318969726562,799.4139404296875,803.040283203125,800.2197875976562
906,786.1171875,788.5347900390625,797.8021850585938,800.2197875976562
907,783.2966918945312,792.5640869140625,795.7875366210938,795.7875366210938
908,786.923095703125,793.3699340820312,796.5933837890625,796.5933837890625
909,788.1318969726562,790.1465454101562,796.5933837890625,799.8168334960938
910,791.7582397460938,790.952392578125,795.7875366210938,792.967041015625
911,798.6080322265625,793.3699340820312,798.2051391601562,794.1758422851562
912,798.6080322265625,794.981689453125,804.6520385742188,797.8021850585938
913,796.5933837890625,791.3552856445312,802.6373901367188,793.3699340820312
914,797.8021850585938,792.5640869140625,799.010986328125,794.981689453125
915,793.7728881835938,793.7728881835938,799.4139404296875,798.2051391601562
916,796.5933837890625,791.3552856445312,797.8021850585938,796.5933837890625
917,801.4285888671875,790.5494384765625,798.2051391601562,796.996337890625
918,798.6080322265625,793.3699340820312,796.1904907226562,799.8168334960938
919,789.3406372070312,790.952392578125,796.1904907226562,792.1611938476562
920,788.937744140625,794.1758422851562,796.1904907226562,792.5640869140625
921,786.923095703125,799.8168334960938,792.5640869140625,789.7435913085938
922,788.937744140625,793.7728881835938,792.1611938476562,788.937744140625
923,799.010986328125,790.5494384765625,793.7728881835938,802.2344360351562
924,797.8021850585938,792.967041015625,791.3552856445312,797.3992919921875
925,794.981689453125,793.7728881835938,790.952392578125,789.7435913085938
926,790.1465454101562,795.7875366210938,792.1611938476562,782.4908447265625
927,788.5347900390625,799.4139404296875,790.5494384765625,776.0439453125
928,789.7435913085938,795.3846435546875,784.1025390625,786.1171875
929,792.5640869140625,793.7728881835938,786.1171875,803.8461303710938
930,794.981689453125,800.6226806640625,794.1758422851562,803.8461303710938
931,795.7875366210938,800.2197875976562,792.967041015625,794.1758422851562
932,799.8168334960938,790.952392578125,795.3846435546875,796.1904907226562
933,799.010986328125,790.5494384765625,795.7875366210938,792.1611938476562
934,792.967041015625,795.3846435546875,790.5494384765625,790.5494384765625
935,789.3406372070312,794.981689453125,794.1758422851562,798.2051391601562
936,791.7582397460938,792.1611938476562,795.7875366210938,801.4285888671875
937,790.1465454101562,790.5494384765625,794.1758422851562,799.010986328125
938,794.1758422851562,788.937744140625,796.1904907226562,799.8168334960938
939,794.1758422851562,783.6996459960938,793.7728881835938,800.2197875976562
940,791.7582397460938,781.2820434570312,790.952392578125,803.4432373046875
941,795.3846435546875,787.7289428710938,792.967041015625,811.098876953125
942,790.5494384765625,793.3699340820312,798.2051391601562,805.4578857421875
943,789.7435913085938,794.5787353515625,798.2051391601562,804.6520385742188
944,794.1758422851562,794.981689453125,795.3846435546875,811.5018310546875
945,792.1611938476562,790.952392578125,797.3992919921875,802.6373901367188
946,794.1758422851562,788.1318969726562,796.5933837890625,788.1318969726562
947,796.1904907226562,787.3259887695312,792.1611938476562,794.5787353515625
948,789.3406372070312,789.3406372070312,794.1758422851562,797.3992919921875
949,787.3259887695312,794.1758422851562,797.3992919921875,790.1465454101562
950,790.1465454101562,790.5494384765625,799.010986328125,790.1465454101562
951,790.952392578125,789.3406372070312,794.1758422851562,791.7582397460938
952,788.1318969726562,790.5494384765625,793.7728881835938,794.981689453125
953,781.6849975585938,788.937744140625,792.5640869140625,789.7435913085938
954,779.2673950195312,788.5347900390625,784.1025390625,781.6849975585938
955,783.6996459960938,791.7582397460938,786.923095703125,791.3552856445312
956,786.923095703125,792.5640869140625,791.7582397460938,793.3699340820312
957,788.5347900390625,791.7582397460938,791.7582397460938,791.3552856445312
958,788.1318969726562,794.981689453125,797.3992919921875,792.967041015625
959,788.937744140625,796.5933837890625,796.1904907226562,798.2051391601562
960,798.2051391601562,796.5933837890625,794.1758422851562,803.040283203125
961,798.2051391601562,794.1758422851562,794.5787353515625,801.025634765625
962,792.1611938476562,790.952392578125,792.1611938476562,796.996337890625
963,799.8168334960938,792.5640869140625,794.5787353515625,800.2197875976562
964,801.8314819335938,797.3992919921875,797.3992919921875,807.069580078125
965,796.1904907226562,797.3992919921875,795.7875366210938,808.6813354492188
966,796.996337890625,792.5640869140625,795.3846435546875,812.3076782226562
967,801.025634765625,790.1465454101562,794.5787353515625,811.5018310546875
968,796.1904907226562,788.5347900390625,792.1611938476562,804.6520385742188
969,790.952392578125,792.5640869140625,787.3259887695312,797.8021850585938
970,792.5640869140625,794.1758422851562,783.6996459960938,798.2051391601562
971,796.996337890625,793.7728881835938,790.1465454101562,799.8168334960938
972,792.967041015625,796.996337890625,794.1758422851562,794.1758422851562
973,791.3552856445312,795.7875366210938,791.7582397460938,790.952392578125
974,800.6226806640625,796.5933837890625,796.5933837890625,795.7875366210938
975,800.2197875976562,795.7875366210938,799.8168334960938,791.3552856445312
976,796.5933837890625,795.7875366210938,800.6226806640625,784.1025390625
977,797.8021850585938,803.040283203125,796.996337890625,781.2820434570312
978,801.8314819335938,799.8168334960938,792.967041015625,781.6849975585938
979,796.996337890625,796.1904907226562,792.1611938476562,788.5347900390625
980,790.1465454101562,797.3992919921875,794.1758422851562,784.1025390625
981,793.3699340820312,795.7875366210938,789.3406372070312,776.0439453125
982,794.981689453125,795.7875366210938,788.937744140625,783.6996459960938
983,792.5640869140625,794.981689453125,792.967041015625,791.7582397460938
984,791.7582397460938,796.5933837890625,792.5640869140625,793.7728881835938
985,794.5787353515625,794.5787353515625,796.5933837890625,796.1904907226562
986,800.6226806640625,791.7582397460938,792.5640869140625,799.4139404296875
987,803.4432373046875,795.3846435546875,793.7728881835938,799.8168334960938
988,802.6373901367188,793.7728881835938,796.5933837890625,796.5933837890625
989,803.040283203125,790.952392578125,793.7728881835938,799.4139404296875
990,806.2637329101562,796.1904907226562,794.1758422851562,809.89013671875
991,801.4285888671875,792.1611938476562,788.5347900390625,808.6813354492188
992,796.5933837890625,792.5640869140625,787.3259887695312,797.8021850585938
993,800.2197875976562,798.6080322265625,792.5640869140625,802.6373901367188
994,798.6080322265625,799.8168334960938,793.3699340820312,802.6373901367188
995,794.981689453125,798.2051391601562,796.996337890625,802.2344360351562
996,792.967041015625,791.7582397460938,798.2051391601562,801.4285888671875
997,793.7728881835938,788.1318969726562,794.981689453125,797.8021850585938
998,792.967041015625,787.3259887695312,792.1611938476562,796.996337890625
999,796.1904907226562,789.3406372070312,794.5787353515625,797.3992919921875
1000,798.6080322265625,794.981689453125,795.3846435546875,796.1904907226562
1001,795.7875366210938,794.5787353515625,792.1611938476562,792.967041015625
1002,794.5787353515625,787.7289428710938,795.7875366210938,787.7289428710938
1003,794.1758422851562,790.5494384765625,797.8021850585938,784.908447265625
1004,790.5494384765625,794.5787353515625,795.3846435546875,784.5054931640625
1005,787.3259887695312,797.3992919921875,792.5640869140625,786.923095703125
1006,787.7289428710938,801.025634765625,794.1758422851562,794.981689453125
1007,783.6996459960938,796.5933837890625,792.967041015625,798.6080322265625
1008,782.087890625,792.967041015625,792.1611938476562,795.7875366210938
1009,781.6849975585938,791.7582397460938,793.3699340820312,796.996337890625
1010,782.893798828125,790.1465454101562,792.5640869140625,807.4725341796875
1011,785.7142944335938,792.1611938476562,796.5933837890625,807.4725341796875
1012,784.1025390625,793.3699340820312,798.6080322265625,795.3846435546875
1013,779.6703491210938,786.923095703125,793.3699340820312,794.1758422851562
1014,786.1171875,785.3113403320312,789.7435913085938,803.040283203125
1015,795.3846435546875,790.1465454101562,792.967041015625,796.1904907226562
1016,794.981689453125,787.3259887695312,793.7728881835938,787.3259887695312
1017,796.996337890625,786.5201416015625,789.7435913085938,791.7582397460938
1018,794.981689453125,789.3406372070312,792.967041015625,791.7582397460938
1019,789.3406372070312,792.1611938476562,795.3846435546875,786.5201416015625
1020,794.981689453125,790.5494384765625,793.7728881835938,785.7142944335938
1021,797.8021850585938,788.5347900390625,797.3992919921875,786.5201416015625
1022,788.5347900390625,789.3406372070312,794.5787353515625,782.4908447265625
1023,789.3406372070312,786.5201416015625,794.5787353515625,780.0732421875
1024,795.3846435546875,788.937744140625,796.996337890625,787.7289428710938
1025,786.1171875,788.1318969726562,795.3846435546875,796.1904907226562
1026,780.879150390625,790.1465454101562,796.996337890625,791.7582397460938
1027,790.5494384765625,794.1758422851562,798.6080322265625,785.3113403320312
1028,790.952392578125,792.5640869140625,796.5933837890625,785.3113403320312
1029,791.3552856445312,794.1758422851562,798.6080322265625,792.1611938476562
1030,790.1465454101562,790.5494384765625,801.4285888671875,793.3699340820312
1031,788.1318969726562,786.5201416015625,797.3992919921875,790.5494384765625
1032,792.5640869140625,791.3552856445312,792.5640869140625,788.937744140625
1033,793.7728881835938,791.3552856445312,794.981689453125,786.1171875
1034,795.3846435546875,793.7728881835938,797.3992919921875,792.1611938476562
1035,795.7875366210938,795.3846435546875,796.5933837890625,794.981689453125
1036,797.8021850585938,793.7728881835938,794.5787353515625,798.2051391601562
1037,803.4432373046875,794.981689453125,796.5933837890625,801.8314819335938
1038,803.4432373046875,794.5787353515625,797.3992919921875,791.7582397460938
1039,799.4139404296875,790.5494384765625,795.7875366210938,788.937744140625
1040,797.3992919921875,792.5640869140625,794.5787353515625,792.1611938476562
1041,796.1904907226562,791.3552856445312,791.7582397460938,796.1904907226562
1042,795.3846435546875,786.5201416015625,794.981689453125,798.6080322265625
1043,795.7875366210938,787.7289428710938,794.5787353515625,796.996337890625
1044,795.3846435546875,793.3699340820312,793.3699340820312,799.8168334960938
1045,793.7728881835938,798.2051391601562,797.8021850585938,797.3992919921875
1046,795.3846435546875,796.996337890625,794.5787353515625,786.923095703125
1047,789.3406372070312,790.952392578125,793.3699340820312,787.3259887695312
1048,786.5201416015625,788.937744140625,796.1904907226562,799.010986328125
1049,792.5640869140625,791.3552856445312,797.3992919921875,803.4432373046875
1050,791.3552856445312,788.5347900390625,799.010986328125,798.2051391601562
1051,786.923095703125,790.952392578125,799.010986328125,800.2197875976562
1052,784.908447265625,792.1611938476562,799.4139404296875,801.8314819335938
1053,775.6410522460938,787.7289428710938,799.4139404296875,792.1611938476562
1054,778.05859375,786.1171875,798.2051391601562,791.7582397460938
1055,781.2820434570312,783.6996459960938,796.1904907226562,796.1904907226562
1056,772.8204956054688,783.6996459960938,794.5787353515625,793.7728881835938
1057,774.8351440429688,782.4908447265625,793.3699340820312,793.7728881835938
1058,779.2673950195312,784.1025390625,794.1758422851562,792.967041015625
1059,779.2673950195312,784.908447265625,794.5787353515625,794.981689453125
1060,788.1318969726562,784.908447265625,796.1904907226562,800.6226806640625
1061,790.1465454101562,790.1465454101562,795.7875366210938,792.967041015625
1062,788.1318969726562,792.5640869140625,796.996337890625,792.5640869140625
1063,793.3699340820312,786.923095703125,797.3992919921875,799.8168334960938
1064,795.3846435546875,785.7142944335938,794.1758422851562,792.1611938476562
1065,791.7582397460938,789.7435913085938,793.3699340820312,783.2966918945312
1066,791.3552856445312,794.1758422851562,796.5933837890625,783.6996459960938
1067,793.7728881835938,800.2197875976562,799.4139404296875,791.7582397460938
1068,790.952392578125,796.1904907226562,798.6080322265625,798.2051391601562
1069,789.7435913085938,794.1758422851562,796.5933837890625,799.8168334960938
1070,789.7435913085938,792.1611938476562,794.1758422851562,796.1904907226562
1071,788.1318969726562,793.3699340820312,797.3992919921875,793.7728881835938
1072,790.1465454101562,791.3552856445312,798.2051391601562,790.1465454101562
1073,797.3992919921875,787.7289428710938,799.4139404296875,791.3552856445312
1074,791.7582397460938,790.1465454101562,802.6373901367188,793.7728881835938
1075,774.029296875,785.3113403320312,798.2051391601562,783.6996459960938
1076,775.2380981445312,786.5201416015625,798.2051391601562,782.4908447265625
1077,779.6703491210938,791.7582397460938,802.2344360351562,789.7435913085938
1078,776.4468994140625,789.3406372070312,800.2197875976562,788.1318969726562
1079,776.0439453125,784.5054931640625,796.5933837890625,789.7435913085938
1080,779.6703491210938,788.5347900390625,795.3846435546875,795.3846435546875
1081,784.1025390625,791.7582397460938,797.3992919921875,794.1758422851562
1082,785.7142944335938,791.3552856445312,796.5933837890625,786.5201416015625
1083,787.7289428710938,791.7582397460938,792.1611938476562,785.3113403320312
1084,790.1465454101562,788.5347900390625,790.5494384765625,787.7289428710938
1085,793.7728881835938,789.7435913085938,788.937744140625,785.7142944335938
1086,797.3992919921875,791.3552856445312,784.1025390625,789.7435913085938
1087,797.3992919921875,792.5640869140625,784.5054931640625,794.5787353515625
1088,794.981689453125,796.5933837890625,787.7289428710938,788.5347900390625
1089,797.3992919921875,801.025634765625,788.1318969726562,787.3259887695312
1090,803.4432373046875,801.4285888671875,790.1465454101562,793.3699340820312
1091,803.8461303710938,797.8021850585938,790.5494384765625,792.5640869140625
1092,799.4139404296875,800.2197875976562,788.937744140625,792.967041015625
1093,799.010986328125,801.8314819335938,789.3406372070312,792.967041015625
1094,796.996337890625,796.996337890625,788.1318969726562,787.3259887695312
1095,796.996337890625,796.996337890625,789.3406372070312,792.1611938476562
1096,798.6080322265625,798.2051391601562,788.937744140625,798.2051391601562
1097,799.8168334960938,796.1904907226562,790.1465454101562,805.054931640625
1098,800.6226806640625,793.7728881835938,791.7582397460938,816.7399291992188
1099,791.7582397460938,786.923095703125,797.8021850585938,808.2783813476562
1100,789.7435913085938,787.7289428710938,801.025634765625,796.5933837890625
1101,799.8168334960938,790.1465454101562,796.996337890625,805.054931640625
1102,798.6080322265625,787.3259887695312,797.3992919921875,802.6373901367188
1103,790.5494384765625,783.6996459960938,797.8021850585938,792.1611938476562
1104,791.7582397460938,782.893798828125,795.3846435546875,788.937744140625
1105,799.010986328125,790.1465454101562,796.5933837890625,792.1611938476562
1106,803.040283203125,793.3699340820312,801.025634765625,801.4285888671875
1107,797.3992919921875,792.5640869140625,796.996337890625,803.040283203125
1108,794.1758422851562,794.981689453125,795.7875366210938,792.5640869140625
1109,798.2051391601562,791.7582397460938,796.996337890625,796.5933837890625
1110,798.6080322265625,786.5201416015625,790.5494384765625,795.7875366210938
1111,797.3992919921875,789.3406372070312,789.7435913085938,797.8021850585938
1112,802.2344360351562,791.7582397460938,792.967041015625,804.6520385742188
1113,813.113525390625,791.7582397460938,794.981689453125,802.6373901367188
1114,816.7399291992188,791.7582397460938,797.3992919921875,807.069580078125
1115,809.084228515625,792.5640869140625,791.7582397460938,805.4578857421875
1116,807.4725341796875,793.3699340820312,788.937744140625,803.040283203125
1117,803.8461303710938,794.5787353515625,787.3259887695312,801.025634765625
1118,800.6226806640625,794.1758422851562,789.7435913085938,801.8314819335938
1119,806.6666870117188,793.7728881835938,796.996337890625,802.6373901367188
1120,804.6520385742188,792.967041015625,796.5933837890625,794.981689453125
1121,795.3846435546875,792.1611938476562,796.1904907226562,796.996337890625
1122,792.967041015625,795.7875366210938,796.996337890625,801.4285888671875
1123,794.1758422851562,792.967041015625,799.010986328125,799.4139404296875
1124,791.7582397460938,790.5494384765625,801.025634765625,798.2051391601562
1125,789.3406372070312,791.3552856445312,799.8168334960938,792.5640869140625
1126,794.5787353515625,791.3552856445312,798.6080322265625,792.967041015625
1127,791.7582397460938,786.5201416015625,800.2197875976562,788.937744140625
1128,789.3406372070312,783.2966918945312,799.4139404296875,790.952392578125
1129,791.7582397460938,791.3552856445312,797.8021850585938,797.3992919921875
1130,790.5494384765625,795.7875366210938,796.1904907226562,786.1171875
1131,790.952392578125,794.5787353515625,799.4139404296875,784.1025390625
1132,790.5494384765625,794.981689453125,802.6373901367188,785.3113403320312
1133,792.967041015625,793.7728881835938,799.4139404296875,777.2527465820312
1134,790.952392578125,794.1758422851562,797.8021850585938,774.8351440429688
1135,787.7289428710938,788.937744140625,798.2051391601562,780.0732421875
1136,794.981689453125,790.5494384765625,797.3992919921875,781.2820434570312
1137,797.3992919921875,796.5933837890625,795.3846435546875,790.1465454101562
1138,794.5787353515625,799.4139404296875,799.8168334960938,797.3992919921875
1139,797.3992919921875,793.7728881835938,801.4285888671875,800.2197875976562
1140,803.040283203125,793.3699340820312,796.5933837890625,804.6520385742188
1141,804.2490844726562,797.8021850585938,800.6226806640625,812.3076782226562
1142,797.3992919921875,790.952392578125,803.4432373046875,811.5018310546875
1143,791.7582397460938,790.952392578125,799.8168334960938,803.4432373046875
1144,796.5933837890625,794.981689453125,801.025634765625,803.4432373046875
1145,797.8021850585938,796.5933837890625,804.2490844726562,797.8021850585938
1146,798.6080322265625,793.7728881835938,799.8168334960938,791.3552856445312
1147,801.4285888671875,787.7289428710938,798.2051391601562,793.3699340820312
1148,796.5933837890625,787.7289428710938,797.3992919921875,789.7435913085938
1149,792.1611938476562,789.3406372070312,792.1611938476562,782.4908447265625
1150,790.1465454101562,786.5201416015625,790.5494384765625,779.6703491210938
1151,791.7582397460938,784.5054931640625,793.3699340820312,783.6996459960938
1152,790.952392578125,782.4908447265625,792.5640869140625,782.893798828125
1153,784.1025390625,786.5201416015625,789.3406372070312,775.2380981445312
1154,788.937744140625,795.7875366210938,792.1611938476562,780.4761962890625
1155,793.3699340820312,796.996337890625,795.3846435546875,786.923095703125
1156,797.3992919921875,793.7728881835938,797.3992919921875,791.3552856445312
1157,798.6080322265625,787.7289428710938,793.3699340820312,792.1611938476562
1158,789.7435913085938,792.1611938476562,792.967041015625,788.937744140625
1159,791.3552856445312,794.981689453125,792.5640869140625,795.3846435546875
1160,799.4139404296875,790.952392578125,788.937744140625,802.2344360351562
1161,797.8021850585938,791.3552856445312,790.5494384765625,792.967041015625
1162,794.981689453125,792.5640869140625,796.1904907226562,794.1758422851562
1163,799.010986328125,790.1465454101562,796.996337890625,801.8314819335938
1164,800.2197875976562,788.937744140625,795.3846435546875,799.4139404296875
1165,794.1758422851562,788.1318969726562,792.1611938476562,786.923095703125
1166,796.5933837890625,789.7435913085938,788.937744140625,784.1025390625
1167,789.7435913085938,790.5494384765625,792.1611938476562,789.3406372070312
1168,777.2527465820312,790.1465454101562,793.3699340820312,785.3113403320312
1169,782.893798828125,789.3406372070312,794.5787353515625,788.1318969726562
1170,788.1318969726562,789.3406372070312,795.3846435546875,796.1904907226562
1171,788.1318969726562,788.5347900390625,792.967041015625,794.981689453125
1172,782.4908447265625,789.3406372070312,789.7435913085938,783.6996459960938
1173,785.7142944335938,789.3406372070312,788.1318969726562,781.2820434570312
1174,794.1758422851562,790.5494384765625,793.7728881835938,784.1025390625
1175,786.923095703125,788.937744140625,794.981689453125,774.8351440429688
1176,782.087890625,784.5054931640625,790.952392578125,776.0439453125
1177,784.908447265625,786.5201416015625,794.981689453125,786.923095703125
1178,784.1025390625,789.3406372070312,796.996337890625,786.923095703125
1179,787.3259887695312,792.967041015625,795.7875366210938,789.7435913085938
1180,791.3552856445312,795.7875366210938,797.8021850585938,790.952392578125
1181,792.5640869140625,795.3846435546875,798.2051391601562,793.7728881835938
1182,797.8021850585938,794.5787353515625,800.6226806640625,801.025634765625
1183,796.5933837890625,787.3259887695312,799.010986328125,800.6226806640625
1184,800.2197875976562,787.7289428710938,795.7875366210938,800.2197875976562
1185,805.4578857421875,792.1611938476562,801.4285888671875,805.054931640625
1186,799.010986328125,788.1318969726562,803.040283203125,807.4725341796875
1187,796.5933837890625,786.1171875,799.8168334960938,807.87548828125
1188,793.7728881835938,788.5347900390625,799.010986328125,804.6520385742188
1189,780.4761962890625,787.3259887695312,802.2344360351562,792.1611938476562
1190,777.2527465820312,781.6849975585938,801.4285888671875,792.5640869140625
1191,778.8644409179688,780.879150390625,801.025634765625,796.996337890625
1192,778.4615478515625,782.4908447265625,804.6520385742188,792.1611938476562
1193,781.2820434570312,785.7142944335938,799.8168334960938,789.7435913085938
1194,782.893798828125,789.3406372070312,797.3992919921875,794.981689453125
1195,780.0732421875,787.7289428710938,800.6226806640625,792.967041015625
1196,781.6849975585938,787.7289428710938,800.6226806640625,786.1171875
1197,788.5347900390625,786.1171875,794.981689453125,792.5640869140625
1198,788.937744140625,784.5054931640625,792.5640869140625,795.7875366210938
1199,781.2820434570312,789.7435913085938,792.5640869140625,789.7435913085938
1200,783.2966918945312,792.967041015625,788.5347900390625,785.7142944335938
1201,787.3259887695312,792.967041015625,787.3259887695312,789.3406372070312
1202,786.1171875,790.952392578125,789.3406372070312,792.5640869140625
1203,795.7875366210938,789.3406372070312,790.1465454101562,794.5787353515625
1204,798.6080322265625,788.5347900390625,788.937744140625,792.967041015625
1205,796.996337890625,790.952392578125,788.1318969726562,797.8021850585938
1206,794.1758422851562,794.981689453125,791.7582397460938,803.4432373046875
1207,793.3699340820312,798.2051391601562,795.7875366210938,795.3846435546875
1208,807.4725341796875,799.8168334960938,796.1904907226562,796.1904907226562
1209,815.93408203125,800.6226806640625,792.967041015625,799.4139404296875
1210,800.6226806640625,798.2051391601562,789.3406372070312,796.5933837890625
1211,795.7875366210938,799.4139404296875,789.3406372070312,798.2051391601562
1212,799.4139404296875,799.010986328125,790.952392578125,800.2197875976562
1213,792.1611938476562,792.967041015625,789.7435913085938,799.010986328125
1214,785.7142944335938,788.937744140625,791.3552856445312,794.1758422851562
1215,793.7728881835938,794.1758422851562,794.1758422851562,786.923095703125
1216,803.4432373046875,796.1904907226562,796.5933837890625,783.6996459960938
1217,799.010986328125,790.952392578125,797.8021850585938,786.923095703125
1218,797.3992919921875,796.996337890625,798.6080322265625,784.5054931640625
1219,799.010986328125,797.8021850585938,794.981689453125,780.879150390625
1220,802.6373901367188,794.981689453125,794.1758422851562,785.7142944335938
1221,799.4139404296875,798.6080322265625,797.3992919921875,786.1171875
1222,793.3699340820312,797.3992919921875,794.5787353515625,784.908447265625
1223,788.937744140625,795.7875366210938,796.5933837890625,786.923095703125
1224,781.6849975585938,792.5640869140625,795.7875366210938,790.5494384765625
1225,788.937744140625,792.1611938476562,794.981689453125,795.3846435546875
1226,795.7875366210938,791.3552856445312,800.2197875976562,796.5933837890625
1227,792.5640869140625,784.908447265625,801.8314819335938,801.025634765625
1228,795.3846435546875,781.2820434570312,801.025634765625,805.054931640625
1229,797.8021850585938,785.7142944335938,802.6373901367188,805.8607788085938
1230,794.1758422851562,793.7728881835938,799.8168334960938,799.4139404296875
1231,787.7289428710938,792.5640869140625,789.7435913085938,793.7728881835938
1232,786.5201416015625,790.1465454101562,788.937744140625,796.1904907226562
1233,790.952392578125,788.5347900390625,794.1758422851562,799.8168334960938
1234,791.3552856445312,788.937744140625,793.7728881835938,792.5640869140625
1235,789.7435913085938,794.981689453125,788.937744140625,788.5347900390625
1236,791.7582397460938,795.7875366210938,786.5201416015625,786.5201416015625
1237,797.8021850585938,796.1904907226562,789.7435913085938,779.6703491210938
1238,797.3992919921875,797.3992919921875,794.1758422851562,781.2820434570312
1239,796.996337890625,790.1465454101562,791.7582397460938,784.5054931640625
1240,795.3846435546875,787.7289428710938,786.1171875,783.2966918945312
1241,790.952392578125,791.7582397460938,788.1318969726562,778.8644409179688
1242,794.981689453125,793.3699340820312,792.5640869140625,783.2966918945312
1243,796.1904907226562,787.3259887695312,793.7728881835938,790.5494384765625
1244,797.3992919921875,781.2820434570312,792.1611938476562,796.996337890625
1245,792.967041015625,785.7142944335938,789.7435913085938,795.3846435546875
1246,789.3406372070312,788.1318969726562,786.1171875,785.7142944335938
1247,793.7728881835938,793.7728881835938,790.1465454101562,790.952392578125
1248,790.952392578125,796.1904907226562,794.5787353515625,798.2051391601562
1249,788.5347900390625,792.967041015625,795.3846435546875,800.6226806640625
1250,792.967041015625,789.3406372070312,791.3552856445312,803.8461303710938
1251,793.7728881835938,787.3259887695312,788.1318969726562,803.8461303710938
1252,793.3699340820312,789.3406372070312,795.7875366210938,803.8461303710938
1253,790.952392578125,788.5347900390625,801.025634765625,800.2197875976562
1254,793.3699340820312,786.923095703125,797.3992919921875,804.6520385742188
1255,801.8314819335938,784.1025390625,796.996337890625,807.069580078125
1256,797.8021850585938,786.1171875,801.4285888671875,805.4578857421875
1257,792.5640869140625,790.952392578125,800.2197875976562,802.2344360351562
1258,797.3992919921875,791.3552856445312,797.3992919921875,799.010986328125
1259,795.7875366210938,792.5640869140625,800.2197875976562,803.8461303710938
1260,794.1758422851562,792.967041015625,803.040283203125,804.2490844726562
1261,796.996337890625,792.5640869140625,805.4578857421875,801.4285888671875
1262,794.981689453125,793.7728881835938,803.040283203125,799.010986328125
1263,789.3406372070312,788.937744140625,799.8168334960938,800.6226806640625
1264,784.908447265625,787.7289428710938,797.8021850585938,796.1904907226562
1265,787.3259887695312,789.7435913085938,795.3846435546875,790.1465454101562
1266,789.3406372070312,793.7728881835938,797.3992919921875,793.3699340820312
1267,796.1904907226562,796.5933837890625,801.8314819335938,801.025634765625
1268,794.5787353515625,789.3406372070312,799.010986328125,798.2051391601562
1269,794.981689453125,790.5494384765625,796.996337890625,792.1611938476562
1270,801.4285888671875,794.981689453125,796.1904907226562,794.1758422851562
1271,798.6080322265625,792.967041015625,793.7728881835938,799.4139404296875
1272,798.2051391601562,792.5640869140625,795.7875366210938,794.5787353515625
1273,796.1904907226562,795.3846435546875,795.3846435546875,793.7728881835938
1274,791.7582397460938,790.952392578125,790.952392578125,799.4139404296875
1275,789.3406372070312,786.1171875,792.1611938476562,798.2051391601562
1276,785.3113403320312,789.3406372070312,794.5787353515625,798.2051391601562
1277,790.952392578125,794.981689453125,799.010986328125,802.6373901367188
1278,792.967041015625,791.3552856445312,801.025634765625,807.4725341796875
1279,781.6849975585938,786.5201416015625,796.996337890625,803.040283203125
1280,786.5201416015625,786.1171875,794.5787353515625,800.6226806640625
1281,793.3699340820312,790.1465454101562,793.3699340820312,803.4432373046875
1282,788.937744140625,792.967041015625,794.1758422851562,803.8461303710938
1283,790.1465454101562,788.5347900390625,796.1904907226562,805.054931640625
1284,792.1611938476562,788.937744140625,798.2051391601562,801.4285888671875
1285,786.923095703125,788.937744140625,792.967041015625,790.952392578125
1286,791.7582397460938,786.923095703125,791.3552856445312,797.8021850585938
1287,791.7582397460938,792.1611938476562,792.1611938476562,803.8461303710938
1288,789.3406372070312,796.1904907226562,793.3699340820312,794.981689453125
1289,792.1611938476562,792.967041015625,792.5640869140625,790.5494384765625
1290,790.952392578125,790.952392578125,792.1611938476562,795.3846435546875
1291,786.5201416015625,792.1611938476562,796.1904907226562,792.967041015625
1292,786.923095703125,787.7289428710938,794.5787353515625,783.6996459960938
1293,789.7435913085938,788.5347900390625,794.1758422851562,781.2820434570312
1294,792.5640869140625,796.1904907226562,798.2051391601562,786.923095703125
1295,792.5640869140625,794.5787353515625,799.4139404296875,793.7728881835938
1296,792.1611938476562,792.1611938476562,796.5933837890625,790.952392578125
1297,791.7582397460938,786.923095703125,792.5640869140625,784.908447265625
1298,792.967041015625,784.908447265625,789.7435913085938,789.7435913085938
1299,792.967041015625,788.937744140625,790.952392578125,796.1904907226562
1300,790.952392578125,793.7728881835938,794.1758422851562,794.981689453125
1301,791.3552856445312,790.1465454101562,795.3846435546875,801.8314819335938
1302,791.7582397460938,783.2966918945312,796.1904907226562,803.8461303710938
1303,788.1318969726562,789.3406372070312,796.996337890625,798.2051391601562
1304,782.4908447265625,788.1318969726562,796.5933837890625,801.4285888671875
1305,784.1025390625,785.7142944335938,792.5640869140625,799.8168334960938
1306,784.5054931640625,791.7582397460938,794.1758422851562,799.8168334960938
1307,788.1318969726562,791.3552856445312,796.5933837890625,798.6080322265625
1308,796.5933837890625,794.1758422851562,798.6080322265625,800.6226806640625
1309,794.1758422851562,798.6080322265625,800.2197875976562,803.4432373046875
1310,797.8021850585938,800.2197875976562,796.996337890625,797.3992919921875
1311,805.054931640625,803.040283203125,799.010986328125,795.3846435546875
1312,799.8168334960938,803.4432373046875,797.8021850585938,789.3406372070312
1313,794.5787353515625,799.010986328125,788.1318969726562,794.981689453125
1314,788.937744140625,799.8168334960938,791.3552856445312,797.3992919921875
1315,787.3259887695312,800.6226806640625,801.025634765625,791.3552856445312
1316,799.010986328125,799.010986328125,798.6080322265625,793.3699340820312
1317,801.8314819335938,794.5787353515625,794.981689453125,791.3552856445312
1318,795.7875366210938,791.7582397460938,797.3992919921875,794.1758422851562
1319,795.7875366210938,799.010986328125,800.2197875976562,798.2051391601562
1320,800.2197875976562,800.2197875976562,801.8314819335938,799.010986328125
1321,808.2783813476562,798.6080322265625,800.6226806640625,797.3992919921875
1322,804.2490844726562,797.3992919921875,799.010986328125,790.952392578125
1323,796.1904907226562,794.5787353515625,801.025634765625,792.1611938476562
1324,798.2051391601562,792.1611938476562,795.7875366210938,796.5933837890625
1325,796.996337890625,792.1611938476562,789.7435913085938,795.3846435546875
1326,792.1611938476562,795.7875366210938,790.952392578125,789.3406372070312
1327,800.2197875976562,797.3992919921875,790.1465454101562,793.3699340820312
1328,805.4578857421875,793.3699340820312,791.3552856445312,804.6520385742188
1329,796.5933837890625,786.5201416015625,795.3846435546875,805.054931640625
1330,798.2051391601562,789.3406372070312,799.4139404296875,799.4139404296875
1331,805.054931640625,794.981689453125,800.2197875976562,796.5933837890625
1332,808.2783813476562,792.1611938476562,799.4139404296875,796.996337890625
1333,804.2490844726562,792.967041015625,798.2051391601562,794.981689453125
1334,797.3992919921875,793.7728881835938,794.981689453125,788.5347900390625
1335,798.6080322265625,791.7582397460938,794.981689453125,792.967041015625
1336,802.6373901367188,790.5494384765625,796.1904907226562,805.8607788085938
1337,802.2344360351562,790.1465454101562,795.7875366210938,801.8314819335938
1338,801.8314819335938,792.5640869140625,797.3992919921875,798.2051391601562
1339,797.3992919921875,791.7582397460938,794.1758422851562,806.2637329101562
1340,793.3699340820312,785.3113403320312,794.981689453125,802.6373901367188
1341,800.6226806640625,790.952392578125,794.981689453125,794.981689453125
1342,799.8168334960938,790.952392578125,792.1611938476562,797.3992919921875
1343,794.5787353515625,782.4908447265625,793.3699340820312,801.8314819335938
1344,792.5640869140625,785.3113403320312,793.7728881835938,799.4139404296875
1345,795.7875366210938,790.5494384765625,796.5933837890625,799.8168334960938
1346,793.7728881835938,791.7582397460938,802.2344360351562,797.8021850585938
1347,789.7435913085938,787.3259887695312,800.2197875976562,795.7875366210938
1348,790.952392578125,786.5201416015625,793.7728881835938,796.996337890625
1349,787.3259887695312,788.1318969726562,795.7875366210938,788.937744140625
1350,788.1318969726562,790.5494384765625,799.010986328125,786.1171875
1351,793.7728881835938,794.1758422851562,798.6080322265625,790.5494384765625
1352,791.3552856445312,791.3552856445312,800.6226806640625,790.1465454101562
1353,780.879150390625,787.3259887695312,802.6373901367188,782.4908447265625
1354,775.2380981445312,784.5054931640625,799.8168334960938,777.6557006835938
1355,780.4761962890625,778.8644409179688,796.5933837890625,784.1025390625
1356,782.087890625,784.1025390625,797.3992919921875,785.3113403320312
1357,780.0732421875,787.7289428710938,796.5933837890625,778.05859375
1358,782.893798828125,787.3259887695312,792.1611938476562,779.2673950195312
1359,786.1171875,790.1465454101562,792.5640869140625,778.05859375
1360,785.7142944335938,787.7289428710938,796.5933837890625,779.2673950195312
1361,784.908447265625,790.952392578125,799.8168334960938,782.4908447265625
1362,784.1025390625,794.5787353515625,796.5933837890625,786.1171875
1363,786.5201416015625,791.3552856445312,796.5933837890625,797.8021850585938
1364,786.1171875,792.967041015625,801.4285888671875,796.5933837890625
1365,784.908447265625,795.3846435546875,802.2344360351562,795.7875366210938
1366,790.952392578125,792.5640869140625,801.4285888671875,801.4285888671875
1367,797.3992919921875,790.952392578125,795.7875366210938,805.054931640625
1368,800.2197875976562,792.5640869140625,792.1611938476562,806.6666870117188
1369,796.5933837890625,796.1904907226562,791.7582397460938,803.4432373046875
1370,789.3406372070312,792.5640869140625,791.7582397460938,798.6080322265625
1371,786.923095703125,789.7435913085938,793.3699340820312,799.4139404296875
1372,790.5494384765625,790.1465454101562,795.3846435546875,800.6226806640625
1373,791.7582397460938,792.5640869140625,797.8021850585938,796.1904907226562
1374,788.5347900390625,793.3699340820312,796.1904907226562,795.7875366210938
1375,788.937744140625,790.952392578125,793.7728881835938,794.981689453125
1376,792.1611938476562,788.937744140625,792.5640869140625,789.7435913085938
1377,791.3552856445312,787.7289428710938,789.7435913085938,787.7289428710938
1378,787.7289428710938,787.3259887695312,790.952392578125,788.5347900390625
1379,792.5640869140625,789.7435913085938,793.3699340820312,788.937744140625
1380,793.3699340820312,790.952392578125,795.3846435546875,788.937744140625
1381,788.5347900390625,790.952392578125,795.7875366210938,787.3259887695312
1382,787.7289428710938,787.7289428710938,790.5494384765625,782.893798828125
1383,785.7142944335938,780.0732421875,789.7435913085938,784.1025390625
1384,783.2966918945312,776.0439453125,793.3699340820312,788.937744140625
1385,779.2673950195312,785.3113403320312,794.1758422851562,792.967041015625
1386,779.6703491210938,792.1611938476562,794.5787353515625,794.5787353515625
1387,784.5054931640625,787.7289428710938,797.3992919921875,794.5787353515625
1388,788.937744140625,786.5201416015625,797.8021850585938,795.3846435546875
1389,787.3259887695312,789.3406372070312,795.7875366210938,802.6373901367188
1390,782.893798828125,790.5494384765625,795.7875366210938,800.2197875976562
1391,782.087890625,792.967041015625,793.7728881835938,790.952392578125
1392,785.7142944335938,791.3552856445312,794.5787353515625,794.5787353515625
1393,793.7728881835938,789.3406372070312,796.1904907226562,797.8021850585938
1394,794.981689453125,784.908447265625,791.7582397460938,797.3992919921875
1395,789.7435913085938,784.1025390625,788.5347900390625,795.3846435546875
1396,796.1904907226562,787.7289428710938,792.1611938476562,790.1465454101562
1397,802.2344360351562,785.7142944335938,799.010986328125,792.5640869140625
1398,801.4285888671875,786.1171875,797.8021850585938,792.5640869140625
1399,801.4285888671875,792.5640869140625,794.1758422851562,783.2966918945312
1400,796.1904907226562,794.5787353515625,796.1904907226562,786.1171875
1401,791.3552856445312,790.1465454101562,796.996337890625,791.3552856445312
1402,789.7435913085938,787.7289428710938,797.8021850585938,793.7728881835938
1403,786.923095703125,788.1318969726562,797.3992919921875,788.5347900390625
1404,788.1318969726562,788.5347900390625,792.1611938476562,788.1318969726562
1405,794.5787353515625,796.5933837890625,794.1758422851562,794.5787353515625
1406,797.3992919921875,797.3992919921875,801.025634765625,799.4139404296875
1407,798.6080322265625,794.981689453125,800.2197875976562,801.4285888671875
1408,802.2344360351562,797.8021850585938,790.952392578125,801.025634765625
1409,804.2490844726562,799.010986328125,788.1318969726562,808.2783813476562
1410,805.054931640625,798.2051391601562,797.8021850585938,809.084228515625
1411,803.4432373046875,800.6226806640625,800.2197875976562,806.2637329101562
1412,798.2051391601562,799.8168334960938,793.3699340820312,812.3076782226562
1413,796.1904907226562,795.3846435546875,790.952392578125,807.4725341796875
1414,799.8168334960938,794.1758422851562,794.1758422851562,805.8607788085938
1415,799.010986328125,792.5640869140625,794.5787353515625,808.6813354492188
1416,796.1904907226562,791.3552856445312,796.1904907226562,802.6373901367188
1417,799.8168334960938,788.1318969726562,794.5787353515625,792.5640869140625
1418,804.2490844726562,791.3552856445312,794.981689453125,790.1465454101562
1419,808.6813354492188,791.7582397460938,792.967041015625,790.5494384765625
1420,807.069580078125,788.937744140625,792.1611938476562,792.5640869140625
1421,807.87548828125,789.3406372070312,797.8021850585938,800.2197875976562
1422,804.6520385742188,786.5201416015625,798.6080322265625,794.5787353515625
1423,797.8021850585938,783.2966918945312,794.5787353515625,792.1611938476562
1424,800.6226806640625,793.3699340820312,795.3846435546875,797.8021850585938
1425,802.2344360351562,795.7875366210938,799.4139404296875,800.6226806640625
1426,793.3699340820312,790.952392578125,797.3992919921875,796.1904907226562
1427,785.7142944335938,792.967041015625,796.1904907226562,793.3699340820312
1428,784.1025390625,794.1758422851562,795.7875366210938,793.7728881835938
1429,785.7142944335938,794.5787353515625,796.5933837890625,790.1465454101562
1430,789.3406372070312,794.1758422851562,801.025634765625,788.5347900390625
1431,797.8021850585938,796.1904907226562,799.8168334960938,789.7435913085938
1432,801.025634765625,794.1758422851562,794.1758422851562,793.3699340820312
1433,801.8314819335938,789.7435913085938,794.981689453125,794.5787353515625
1434,807.069580078125,791.3552856445312,796.1904907226562,791.7582397460938
1435,803.4432373046875,795.3846435546875,790.5494384765625,795.7875366210938
1436,797.3992919921875,789.7435913085938,787.3259887695312,795.7875366210938
1437,793.7728881835938,783.2966918945312,784.908447265625,782.893798828125
1438,798.6080322265625,784.5054931640625,786.923095703125,778.8644409179688
1439,806.2637329101562,786.923095703125,789.7435913085938,788.1318969726562
1440,805.8607788085938,789.7435913085938,790.5494384765625,790.5494384765625
1441,797.3992919921875,791.7582397460938,795.3846435546875,787.7289428710938
1442,792.1611938476562,791.3552856445312,794.981689453125,786.923095703125
1443,796.1904907226562,791.3552856445312,790.5494384765625,790.1465454101562
1444,798.2051391601562,794.1758422851562,791.3552856445312,796.1904907226562
1445,794.1758422851562,792.5640869140625,793.7728881835938,795.7875366210938
1446,791.7582397460938,789.7435913085938,790.5494384765625,795.7875366210938
1447,791.3552856445312,790.1465454101562,792.1611938476562,792.5640869140625
1448,793.7728881835938,786.5201416015625,797.3992919921875,790.5494384765625
1449,789.7435913085938,786.923095703125,795.7875366210938,792.967041015625
1450,785.3113403320312,790.952392578125,793.7728881835938,792.967041015625
1451,784.908447265625,793.7728881835938,789.7435913085938,794.981689453125
1452,784.908447265625,793.3699340820312,794.5787353515625,803.4432373046875
1453,787.3259887695312,792.1611938476562,799.8168334960938,802.2344360351562
1454,791.3552856445312,792.967041015625,798.6080322265625,799.4139404296875
1455,793.7728881835938,788.937744140625,796.5933837890625,801.8314819335938
1456,783.6996459960938,786.1171875,793.3699340820312,796.1904907226562
1457,785.3113403320312,790.952392578125,791.7582397460938,784.908447265625
1458,797.3992919921875,788.5347900390625,793.7728881835938,780.0732421875
1459,800.2197875976562,784.908447265625,792.967041015625,787.7289428710938
1460,796.1904907226562,788.1318969726562,793.3699340820312,783.6996459960938
1461,791.3552856445312,786.923095703125,793.7728881835938,778.05859375
1462,796.5933837890625,790.5494384765625,787.3259887695312,782.893798828125
1463,803.4432373046875,801.4285888671875,791.3552856445312,788.1318969726562
1464,802.2344360351562,803.4432373046875,798.6080322265625,789.7435913085938
1465,796.1904907226562,796.1904907226562,794.5787353515625,789.3406372070312
1466,792.1611938476562,791.7582397460938,792.967041015625,791.7582397460938
1467,790.952392578125,791.7582397460938,796.5933837890625,787.3259887695312
1468,791.3552856445312,792.5640869140625,799.010986328125,787.7289428710938
1469,794.5787353515625,794.981689453125,802.2344360351562,791.3552856445312
1470,796.5933837890625,796.996337890625,800.2197875976562,791.7582397460938
1471,795.7875366210938,794.5787353515625,800.6226806640625,793.3699340820312
1472,795.3846435546875,792.1611938476562,803.4432373046875,794.1758422851562
1473,795.3846435546875,792.5640869140625,801.025634765625,799.8168334960938
1474,795.3846435546875,791.3552856445312,798.2051391601562,803.4432373046875
1475,797.8021850585938,792.1611938476562,794.981689453125,801.025634765625
1476,793.7728881835938,797.3992919921875,797.8021850585938,809.084228515625
1477,789.7435913085938,797.3992919921875,793.7728881835938,803.8461303710938
1478,790.1465454101562,797.3992919921875,790.1465454101562,802.2344360351562
1479,794.1758422851562,797.8021850585938,789.7435913085938,804.2490844726562
1480,796.5933837890625,798.6080322265625,790.5494384765625,795.3846435546875
1481,791.7582397460938,798.6080322265625,791.3552856445312,793.7728881835938
1482,791.3552856445312,793.3699340820312,789.3406372070312,798.2051391601562
1483,797.8021850585938,794.981689453125,791.3552856445312,787.7289428710938
1484,797.8021850585938,798.6080322265625,792.5640869140625,783.6996459960938
1485,797.8021850585938,797.8021850585938,790.5494384765625,794.5787353515625
1486,801.025634765625,795.3846435546875,790.1465454101562,795.7875366210938
1487,801.025634765625,794.5787353515625,792.1611938476562,798.6080322265625
1488,800.2197875976562,793.3699340820312,796.1904907226562,796.996337890625
1489,797.3992919921875,792.5640869140625,800.2197875976562,792.5640869140625
1490,791.7582397460938,792.1611938476562,797.3992919921875,792.967041015625
1491,788.937744140625,786.923095703125,792.967041015625,798.2051391601562
1492,789.3406372070312,788.5347900390625,791.7582397460938,795.7875366210938
1493,793.7728881835938,791.7582397460938,792.1611938476562,799.8168334960938
1494,788.1318969726562,787.7289428710938,791.7582397460938,800.6226806640625
1495,788.937744140625,788.1318969726562,791.3552856445312,791.3552856445312
1496,795.7875366210938,788.5347900390625,792.1611938476562,797.8021850585938
1497,794.5787353515625,784.5054931640625,792.1611938476562,801.8314819335938
1498,791.7582397460938,783.6996459960938,788.1318969726562,795.3846435546875
1499,790.5494384765625,786.5201416015625,788.5347900390625,791.7582397460938
1500,796.996337890625,786.1171875,794.5787353515625,797.3992919921875
1501,807.4725341796875,784.908447265625,798.6080322265625,804.6520385742188
1502,809.084228515625,782.4908447265625,794.981689453125,802.2344360351562
1503,799.4139404296875,788.5347900390625,792.1611938476562,795.3846435546875
1504,787.7289428710938,792.967041015625,790.1465454101562,784.5054931640625
1505,791.3552856445312,788.5347900390625,790.5494384765625,790.1465454101562
1506,799.8168334960938,789.7435913085938,796.996337890625,793.7728881835938
1507,798.6080322265625,790.1465454101562,801.025634765625,791.7582397460938
1508,799.8168334960938,787.3259887695312,803.040283203125,804.6520385742188
1509,799.8168334960938,786.923095703125,797.8021850585938,803.8461303710938
1510,796.996337890625,789.7435913085938,796.5933837890625,799.4139404296875
1511,801.4285888671875,794.1758422851562,800.6226806640625,801.025634765625
1512,808.6813354492188,795.3846435546875,801.025634765625,805.054931640625
1513,799.8168334960938,792.5640869140625,801.4285888671875,807.069580078125
1514,796.1904907226562,792.5640869140625,800.6226806640625,804.6520385742188
1515,799.4139404296875,792.967041015625,795.3846435546875,799.8168334960938
1516,792.1611938476562,788.937744140625,796.1904907226562,800.6226806640625
1517,785.7142944335938,785.3113403320312,803.040283203125,807.069580078125
1518,793.3699340820312,795.3846435546875,805.8607788085938,805.054931640625
1519,799.010986328125,798.6080322265625,803.040283203125,800.6226806640625
1520,799.010986328125,792.967041015625,799.8168334960938,802.6373901367188
1521,802.6373901367188,792.5640869140625,797.3992919921875,803.8461303710938
1522,798.2051391601562,790.5494384765625,793.3699340820312,794.5787353515625
1523,790.952392578125,786.1171875,799.010986328125,790.5494384765625
1524,790.5494384765625,791.7582397460938,805.4578857421875,798.6080322265625
1525,783.2966918945312,795.3846435546875,803.040283203125,796.996337890625
1526,780.4761962890625,791.3552856445312,798.2051391601562,789.3406372070312
1527,785.7142944335938,791.3552856445312,798.6080322265625,793.3699340820312
1528,789.7435913085938,788.937744140625,798.2051391601562,803.8461303710938
1529,789.7435913085938,788.937744140625,798.2051391601562,797.8021850585938
1530,789.7435913085938,799.010986328125,801.025634765625,789.3406372070312
1531,797.8021850585938,799.4139404296875,801.025634765625,793.7728881835938
1532,801.8314819335938,797.8021850585938,800.2197875976562,793.3699340820312
1533,797.8021850585938,802.2344360351562,800.2197875976562,792.5640869140625
1534,796.5933837890625,802.2344360351562,799.8168334960938,794.981689453125
1535,799.8168334960938,792.5640869140625,796.5933837890625,792.5640869140625
1536,801.8314819335938,787.7289428710938,796.996337890625,791.3552856445312
1537,798.6080322265625,788.1318969726562,796.1904907226562,793.3699340820312
1538,789.3406372070312,790.952392578125,796.5933837890625,788.937744140625
1539,784.1025390625,793.3699340820312,795.3846435546875,792.967041015625
1540,786.923095703125,792.5640869140625,796.1904907226562,797.8021850585938
1541,782.893798828125,789.7435913085938,796.5933837890625,785.7142944335938
1542,785.3113403320312,795.3846435546875,796.5933837890625,791.7582397460938
1543,796.5933837890625,796.5933837890625,795.7875366210938,803.8461303710938
1544,799.8168334960938,792.1611938476562,796.996337890625,803.4432373046875
1545,795.3846435546875,794.1758422851562,796.1904907226562,795.7875366210938
1546,795.7875366210938,790.952392578125,794.1758422851562,792.967041015625
1547,796.996337890625,790.5494384765625,796.1904907226562,797.8021850585938
1548,792.5640869140625,794.1758422851562,798.2051391601562,797.3992919921875
1549,787.7289428710938,790.952392578125,794.1758422851562,792.967041015625
1550,790.1465454101562,787.7289428710938,792.5640869140625,797.3992919921875
1551,792.967041015625,791.3552856445312,798.2051391601562,802.6373901367188
1552,789.3406372070312,789.7435913085938,795.7875366210938,794.1758422851562
1553,794.981689453125,788.5347900390625,792.5640869140625,791.7582397460938
1554,796.5933837890625,790.5494384765625,794.5787353515625,795.3846435546875
1555,796.996337890625,790.952392578125,792.1611938476562,800.6226806640625
1556,796.996337890625,789.7435913085938,793.3699340820312,796.996337890625
1557,789.7435913085938,787.7289428710938,792.967041015625,790.952392578125
1558,786.923095703125,791.3552856445312,789.3406372070312,789.7435913085938
1559,792.1611938476562,798.2051391601562,792.1611938476562,793.7728881835938
1560,790.952392578125,799.010986328125,793.7728881835938,799.010986328125
1561,787.7289428710938,798.2051391601562,791.7582397460938,792.967041015625
1562,793.7728881835938,796.996337890625,790.952392578125,795.7875366210938
1563,799.8168334960938,795.3846435546875,796.996337890625,804.6520385742188
1564,796.5933837890625,795.3846435546875,794.981689453125,801.025634765625
1565,796.1904907226562,796.1904907226562,788.5347900390625,799.8168334960938
1566,797.3992919921875,791.7582397460938,795.7875366210938,801.025634765625
1567,791.7582397460938,786.923095703125,799.010986328125,799.010986328125
1568,794.981689453125,793.3699340820312,796.996337890625,798.2051391601562
1569,792.1611938476562,795.3846435546875,797.3992919921875,797.3992919921875
1570,784.5054931640625,792.967041015625,796.996337890625,794.1758422851562
1571,786.5201416015625,798.6080322265625,794.1758422851562,789.3406372070312
1572,793.7728881835938,799.8168334960938,792.1611938476562,791.3552856445312
1573,792.1611938476562,795.3846435546875,791.7582397460938,796.996337890625
1574,795.3846435546875,792.5640869140625,790.952392578125,807.4725341796875
1575,803.040283203125,792.5640869140625,795.3846435546875,815.93408203125
1576,807.4725341796875,794.1758422851562,799.010986328125,813.113525390625
1577,806.2637329101562,795.7875366210938,792.1611938476562,802.6373901367188
