timestamp,RAW_TP9,RAW_AF7,RAW_AF8,RAW_TP10
1,778.8644409179688,785.7142944335938,803.040283203125,797.3992919921875
2,776.8497924804688,786.5201416015625,801.4285888671875,803.8461303710938
3,782.087890625,782.4908447265625,799.8168334960938,812.3076782226562
4,781.6849975585938,784.1025390625,798.6080322265625,809.4871826171875
5,780.0732421875,791.7582397460938,801.025634765625,805.4578857421875
6,787.3259887695312,794.5787353515625,804.6520385742188,809.89013671875
7,786.923095703125,788.5347900390625,803.040283203125,808.6813354492188
8,776.4468994140625,783.6996459960938,799.8168334960938,806.6666870117188
9,771.2088012695312,783.2966918945312,799.8168334960938,804.6520385742188
10,767.1795043945312,784.5054931640625,800.2197875976562,805.054931640625
11,759.5238037109375,785.7142944335938,801.025634765625,803.4432373046875
12,763.9560546875,788.937744140625,797.8021850585938,802.6373901367188
13,769.5970458984375,792.1611938476562,796.996337890625,793.7728881835938
14,767.1795043945312,797.3992919921875,799.010986328125,784.908447265625
15,771.2088012695312,798.6080322265625,796.5933837890625,790.952392578125
16,774.4322509765625,800.6226806640625,793.7728881835938,783.2966918945312
17,781.6849975585938,805.4578857421875,793.7728881835938,777.6557006835938
18,783.2966918945312,804.6520385742188,792.5640869140625,780.0732421875
19,778.8644409179688,804.2490844726562,792.5640869140625,783.6996459960938
20,777.6557006835938,802.2344360351562,792.1611938476562,786.1171875
21,778.4615478515625,799.4139404296875,791.7582397460938,782.893798828125
22,788.5347900390625,800.2197875976562,795.3846435546875,790.5494384765625
23,793.7728881835938,799.8168334960938,799.4139404296875,796.996337890625
24,790.1465454101562,793.3699340820312,798.2051391601562,796.1904907226562
25,795.3846435546875,792.5640869140625,794.981689453125,794.1758422851562
26,794.981689453125,790.952392578125,794.1758422851562,796.1904907226562
27,788.5347900390625,791.3552856445312,794.981689453125,798.6080322265625
28,786.923095703125,793.3699340820312,798.6080322265625,797.3992919921875
29,782.4908447265625,790.1465454101562,801.025634765625,790.5494384765625
30,783.6996459960938,791.7582397460938,797.3992919921875,789.3406372070312
31,785.7142944335938,791.7582397460938,798.2051391601562,788.1318969726562
32,783.2966918945312,787.7289428710938,799.010986328125,782.087890625
33,779.2673950195312,787.7289428710938,796.1904907226562,790.5494384765625
34,782.893798828125,787.7289428710938,795.3846435546875,789.3406372070312
35,788.937744140625,786.5201416015625,793.3699340820312,780.4761962890625
36,778.8644409179688,791.3552856445312,792.967041015625,782.4908447265625
37,773.6264038085938,789.3406372070312,794.981689453125,783.6996459960938
38,773.2234497070312,787.3259887695312,793.7728881835938,786.1171875
39,775.6410522460938,792.1611938476562,793.3699340820312,786.5201416015625
40,777.2527465820312,786.5201416015625,790.5494384765625,783.6996459960938
41,767.9853515625,784.908447265625,784.1025390625,783.2966918945312
42,769.5970458984375,786.923095703125,787.3259887695312,787.7289428710938
43,777.6557006835938,787.3259887695312,794.5787353515625,788.1318969726562
44,782.087890625,786.923095703125,796.996337890625,791.7582397460938
45,783.6996459960938,792.1611938476562,795.7875366210938,790.5494384765625
46,786.923095703125,794.1758422851562,794.981689453125,786.5201416015625
47,797.3992919921875,793.3699340820312,791.3552856445312,792.1611938476562
48,797.8021850585938,798.6080322265625,792.5640869140625,797.8021850585938
49,780.879150390625,802.6373901367188,794.5787353515625,789.3406372070312
50,774.8351440429688,807.069580078125,791.3552856445312,784.908447265625
51,780.0732421875,807.069580078125,793.7728881835938,784.1025390625
52,776.8497924804688,804.2490844726562,795.3846435546875,781.2820434570312
53,770.8058471679688,797.3992919921875,794.5787353515625,787.3259887695312
54,773.2234497070312,797.3992919921875,800.2197875976562,785.3113403320312
55,775.2380981445312,794.981689453125,800.2197875976562,780.4761962890625
56,777.2527465820312,790.5494384765625,799.010986328125,787.7289428710938
57,777.2527465820312,790.952392578125,794.1758422851562,786.5201416015625
58,776.8497924804688,791.3552856445312,790.5494384765625,790.5494384765625
59,775.2380981445312,793.3699340820312,796.1904907226562,790.1465454101562
60,779.6703491210938,790.952392578125,797.8021850585938,777.6557006835938
61,782.4908447265625,788.1318969726562,798.2051391601562,782.087890625
62,775.2380981445312,790.1465454101562,796.5933837890625,783.6996459960938
63,782.087890625,788.5347900390625,795.3846435546875,781.6849975585938
64,786.1171875,784.908447265625,798.6080322265625,791.3552856445312
65,779.6703491210938,786.1171875,800.2197875976562,799.8168334960938
66,768.3883056640625,790.5494384765625,800.2197875976562,791.7582397460938
67,766.3735961914062,791.7582397460938,799.8168334960938,789.7435913085938
68,770.8058471679688,788.1318969726562,795.7875366210938,796.1904907226562
69,775.2380981445312,781.6849975585938,790.952392578125,789.3406372070312
70,786.5201416015625,784.5054931640625,794.5787353515625,784.5054931640625
71,784.1025390625,788.937744140625,796.5933837890625,788.1318969726562
72,776.4468994140625,787.3259887695312,791.7582397460938,788.937744140625
73,781.2820434570312,784.1025390625,789.3406372070312,781.6849975585938
74,778.8644409179688,788.5347900390625,789.3406372070312,778.05859375
75,775.6410522460938,790.1465454101562,789.7435913085938,787.7289428710938
76,777.2527465820312,790.1465454101562,789.3406372070312,797.3992919921875
77,772.4176025390625,794.981689453125,789.7435913085938,791.7582397460938
78,775.2380981445312,800.6226806640625,789.7435913085938,787.3259887695312
79,786.5201416015625,803.4432373046875,793.3699340820312,788.5347900390625
80,790.1465454101562,800.6226806640625,793.3699340820312,787.3259887695312
81,787.7289428710938,798.2051391601562,792.1611938476562,787.7289428710938
82,786.1171875,800.2197875976562,792.5640869140625,782.087890625
83,787.3259887695312,802.2344360351562,792.5640869140625,785.7142944335938
84,797.3992919921875,802.2344360351562,793.3699340820312,791.3552856445312
85,793.7728881835938,800.2197875976562,792.5640869140625,782.893798828125
86,767.9853515625,797.3992919921875,792.1611938476562,775.6410522460938
87,763.1502075195312,794.981689453125,793.3699340820312,781.6849975585938
88,768.3883056640625,799.010986328125,793.3699340820312,790.952392578125
89,770.0,799.010986328125,787.7289428710938,780.879150390625
90,780.0732421875,796.996337890625,789.3406372070312,781.6849975585938
91,784.908447265625,798.2051391601562,790.1465454101562,786.5201416015625
92,782.893798828125,795.7875366210938,790.1465454101562,780.4761962890625
93,781.2820434570312,794.5787353515625,793.7728881835938,780.4761962890625
94,776.4468994140625,792.1611938476562,789.3406372070312,784.5054931640625
95,774.4322509765625,786.5201416015625,787.7289428710938,786.923095703125
96,773.6264038085938,786.1171875,786.5201416015625,782.893798828125
97,773.6264038085938,789.3406372070312,784.908447265625,782.4908447265625
98,773.2234497070312,793.7728881835938,790.952392578125,791.3552856445312
99,772.8204956054688,794.5787353515625,792.967041015625,789.7435913085938
100,770.0,790.1465454101562,790.5494384765625,782.893798828125
101,764.7619018554688,787.7289428710938,791.7582397460938,781.6849975585938
102,762.7472534179688,788.5347900390625,788.937744140625,779.2673950195312
103,773.2234497070312,788.5347900390625,788.1318969726562,780.879150390625
104,779.2673950195312,790.5494384765625,792.1611938476562,784.1025390625
105,780.0732421875,787.3259887695312,790.5494384765625,787.7289428710938
106,796.996337890625,788.1318969726562,791.7582397460938,792.1611938476562
107,801.8314819335938,792.967041015625,798.2051391601562,793.3699340820312
108,788.937744140625,792.1611938476562,800.2197875976562,790.5494384765625
109,792.967041015625,791.3552856445312,796.5933837890625,785.7142944335938
110,793.7728881835938,791.7582397460938,794.981689453125,784.908447265625
111,781.2820434570312,790.5494384765625,794.981689453125,790.952392578125
112,768.7911987304688,788.5347900390625,793.7728881835938,787.7289428710938
113,767.9853515625,792.967041015625,792.1611938476562,784.908447265625
114,779.2673950195312,796.5933837890625,791.7582397460938,790.5494384765625
115,790.5494384765625,792.5640869140625,788.1318969726562,788.5347900390625
116,799.010986328125,795.7875366210938,787.3259887695312,781.2820434570312
117,806.2637329101562,801.4285888671875,796.5933837890625,782.4908447265625
118,790.5494384765625,794.981689453125,796.5933837890625,790.952392578125
119,776.8497924804688,789.7435913085938,795.7875366210938,795.7875366210938
120,776.8497924804688,789.3406372070312,796.5933837890625,798.2051391601562
121,771.2088012695312,789.7435913085938,791.3552856445312,793.3699340820312
122,773.6264038085938,794.1758422851562,795.3846435546875,795.3846435546875
123,772.8204956054688,787.7289428710938,798.2051391601562,794.5787353515625
124,774.4322509765625,782.893798828125,793.3699340820312,786.5201416015625
125,776.0439453125,787.7289428710938,796.1904907226562,792.967041015625
126,767.1795043945312,789.7435913085938,800.6226806640625,796.5933837890625
127,774.4322509765625,791.7582397460938,801.4285888671875,791.3552856445312
128,787.7289428710938,792.1611938476562,802.2344360351562,788.5347900390625
129,787.7289428710938,790.952392578125,803.040283203125,786.5201416015625
130,785.7142944335938,787.3259887695312,801.4285888671875,781.6849975585938
131,781.6849975585938,784.1025390625,796.996337890625,778.4615478515625
132,777.2527465820312,785.3113403320312,795.3846435546875,774.4322509765625
133,782.087890625,788.5347900390625,796.5933837890625,780.879150390625
134,787.7289428710938,793.3699340820312,801.025634765625,791.3552856445312
135,788.1318969726562,791.3552856445312,798.6080322265625,786.923095703125
136,788.937744140625,787.7289428710938,797.8021850585938,783.6996459960938
137,778.8644409179688,791.3552856445312,797.8021850585938,786.923095703125
138,774.029296875,790.952392578125,797.3992919921875,793.7728881835938
139,774.4322509765625,791.7582397460938,795.3846435546875,795.3846435546875
140,766.7765502929688,788.5347900390625,796.1904907226562,788.1318969726562
141,764.7619018554688,789.3406372070312,796.5933837890625,781.2820434570312
142,775.2380981445312,794.981689453125,791.3552856445312,774.4322509765625
143,783.2966918945312,792.1611938476562,791.3552856445312,774.029296875
144,771.6116943359375,789.3406372070312,788.5347900390625,771.2088012695312
145,774.029296875,788.937744140625,788.5347900390625,776.4468994140625
146,784.908447265625,791.7582397460938,796.5933837890625,789.3406372070312
147,785.3113403320312,796.5933837890625,794.981689453125,786.1171875
148,784.5054931640625,794.5787353515625,794.5787353515625,780.4761962890625
149,788.1318969726562,793.3699340820312,797.3992919921875,786.1171875
150,790.952392578125,790.1465454101562,795.3846435546875,790.5494384765625
151,785.7142944335938,789.7435913085938,794.981689453125,790.5494384765625
152,782.4908447265625,793.7728881835938,793.3699340820312,789.3406372070312
153,796.5933837890625,797.3992919921875,794.5787353515625,784.5054931640625
154,790.952392578125,797.8021850585938,796.5933837890625,783.6996459960938
155,774.029296875,794.5787353515625,793.7728881835938,781.6849975585938
156,782.087890625,793.3699340820312,791.7582397460938,781.2820434570312
157,782.4908447265625,794.981689453125,789.3406372070312,785.7142944335938
158,778.8644409179688,794.981689453125,789.7435913085938,783.2966918945312
159,789.7435913085938,796.5933837890625,792.5640869140625,780.0732421875
160,796.5933837890625,801.4285888671875,794.1758422851562,791.3552856445312
161,792.967041015625,801.4285888671875,796.1904907226562,803.4432373046875
162,787.3259887695312,795.7875366210938,793.7728881835938,793.7728881835938
163,789.3406372070312,792.1611938476562,792.967041015625,782.4908447265625
164,786.923095703125,798.6080322265625,794.981689453125,783.2966918945312
165,779.2673950195312,801.4285888671875,791.3552856445312,783.2966918945312
166,780.4761962890625,797.8021850585938,790.952392578125,783.6996459960938
167,790.952392578125,795.7875366210938,790.952392578125,784.908447265625
168,783.6996459960938,795.3846435546875,786.923095703125,786.923095703125
169,775.6410522460938,795.7875366210938,787.3259887695312,790.5494384765625
170,784.5054931640625,797.3992919921875,792.5640869140625,787.3259887695312
171,790.1465454101562,796.5933837890625,789.3406372070312,781.2820434570312
172,786.1171875,787.7289428710938,785.7142944335938,783.2966918945312
173,781.2820434570312,788.937744140625,792.1611938476562,786.923095703125
174,781.2820434570312,796.996337890625,790.952392578125,784.1025390625
175,776.8497924804688,797.8021850585938,788.5347900390625,787.3259887695312
176,774.8351440429688,796.5933837890625,791.7582397460938,791.3552856445312
177,786.1171875,794.5787353515625,794.5787353515625,794.5787353515625
178,799.4139404296875,793.7728881835938,794.981689453125,796.996337890625
179,792.1611938476562,793.7728881835938,791.7582397460938,787.3259887695312
180,783.6996459960938,794.1758422851562,789.7435913085938,780.879150390625
181,783.6996459960938,793.3699340820312,788.937744140625,785.7142944335938
182,783.6996459960938,790.5494384765625,790.5494384765625,789.7435913085938
183,784.908447265625,792.967041015625,793.3699340820312,790.5494384765625
184,779.2673950195312,794.5787353515625,791.3552856445312,799.4139404296875
185,776.8497924804688,791.3552856445312,789.3406372070312,800.6226806640625
186,780.879150390625,792.5640869140625,792.5640869140625,794.981689453125
187,784.5054931640625,792.967041015625,791.3552856445312,794.5787353515625
188,805.054931640625,788.937744140625,789.3406372070312,791.7582397460938
189,822.3809814453125,790.5494384765625,792.1611938476562,790.1465454101562
190,799.010986328125,793.7728881835938,796.1904907226562,786.923095703125
191,778.8644409179688,790.952392578125,797.8021850585938,785.7142944335938
192,779.6703491210938,787.3259887695312,796.996337890625,784.1025390625
193,784.1025390625,783.6996459960938,798.6080322265625,786.923095703125
194,780.4761962890625,790.1465454101562,796.1904907226562,786.1171875
195,775.2380981445312,795.7875366210938,795.7875366210938,790.952392578125
196,780.4761962890625,793.7728881835938,796.5933837890625,792.5640869140625
197,778.8644409179688,794.5787353515625,796.1904907226562,784.1025390625
198,780.879150390625,794.981689453125,797.8021850585938,787.3259887695312
199,790.5494384765625,798.2051391601562,794.1758422851562,791.3552856445312
200,788.5347900390625,797.8021850585938,792.1611938476562,783.2966918945312
201,782.4908447265625,794.981689453125,792.5640869140625,774.8351440429688
202,785.7142944335938,792.5640869140625,790.1465454101562,774.029296875
203,792.5640869140625,789.3406372070312,788.5347900390625,777.6557006835938
204,790.1465454101562,790.1465454101562,789.3406372070312,782.4908447265625
205,784.5054931640625,788.1318969726562,792.967041015625,781.6849975585938
206,779.6703491210938,785.3113403320312,791.7582397460938,781.6849975585938
207,777.2527465820312,788.937744140625,785.7142944335938,788.1318969726562
208,788.5347900390625,798.2051391601562,792.5640869140625,788.1318969726562
209,791.3552856445312,800.6226806640625,795.3846435546875,789.7435913085938
210,783.2966918945312,794.981689453125,791.3552856445312,800.2197875976562
211,785.7142944335938,794.981689453125,789.3406372070312,799.8168334960938
212,797.3992919921875,794.5787353515625,786.5201416015625,788.937744140625
213,790.952392578125,788.5347900390625,781.2820434570312,776.4468994140625
214,779.2673950195312,781.2820434570312,781.6849975585938,778.4615478515625
215,781.2820434570312,780.879150390625,788.937744140625,784.5054931640625
216,781.6849975585938,787.7289428710938,790.952392578125,784.1025390625
217,782.4908447265625,787.3259887695312,789.7435913085938,782.893798828125
218,780.879150390625,784.5054931640625,789.3406372070312,790.1465454101562
219,781.2820434570312,787.3259887695312,791.3552856445312,797.3992919921875
220,797.3992919921875,791.7582397460938,796.5933837890625,795.3846435546875
221,802.6373901367188,790.952392578125,795.7875366210938,791.3552856445312
222,788.5347900390625,786.5201416015625,792.967041015625,787.7289428710938
223,793.3699340820312,784.5054931640625,795.3846435546875,788.5347900390625
224,787.7289428710938,786.5201416015625,792.1611938476562,787.3259887695312
225,778.05859375,783.2966918945312,787.7289428710938,789.3406372070312
226,773.6264038085938,782.4908447265625,789.7435913085938,786.923095703125
227,772.4176025390625,786.5201416015625,794.1758422851562,785.3113403320312
228,787.7289428710938,790.1465454101562,792.967041015625,790.5494384765625
229,786.1171875,791.3552856445312,789.3406372070312,787.3259887695312
230,779.2673950195312,792.5640869140625,794.1758422851562,786.923095703125
231,787.7289428710938,794.5787353515625,796.1904907226562,789.3406372070312
232,796.1904907226562,796.1904907226562,795.3846435546875,791.3552856445312
233,789.3406372070312,796.1904907226562,794.1758422851562,793.7728881835938
234,783.2966918945312,789.3406372070312,793.7728881835938,790.5494384765625
235,782.087890625,784.908447265625,791.7582397460938,786.1171875
236,781.2820434570312,788.1318969726562,788.5347900390625,793.7728881835938
237,781.2820434570312,789.3406372070312,791.3552856445312,798.2051391601562
238,778.8644409179688,790.952392578125,792.967041015625,794.5787353515625
239,774.4322509765625,793.3699340820312,791.7582397460938,796.1904907226562
240,779.6703491210938,791.7582397460938,790.1465454101562,788.5347900390625
241,772.8204956054688,786.923095703125,790.952392578125,782.087890625
242,774.029296875,786.923095703125,792.1611938476562,790.952392578125
243,782.4908447265625,791.3552856445312,789.7435913085938,788.1318969726562
244,777.2527465820312,788.937744140625,784.5054931640625,785.3113403320312
245,778.4615478515625,783.6996459960938,784.1025390625,790.1465454101562
246,775.6410522460938,785.3113403320312,788.1318969726562,788.5347900390625
247,784.1025390625,787.3259887695312,794.5787353515625,793.3699340820312
248,793.3699340820312,787.3259887695312,794.981689453125,801.025634765625
249,790.1465454101562,789.3406372070312,791.7582397460938,797.3992919921875
250,784.1025390625,786.5201416015625,790.5494384765625,794.1758422851562
251,779.2673950195312,786.1171875,793.3699340820312,795.7875366210938
252,782.4908447265625,787.3259887695312,792.5640869140625,792.967041015625
253,781.2820434570312,783.6996459960938,793.7728881835938,789.7435913085938
254,775.6410522460938,786.923095703125,795.3846435546875,790.5494384765625
255,779.6703491210938,784.1025390625,793.7728881835938,791.3552856445312
256,782.4908447265625,778.8644409179688,792.967041015625,792.5640869140625
257,782.4908447265625,792.967041015625,790.952392578125,796.5933837890625
258,784.1025390625,797.3992919921875,792.967041015625,792.967041015625
259,791.3552856445312,790.952392578125,795.7875366210938,787.3259887695312
260,787.3259887695312,790.1465454101562,799.010986328125,786.1171875
261,778.4615478515625,790.5494384765625,800.2197875976562,785.3113403320312
262,779.2673950195312,786.1171875,794.981689453125,791.7582397460938
263,784.1025390625,786.1171875,793.3699340820312,793.3699340820312
264,782.4908447265625,791.3552856445312,798.2051391601562,790.5494384765625
265,784.908447265625,788.5347900390625,796.5933837890625,791.7582397460938
266,787.3259887695312,788.5347900390625,792.967041015625,787.3259887695312
267,784.1025390625,789.7435913085938,790.1465454101562,788.937744140625
268,792.1611938476562,792.1611938476562,793.3699340820312,798.6080322265625
269,786.1171875,794.5787353515625,796.996337890625,799.4139404296875
270,776.8497924804688,792.1611938476562,796.5933837890625,799.4139404296875
271,772.8204956054688,789.7435913085938,797.8021850585938,793.7728881835938
272,774.029296875,790.5494384765625,801.4285888671875,787.7289428710938
273,784.1025390625,790.5494384765625,807.069580078125,791.7582397460938
274,787.7289428710938,786.1171875,805.4578857421875,796.5933837890625
275,788.1318969726562,782.893798828125,801.025634765625,799.010986328125
276,804.6520385742188,781.2820434570312,792.967041015625,799.8168334960938
277,809.89013671875,784.5054931640625,794.1758422851562,800.2197875976562
278,796.1904907226562,785.7142944335938,800.2197875976562,796.996337890625
279,788.5347900390625,784.1025390625,799.4139404296875,792.1611938476562
280,782.4908447265625,785.7142944335938,796.1904907226562,794.981689453125
281,776.0439453125,792.5640869140625,796.5933837890625,797.3992919921875
282,772.8204956054688,796.1904907226562,795.7875366210938,793.3699340820312
283,773.2234497070312,794.5787353515625,794.1758422851562,790.952392578125
284,782.087890625,793.3699340820312,794.5787353515625,789.3406372070312
285,785.7142944335938,792.1611938476562,793.3699340820312,782.087890625
286,787.3259887695312,791.3552856445312,794.5787353515625,780.4761962890625
287,795.7875366210938,788.937744140625,793.3699340820312,781.2820434570312
288,789.3406372070312,793.3699340820312,794.5787353515625,783.2966918945312
289,770.8058471679688,792.1611938476562,793.7728881835938,783.2966918945312
290,762.3442993164062,784.908447265625,788.937744140625,780.0732421875
291,765.970703125,782.893798828125,784.5054931640625,784.1025390625
292,770.4029541015625,782.893798828125,786.1171875,792.5640869140625
293,776.0439453125,786.5201416015625,788.937744140625,790.5494384765625
294,780.879150390625,784.1025390625,788.937744140625,784.1025390625
295,783.2966918945312,784.908447265625,788.5347900390625,788.1318969726562
296,784.5054931640625,787.3259887695312,791.7582397460938,794.1758422851562
297,785.7142944335938,786.5201416015625,794.1758422851562,790.5494384765625
298,790.952392578125,789.3406372070312,799.010986328125,791.3552856445312
299,798.2051391601562,788.5347900390625,799.8168334960938,794.1758422851562
300,792.1611938476562,792.967041015625,795.7875366210938,792.5640869140625
301,786.5201416015625,790.5494384765625,794.981689453125,792.967041015625
302,795.7875366210938,786.1171875,793.3699340820312,793.7728881835938
303,796.5933837890625,788.5347900390625,792.5640869140625,796.1904907226562
304,794.981689453125,788.937744140625,790.1465454101562,790.952392578125
305,793.3699340820312,784.5054931640625,786.923095703125,783.2966918945312
306,786.5201416015625,789.3406372070312,788.937744140625,781.6849975585938
307,784.1025390625,797.3992919921875,793.7728881835938,780.4761962890625
308,786.1171875,795.3846435546875,797.3992919921875,790.1465454101562
309,785.7142944335938,795.3846435546875,798.2051391601562,795.3846435546875
310,796.1904907226562,795.3846435546875,796.996337890625,797.3992919921875
311,788.1318969726562,797.3992919921875,799.010986328125,794.1758422851562
312,767.5823974609375,798.6080322265625,800.2197875976562,786.923095703125
313,773.6264038085938,800.6226806640625,799.4139404296875,793.3699340820312
314,778.4615478515625,805.4578857421875,799.010986328125,803.8461303710938
315,776.4468994140625,801.4285888671875,797.3992919921875,803.4432373046875
316,778.4615478515625,791.3552856445312,797.3992919921875,794.981689453125
317,783.6996459960938,788.1318969726562,795.3846435546875,787.7289428710938
318,790.5494384765625,789.7435913085938,795.3846435546875,790.952392578125
319,794.981689453125,788.937744140625,796.996337890625,798.6080322265625
320,794.981689453125,786.923095703125,796.5933837890625,795.7875366210938
321,800.2197875976562,787.3259887695312,793.3699340820312,800.2197875976562
322,811.5018310546875,790.5494384765625,792.5640869140625,791.7582397460938
323,809.89013671875,794.5787353515625,796.5933837890625,784.1025390625
324,785.3113403320312,799.4139404296875,795.3846435546875,789.7435913085938
325,779.2673950195312,799.4139404296875,793.3699340820312,782.087890625
326,782.087890625,802.6373901367188,794.1758422851562,794.1758422851562
327,776.8497924804688,801.4285888671875,796.5933837890625,801.4285888671875
328,782.087890625,800.2197875976562,798.6080322265625,789.7435913085938
329,783.2966918945312,804.2490844726562,794.5787353515625,786.1171875
330,778.05859375,801.8314819335938,790.5494384765625,784.1025390625
331,782.087890625,800.6226806640625,794.1758422851562,780.879150390625
332,777.6557006835938,795.3846435546875,795.7875366210938,779.2673950195312
333,766.7765502929688,791.7582397460938,796.996337890625,782.893798828125
334,765.1648559570312,795.3846435546875,798.2051391601562,783.2966918945312
335,772.4176025390625,800.2197875976562,797.8021850585938,784.908447265625
336,775.6410522460938,801.8314819335938,801.8314819335938,783.6996459960938
337,768.3883056640625,797.8021850585938,797.3992919921875,783.6996459960938
338,760.3296508789062,794.5787353515625,793.3699340820312,777.6557006835938
339,763.5531005859375,800.2197875976562,795.7875366210938,767.9853515625
340,771.2088012695312,812.3076782226562,801.8314819335938,768.7911987304688
341,757.5091552734375,811.098876953125,790.5494384765625,764.7619018554688
342,742.6007080078125,815.1282348632812,790.952392578125,750.2564086914062
343,732.930419921875,826.4102783203125,801.8314819335938,732.5274658203125
344,721.6483764648438,836.886474609375,796.996337890625,719.6337280273438
345,705.5311279296875,842.12451171875,792.967041015625,700.6959838867188
346,695.054931640625,841.7216186523438,792.967041015625,689.8168334960938
347,695.4578857421875,850.989013671875,797.3992919921875,681.3552856445312
348,676.923095703125,856.2271118164062,800.2197875976562,664.8351440429688
349,652.3442993164062,854.6153564453125,807.4725341796875,653.5531005859375
350,635.8241577148438,853.8095092773438,802.2344360351562,634.6153564453125
351,621.7216186523438,856.6300659179688,793.7728881835938,620.915771484375
352,623.3333129882812,857.8388061523438,799.010986328125,628.974365234375
353,633.8095092773438,853.8095092773438,796.5933837890625,636.2271118164062
354,633.8095092773438,855.8241577148438,796.996337890625,632.1978149414062
355,619.7069702148438,855.018310546875,795.3846435546875,625.7509155273438
356,627.3626098632812,848.974365234375,792.5640869140625,630.989013671875
357,652.3442993164062,845.3479614257812,799.010986328125,649.5238037109375
358,655.970703125,843.7362670898438,799.010986328125,662.8204956054688
359,650.3296508789062,841.7216186523438,801.8314819335938,668.05859375
360,655.1648559570312,839.7069702148438,807.069580078125,676.5201416015625
361,664.029296875,840.5128173828125,803.8461303710938,690.2197875976562
362,674.5054931640625,838.09521484375,799.4139404296875,694.2490844726562
363,686.5933837890625,836.08056640625,799.4139404296875,692.6373901367188
364,702.3076782226562,836.886474609375,796.1904907226562,705.1282348632812
365,721.6483764648438,835.6776733398438,793.7728881835938,725.6776733398438
366,732.5274658203125,831.6483764648438,792.967041015625,729.7069702148438
367,733.3333129882812,828.02197265625,796.5933837890625,732.12451171875
368,739.3773193359375,830.03662109375,796.996337890625,738.974365234375
369,749.8534545898438,830.4395751953125,789.3406372070312,747.032958984375
370,767.1795043945312,821.97802734375,786.5201416015625,762.7472534179688
371,784.908447265625,810.6959838867188,787.3259887695312,773.2234497070312
372,790.1465454101562,803.4432373046875,790.952392578125,783.2966918945312
373,786.1171875,798.6080322265625,791.7582397460938,786.5201416015625
374,782.087890625,788.1318969726562,786.923095703125,783.6996459960938
375,792.5640869140625,777.2527465820312,782.4908447265625,803.040283203125
376,801.025634765625,777.2527465820312,783.6996459960938,811.90478515625
377,808.2783813476562,772.8204956054688,785.7142944335938,802.6373901367188
378,818.3516235351562,765.1648559570312,783.2966918945312,810.2930297851562
379,816.7399291992188,766.7765502929688,782.4908447265625,817.94873046875
380,818.7545776367188,763.9560546875,783.2966918945312,820.3662719726562
381,820.7692260742188,757.5091552734375,780.879150390625,822.7838745117188
382,819.1575317382812,753.8828125,783.2966918945312,826.00732421875
383,817.1428833007812,755.4945068359375,785.3113403320312,831.6483764648438
384,827.6190185546875,758.3150024414062,784.1025390625,837.2893676757812
385,838.4981689453125,759.120849609375,788.1318969726562,838.901123046875
386,837.6923217773438,759.9267578125,788.1318969726562,840.10986328125
387,840.915771484375,754.6886596679688,789.3406372070312,854.2124633789062
388,839.3040161132812,757.5091552734375,788.937744140625,857.8388061523438
389,837.2893676757812,758.7179565429688,784.5054931640625,845.7509155273438
390,847.3626098632812,752.6740112304688,785.7142944335938,849.3773193359375
391,870.7326049804688,754.2857055664062,786.5201416015625,853.8095092773438
392,865.4945068359375,753.4798583984375,790.5494384765625,848.1685180664062
393,833.2600708007812,755.4945068359375,790.952392578125,839.7069702148438
394,827.6190185546875,761.1355590820312,788.1318969726562,833.2600708007812
395,834.8717651367188,759.5238037109375,788.1318969726562,834.06591796875
396,834.8717651367188,757.106201171875,784.5054931640625,831.2454223632812
397,836.4835205078125,760.7326049804688,782.087890625,830.03662109375
398,837.6923217773438,761.1355590820312,784.5054931640625,833.2600708007812
399,836.08056640625,763.9560546875,783.6996459960938,835.2747192382812
400,832.4542236328125,768.3883056640625,781.6849975585938,840.10986328125
401,833.6630249023438,771.2088012695312,786.5201416015625,844.5421142578125
402,835.6776733398438,772.4176025390625,786.923095703125,842.5274658203125
403,831.2454223632812,774.8351440429688,785.7142944335938,836.4835205078125
404,826.4102783203125,773.2234497070312,785.3113403320312,828.4249267578125
405,828.4249267578125,768.7911987304688,784.5054931640625,825.6043701171875
406,833.6630249023438,771.2088012695312,785.3113403320312,824.7985229492188
407,829.2307739257812,770.4029541015625,782.4908447265625,821.1721801757812
408,828.02197265625,770.0,780.4761962890625,827.2161254882812
409,828.02197265625,770.0,782.893798828125,830.8424682617188
410,830.4395751953125,767.9853515625,782.893798828125,838.09521484375
411,824.7985229492188,771.2088012695312,784.5054931640625,843.3333129882812
412,817.5457763671875,778.05859375,792.1611938476562,831.6483764648438
413,824.3956298828125,780.879150390625,797.3992919921875,830.8424682617188
414,828.4249267578125,780.879150390625,800.2197875976562,837.2893676757812
415,828.4249267578125,784.1025390625,801.8314819335938,837.2893676757812
416,827.6190185546875,786.1171875,800.6226806640625,836.08056640625
417,824.3956298828125,775.2380981445312,797.3992919921875,832.4542236328125
418,829.2307739257812,776.4468994140625,794.5787353515625,830.8424682617188
419,836.08056640625,783.2966918945312,795.3846435546875,824.3956298828125
420,839.7069702148438,779.2673950195312,795.3846435546875,821.5750732421875
421,828.4249267578125,776.4468994140625,792.967041015625,824.7985229492188
422,812.7106323242188,774.4322509765625,795.3846435546875,828.4249267578125
423,810.2930297851562,777.6557006835938,801.4285888671875,822.3809814453125
424,810.6959838867188,778.4615478515625,798.6080322265625,809.89013671875
425,813.5164794921875,779.6703491210938,795.3846435546875,810.2930297851562
426,815.1282348632812,782.087890625,798.2051391601562,819.1575317382812
427,809.4871826171875,783.6996459960938,794.5787353515625,817.94873046875
428,812.7106323242188,782.893798828125,792.1611938476562,810.6959838867188
429,817.1428833007812,777.2527465820312,789.7435913085938,812.3076782226562
430,819.5604248046875,779.6703491210938,788.937744140625,811.5018310546875
431,817.5457763671875,782.4908447265625,791.7582397460938,815.1282348632812
432,804.6520385742188,781.2820434570312,790.1465454101562,815.93408203125
433,801.4285888671875,780.4761962890625,788.5347900390625,810.2930297851562
434,804.6520385742188,780.0732421875,787.7289428710938,808.2783813476562
435,803.8461303710938,783.6996459960938,794.1758422851562,809.084228515625
436,809.084228515625,785.3113403320312,799.8168334960938,807.4725341796875
437,813.91943359375,784.908447265625,797.3992919921875,807.069580078125
438,806.2637329101562,784.5054931640625,795.7875366210938,809.084228515625
439,800.6226806640625,782.087890625,794.981689453125,811.098876953125
440,806.2637329101562,783.6996459960938,796.5933837890625,815.5311279296875
441,803.4432373046875,789.3406372070312,796.1904907226562,815.1282348632812
442,796.5933837890625,788.937744140625,794.981689453125,811.90478515625
443,800.2197875976562,786.923095703125,793.3699340820312,805.4578857421875
444,797.8021850585938,785.7142944335938,792.1611938476562,798.2051391601562
445,794.5787353515625,785.7142944335938,792.5640869140625,795.7875366210938
446,793.7728881835938,788.5347900390625,790.1465454101562,793.3699340820312
447,795.3846435546875,789.3406372070312,792.5640869140625,797.3992919921875
448,801.4285888671875,788.1318969726562,796.1904907226562,801.025634765625
449,800.6226806640625,787.7289428710938,795.3846435546875,796.5933837890625
450,799.4139404296875,790.952392578125,795.7875366210938,793.3699340820312
451,797.8021850585938,790.1465454101562,795.3846435546875,788.937744140625
452,796.996337890625,788.5347900390625,798.6080322265625,790.952392578125
453,806.6666870117188,790.952392578125,798.2051391601562,795.3846435546875
454,802.6373901367188,792.1611938476562,794.5787353515625,793.7728881835938
455,792.1611938476562,791.7582397460938,795.7875366210938,789.3406372070312
456,795.3846435546875,790.5494384765625,796.1904907226562,786.923095703125
457,787.3259887695312,789.7435913085938,793.7728881835938,787.7289428710938
458,780.4761962890625,792.1611938476562,788.937744140625,786.5201416015625
459,790.5494384765625,786.1171875,794.1758422851562,786.5201416015625
460,792.5640869140625,781.2820434570312,797.8021850585938,793.7728881835938
461,789.3406372070312,784.908447265625,796.1904907226562,799.4139404296875
462,794.1758422851562,785.3113403320312,801.025634765625,792.5640869140625
463,800.6226806640625,786.5201416015625,801.8314819335938,792.5640869140625
464,805.8607788085938,790.952392578125,802.6373901367188,801.4285888671875
465,801.8314819335938,790.1465454101562,801.4285888671875,799.4139404296875
466,792.967041015625,785.7142944335938,796.1904907226562,795.3846435546875
467,790.952392578125,778.05859375,794.1758422851562,794.981689453125
468,794.1758422851562,777.6557006835938,794.1758422851562,796.1904907226562
469,794.981689453125,785.3113403320312,794.1758422851562,799.010986328125
470,792.1611938476562,788.5347900390625,795.3846435546875,796.5933837890625
471,793.7728881835938,789.7435913085938,795.3846435546875,795.7875366210938
472,792.1611938476562,792.1611938476562,793.7728881835938,799.010986328125
473,788.1318969726562,790.952392578125,794.5787353515625,794.5787353515625
474,786.1171875,790.1465454101562,790.1465454101562,788.1318969726562
475,783.2966918945312,793.3699340820312,789.3406372070312,784.5054931640625
476,777.6557006835938,792.967041015625,792.5640869140625,779.2673950195312
477,780.879150390625,790.1465454101562,790.5494384765625,781.2820434570312
478,785.3113403320312,790.1465454101562,790.952392578125,788.937744140625
479,788.5347900390625,793.3699340820312,788.5347900390625,788.5347900390625
480,795.7875366210938,793.7728881835938,787.3259887695312,788.1318969726562
481,790.1465454101562,791.3552856445312,785.3113403320312,784.5054931640625
482,781.6849975585938,788.5347900390625,781.6849975585938,776.0439453125
483,775.6410522460938,784.908447265625,783.2966918945312,780.4761962890625
484,784.1025390625,785.7142944335938,787.7289428710938,786.923095703125
485,786.1171875,784.5054931640625,790.5494384765625,780.879150390625
486,774.029296875,781.6849975585938,793.7728881835938,783.6996459960938
487,772.4176025390625,781.6849975585938,794.1758422851562,792.1611938476562
488,788.937744140625,784.1025390625,790.952392578125,793.3699340820312
489,794.981689453125,784.908447265625,791.3552856445312,797.8021850585938
490,779.2673950195312,784.5054931640625,790.5494384765625,796.996337890625
491,785.7142944335938,785.3113403320312,790.5494384765625,803.4432373046875
492,794.1758422851562,783.2966918945312,792.967041015625,805.054931640625
493,789.7435913085938,781.6849975585938,794.1758422851562,799.010986328125
494,790.952392578125,786.923095703125,795.3846435546875,801.025634765625
495,787.3259887695312,784.908447265625,794.1758422851562,803.4432373046875
496,778.4615478515625,780.0732421875,794.981689453125,802.6373901367188
497,779.6703491210938,786.1171875,797.8021850585938,796.5933837890625
498,785.3113403320312,794.5787353515625,794.1758422851562,792.5640869140625
499,778.4615478515625,794.5787353515625,792.967041015625,792.5640869140625
500,774.4322509765625,792.967041015625,798.2051391601562,786.923095703125
501,783.6996459960938,797.3992919921875,798.6080322265625,779.2673950195312
502,779.6703491210938,798.2051391601562,792.1611938476562,777.2527465820312
503,778.4615478515625,799.8168334960938,793.3699340820312,781.6849975585938
504,787.3259887695312,799.4139404296875,793.7728881835938,786.923095703125
505,783.6996459960938,797.8021850585938,790.1465454101562,782.087890625
506,779.2673950195312,796.1904907226562,789.7435913085938,778.05859375
507,779.6703491210938,794.5787353515625,788.1318969726562,773.6264038085938
508,778.8644409179688,791.3552856445312,786.923095703125,770.8058471679688
509,786.923095703125,794.5787353515625,788.937744140625,775.2380981445312
510,794.1758422851562,799.8168334960938,792.5640869140625,781.2820434570312
511,788.1318969726562,801.8314819335938,797.8021850585938,786.923095703125
512,787.3259887695312,803.040283203125,796.996337890625,788.5347900390625
513,790.1465454101562,794.1758422851562,795.3846435546875,787.3259887695312
514,790.5494384765625,790.1465454101562,794.981689453125,790.5494384765625
515,796.996337890625,798.6080322265625,796.996337890625,798.6080322265625
516,799.010986328125,800.6226806640625,801.025634765625,801.025634765625
517,801.025634765625,798.2051391601562,800.6226806640625,808.2783813476562
518,807.069580078125,796.5933837890625,803.040283203125,810.6959838867188
519,814.7252807617188,794.981689453125,804.6520385742188,808.2783813476562
520,810.6959838867188,797.3992919921875,804.2490844726562,811.5018310546875
521,799.010986328125,796.996337890625,804.2490844726562,817.1428833007812
522,790.952392578125,799.010986328125,803.4432373046875,816.7399291992188
523,788.1318969726562,798.2051391601562,804.6520385742188,808.6813354492188
524,794.1758422851562,799.4139404296875,804.2490844726562,807.87548828125
525,790.1465454101562,804.6520385742188,801.4285888671875,807.069580078125
526,792.5640869140625,799.8168334960938,801.025634765625,800.2197875976562
527,799.010986328125,794.981689453125,800.2197875976562,791.7582397460938
528,793.3699340820312,792.967041015625,797.8021850585938,788.5347900390625
529,789.3406372070312,789.7435913085938,797.8021850585938,790.1465454101562
530,788.1318969726562,792.1611938476562,800.2197875976562,792.967041015625
531,782.4908447265625,795.7875366210938,799.010986328125,790.5494384765625
532,779.2673950195312,789.7435913085938,796.1904907226562,788.5347900390625
533,785.7142944335938,789.3406372070312,795.7875366210938,793.3699340820312
534,784.1025390625,795.3846435546875,795.7875366210938,795.3846435546875
535,782.087890625,793.7728881835938,795.3846435546875,798.2051391601562
536,784.1025390625,790.952392578125,793.7728881835938,802.2344360351562
537,780.0732421875,790.5494384765625,792.1611938476562,799.010986328125
538,780.879150390625,791.7582397460938,794.981689453125,799.8168334960938
539,791.7582397460938,794.5787353515625,794.1758422851562,802.6373901367188
540,800.6226806640625,796.5933837890625,791.3552856445312,801.8314819335938
541,801.025634765625,792.5640869140625,788.937744140625,795.3846435546875
542,796.1904907226562,790.1465454101562,789.3406372070312,787.3259887695312
543,793.7728881835938,792.967041015625,794.5787353515625,791.3552856445312
544,795.3846435546875,798.6080322265625,799.010986328125,798.6080322265625
545,796.996337890625,795.3846435546875,799.8168334960938,797.8021850585938
546,796.1904907226562,791.3552856445312,796.1904907226562,794.1758422851562
547,791.3552856445312,791.7582397460938,797.8021850585938,790.952392578125
548,782.893798828125,785.7142944335938,798.2051391601562,786.5201416015625
549,786.1171875,787.7289428710938,799.8168334960938,788.5347900390625
550,792.1611938476562,790.5494384765625,802.2344360351562,790.5494384765625
551,794.5787353515625,790.1465454101562,805.4578857421875,797.3992919921875
552,794.1758422851562,793.3699340820312,805.054931640625,803.8461303710938
553,785.3113403320312,795.7875366210938,801.4285888671875,796.5933837890625
554,776.4468994140625,793.7728881835938,800.2197875976562,789.3406372070312
555,778.4615478515625,792.5640869140625,798.2051391601562,788.1318969726562
556,785.3113403320312,793.3699340820312,796.5933837890625,788.937744140625
557,785.3113403320312,788.937744140625,794.5787353515625,786.5201416015625
558,786.1171875,787.3259887695312,791.3552856445312,781.2820434570312
559,792.1611938476562,788.1318969726562,792.1611938476562,788.1318969726562
560,790.1465454101562,788.5347900390625,794.981689453125,791.3552856445312
561,785.3113403320312,789.3406372070312,796.996337890625,788.937744140625
562,784.1025390625,792.5640869140625,796.1904907226562,790.952392578125
563,779.6703491210938,793.7728881835938,795.3846435546875,795.3846435546875
564,785.3113403320312,792.1611938476562,796.996337890625,792.967041015625
565,792.5640869140625,794.981689453125,797.8021850585938,787.7289428710938
566,784.908447265625,794.1758422851562,795.7875366210938,790.5494384765625
567,781.6849975585938,790.1465454101562,792.1611938476562,786.923095703125
568,780.0732421875,788.5347900390625,789.7435913085938,789.3406372070312
569,781.2820434570312,795.7875366210938,794.5787353515625,793.3699340820312
570,788.937744140625,803.4432373046875,799.8168334960938,790.952392578125
571,790.952392578125,798.2051391601562,799.8168334960938,788.1318969726562
572,793.3699340820312,797.8021850585938,799.010986328125,786.5201416015625
573,796.996337890625,796.996337890625,799.010986328125,789.7435913085938
574,799.4139404296875,794.981689453125,801.025634765625,794.981689453125
575,797.3992919921875,791.7582397460938,800.2197875976562,796.1904907226562
576,794.981689453125,792.967041015625,799.010986328125,791.7582397460938
577,800.6226806640625,797.8021850585938,801.8314819335938,793.7728881835938
578,797.8021850585938,799.4139404296875,798.2051391601562,794.5787353515625
579,790.5494384765625,795.7875366210938,794.5787353515625,795.3846435546875
580,791.3552856445312,791.7582397460938,800.6226806640625,794.981689453125
581,794.5787353515625,792.967041015625,800.2197875976562,794.981689453125
582,792.5640869140625,797.3992919921875,797.8021850585938,800.6226806640625
583,789.3406372070312,800.6226806640625,800.2197875976562,800.2197875976562
584,783.2966918945312,796.1904907226562,802.2344360351562,796.996337890625
585,777.2527465820312,790.1465454101562,803.040283203125,795.3846435546875
586,780.879150390625,788.5347900390625,798.2051391601562,793.3699340820312
587,780.4761962890625,786.923095703125,789.3406372070312,791.3552856445312
588,780.0732421875,788.5347900390625,790.5494384765625,788.1318969726562
589,784.908447265625,792.5640869140625,798.6080322265625,790.1465454101562
590,784.1025390625,792.1611938476562,798.2051391601562,795.3846435546875
591,785.7142944335938,792.5640869140625,794.981689453125,797.8021850585938
592,786.923095703125,794.1758422851562,796.1904907226562,799.4139404296875
593,793.7728881835938,796.996337890625,797.8021850585938,800.6226806640625
594,799.8168334960938,799.010986328125,796.996337890625,799.010986328125
595,801.8314819335938,799.010986328125,793.3699340820312,798.6080322265625
596,806.2637329101562,797.8021850585938,792.1611938476562,792.5640869140625
597,799.010986328125,796.996337890625,790.1465454101562,786.923095703125
598,798.2051391601562,799.8168334960938,787.7289428710938,789.3406372070312
599,799.4139404296875,801.4285888671875,791.3552856445312,789.3406372070312
600,798.6080322265625,801.8314819335938,794.1758422851562,794.5787353515625
601,797.8021850585938,801.4285888671875,793.3699340820312,798.2051391601562
602,798.2051391601562,797.3992919921875,790.952392578125,797.8021850585938
603,800.2197875976562,796.1904907226562,789.7435913085938,800.2197875976562
604,790.952392578125,794.5787353515625,790.5494384765625,787.3259887695312
605,788.1318969726562,793.3699340820312,789.3406372070312,787.3259887695312
606,784.5054931640625,794.5787353515625,786.5201416015625,790.5494384765625
607,784.5054931640625,787.7289428710938,788.1318969726562,790.1465454101562
608,786.1171875,787.3259887695312,791.3552856445312,789.7435913085938
609,774.029296875,789.7435913085938,790.5494384765625,782.4908447265625
610,774.4322509765625,790.1465454101562,788.937744140625,783.2966918945312
611,774.8351440429688,790.1465454101562,792.967041015625,783.6996459960938
612,776.0439453125,791.7582397460938,794.1758422851562,782.893798828125
613,779.6703491210938,786.923095703125,790.952392578125,780.0732421875
614,774.029296875,784.1025390625,790.5494384765625,775.2380981445312
615,777.6557006835938,789.3406372070312,791.3552856445312,778.8644409179688
616,784.5054931640625,796.5933837890625,790.952392578125,784.5054931640625
617,784.5054931640625,799.010986328125,793.7728881835938,788.937744140625
618,785.7142944335938,797.3992919921875,794.981689453125,793.7728881835938
619,783.2966918945312,794.1758422851562,793.7728881835938,791.3552856445312
620,782.4908447265625,794.5787353515625,790.1465454101562,788.5347900390625
621,788.1318969726562,797.3992919921875,790.1465454101562,792.1611938476562
622,788.5347900390625,796.1904907226562,790.5494384765625,791.7582397460938
623,788.5347900390625,792.967041015625,785.7142944335938,784.908447265625
624,791.7582397460938,795.7875366210938,784.908447265625,787.3259887695312
625,790.5494384765625,798.6080322265625,787.7289428710938,794.5787353515625
626,791.7582397460938,793.3699340820312,791.3552856445312,796.5933837890625
627,791.7582397460938,791.7582397460938,793.3699340820312,792.967041015625
628,791.3552856445312,793.7728881835938,794.1758422851562,795.3846435546875
629,786.923095703125,792.1611938476562,789.3406372070312,794.981689453125
630,782.087890625,794.5787353515625,786.1171875,792.967041015625
631,778.8644409179688,799.4139404296875,792.1611938476562,793.7728881835938
632,781.6849975585938,794.981689453125,794.1758422851562,789.3406372070312
633,785.7142944335938,792.967041015625,792.967041015625,785.3113403320312
634,788.5347900390625,794.981689453125,796.1904907226562,784.5054931640625
635,793.3699340820312,792.967041015625,796.996337890625,781.6849975585938
636,797.3992919921875,794.981689453125,797.3992919921875,782.4908447265625
637,801.8314819335938,800.6226806640625,798.6080322265625,788.937744140625
638,793.7728881835938,794.1758422851562,792.967041015625,782.4908447265625
639,782.087890625,790.1465454101562,790.952392578125,776.8497924804688
640,780.0732421875,790.5494384765625,793.3699340820312,778.8644409179688
641,780.0732421875,789.3406372070312,794.981689453125,780.0732421875
642,784.5054931640625,790.5494384765625,792.1611938476562,778.8644409179688
643,796.996337890625,793.7728881835938,790.5494384765625,783.2966918945312
644,795.7875366210938,798.6080322265625,794.1758422851562,789.7435913085938
645,785.7142944335938,799.4139404296875,795.3846435546875,792.967041015625
646,784.908447265625,798.6080322265625,794.1758422851562,792.967041015625
647,785.7142944335938,795.3846435546875,796.5933837890625,792.967041015625
648,784.1025390625,790.1465454101562,797.8021850585938,792.967041015625
649,779.2673950195312,786.923095703125,798.2051391601562,793.3699340820312
650,780.0732421875,787.7289428710938,800.6226806640625,798.2051391601562
651,782.893798828125,791.3552856445312,801.4285888671875,796.996337890625
652,784.1025390625,790.5494384765625,803.040283203125,794.5787353515625
653,784.908447265625,788.1318969726562,800.2197875976562,794.5787353515625
654,786.1171875,785.7142944335938,798.2051391601562,792.967041015625
655,782.4908447265625,785.7142944335938,799.4139404296875,789.3406372070312
656,778.05859375,786.923095703125,797.8021850585938,785.7142944335938
657,786.5201416015625,790.5494384765625,796.5933837890625,791.7582397460938
658,796.1904907226562,795.7875366210938,799.010986328125,795.3846435546875
659,792.5640869140625,796.5933837890625,799.010986328125,789.3406372070312
660,789.7435913085938,794.5787353515625,796.5933837890625,790.952392578125
661,788.937744140625,795.3846435546875,797.3992919921875,794.1758422851562
662,783.2966918945312,799.010986328125,793.7728881835938,790.952392578125
663,788.937744140625,794.1758422851562,792.967041015625,788.1318969726562
664,795.3846435546875,792.5640869140625,795.7875366210938,782.4908447265625
665,795.3846435546875,792.967041015625,796.5933837890625,781.6849975585938
666,788.5347900390625,786.923095703125,796.5933837890625,786.923095703125
667,788.5347900390625,790.1465454101562,797.3992919921875,792.5640869140625
668,800.6226806640625,798.2051391601562,794.1758422851562,795.7875366210938
669,799.010986328125,796.5933837890625,790.952392578125,796.5933837890625
670,794.1758422851562,788.5347900390625,792.5640869140625,799.8168334960938
671,797.3992919921875,787.3259887695312,794.981689453125,797.3992919921875
672,799.4139404296875,790.952392578125,799.4139404296875,792.5640869140625
673,793.7728881835938,787.7289428710938,794.5787353515625,788.5347900390625
674,788.937744140625,783.6996459960938,788.937744140625,780.879150390625
675,786.923095703125,783.6996459960938,785.7142944335938,786.5201416015625
676,784.908447265625,785.3113403320312,787.7289428710938,788.1318969726562
677,788.937744140625,788.1318969726562,791.3552856445312,774.4322509765625
678,792.1611938476562,786.923095703125,791.3552856445312,770.0
679,786.923095703125,786.5201416015625,791.7582397460938,773.2234497070312
680,791.3552856445312,789.7435913085938,791.7582397460938,778.05859375
681,792.967041015625,792.967041015625,789.7435913085938,780.879150390625
682,790.1465454101562,793.3699340820312,790.1465454101562,786.5201416015625
683,792.967041015625,796.1904907226562,792.1611938476562,794.981689453125
684,799.8168334960938,801.025634765625,792.967041015625,797.8021850585938
685,800.6226806640625,799.8168334960938,798.6080322265625,798.2051391601562
686,790.1465454101562,798.2051391601562,798.2051391601562,792.967041015625
687,786.5201416015625,797.8021850585938,799.4139404296875,796.5933837890625
688,786.5201416015625,795.3846435546875,803.040283203125,802.6373901367188
689,783.2966918945312,788.937744140625,797.8021850585938,792.967041015625
690,787.3259887695312,788.937744140625,792.1611938476562,786.5201416015625
691,794.981689453125,798.6080322265625,794.1758422851562,792.967041015625
692,792.5640869140625,797.8021850585938,796.996337890625,799.8168334960938
693,786.5201416015625,791.3552856445312,793.7728881835938,797.8021850585938
694,782.087890625,792.1611938476562,792.5640869140625,798.2051391601562
695,781.2820434570312,793.3699340820312,794.1758422851562,796.5933837890625
696,779.2673950195312,793.7728881835938,790.952392578125,794.1758422851562
697,780.0732421875,796.1904907226562,791.3552856445312,792.5640869140625
698,786.1171875,795.7875366210938,793.7728881835938,794.5787353515625
699,786.923095703125,795.3846435546875,793.3699340820312,797.8021850585938
700,786.5201416015625,795.3846435546875,792.967041015625,790.952392578125
701,788.1318969726562,791.7582397460938,792.1611938476562,789.7435913085938
702,788.937744140625,792.5640869140625,792.967041015625,792.967041015625
703,790.1465454101562,798.6080322265625,794.1758422851562,791.3552856445312
704,795.3846435546875,804.2490844726562,796.5933837890625,788.937744140625
705,789.3406372070312,800.6226806640625,799.010986328125,787.7289428710938
706,781.6849975585938,791.7582397460938,795.7875366210938,784.908447265625
707,784.908447265625,795.3846435546875,796.996337890625,787.3259887695312
708,788.5347900390625,795.7875366210938,799.8168334960938,788.1318969726562
709,794.5787353515625,789.7435913085938,799.010986328125,792.967041015625
710,799.010986328125,795.7875366210938,800.2197875976562,806.6666870117188
711,798.6080322265625,802.2344360351562,799.4139404296875,805.4578857421875
712,787.3259887695312,793.7728881835938,796.1904907226562,792.967041015625
713,786.1171875,788.1318969726562,796.996337890625,796.1904907226562
714,795.3846435546875,797.8021850585938,797.8021850585938,802.2344360351562
715,798.6080322265625,797.3992919921875,800.2197875976562,798.2051391601562
716,798.2051391601562,796.1904907226562,804.2490844726562,792.5640869140625
717,797.3992919921875,796.5933837890625,802.2344360351562,796.1904907226562
718,798.2051391601562,794.1758422851562,795.3846435546875,792.1611938476562
719,796.5933837890625,794.5787353515625,794.1758422851562,791.3552856445312
720,796.1904907226562,790.952392578125,794.5787353515625,796.5933837890625
721,786.923095703125,790.1465454101562,793.7728881835938,791.3552856445312
722,780.4761962890625,791.3552856445312,796.5933837890625,790.5494384765625
723,782.4908447265625,796.5933837890625,795.7875366210938,785.7142944335938
724,784.908447265625,794.5787353515625,796.1904907226562,789.3406372070312
725,784.1025390625,791.7582397460938,798.2051391601562,799.8168334960938
726,781.6849975585938,796.996337890625,801.025634765625,796.996337890625
727,787.3259887695312,798.2051391601562,805.8607788085938,790.952392578125
728,788.5347900390625,797.3992919921875,806.2637329101562,788.5347900390625
729,788.937744140625,798.6080322265625,801.025634765625,790.952392578125
730,791.7582397460938,801.025634765625,803.8461303710938,793.3699340820312
731,792.1611938476562,800.6226806640625,807.069580078125,790.952392578125
732,794.5787353515625,796.5933837890625,803.4432373046875,790.1465454101562
733,795.3846435546875,798.2051391601562,802.6373901367188,792.5640869140625
734,796.5933837890625,802.2344360351562,807.87548828125,796.5933837890625
735,798.6080322265625,797.8021850585938,805.8607788085938,798.2051391601562
736,793.7728881835938,788.5347900390625,800.6226806640625,797.3992919921875
737,792.5640869140625,790.5494384765625,807.069580078125,805.054931640625
738,790.1465454101562,795.7875366210938,809.89013671875,805.054931640625
739,792.967041015625,794.1758422851562,808.2783813476562,799.010986328125
740,799.4139404296875,792.967041015625,806.2637329101562,795.3846435546875
741,798.6080322265625,791.7582397460938,804.6520385742188,790.5494384765625
742,803.8461303710938,792.5640869140625,805.054931640625,793.3699340820312
743,803.040283203125,794.981689453125,808.2783813476562,794.5787353515625
744,793.3699340820312,793.7728881835938,807.069580078125,788.937744140625
745,787.7289428710938,789.3406372070312,795.3846435546875,785.7142944335938
746,791.3552856445312,794.1758422851562,793.3699340820312,790.952392578125
747,796.1904907226562,793.3699340820312,796.1904907226562,790.952392578125
748,781.2820434570312,789.7435913085938,795.7875366210938,792.1611938476562
749,776.8497924804688,790.5494384765625,797.3992919921875,794.1758422851562
750,782.087890625,787.3259887695312,794.5787353515625,782.893798828125
751,780.879150390625,792.1611938476562,792.5640869140625,780.0732421875
752,776.4468994140625,794.5787353515625,794.981689453125,781.2820434570312
753,769.5970458984375,794.1758422851562,796.1904907226562,779.6703491210938
754,763.9560546875,792.5640869140625,798.2051391601562,787.7289428710938
755,765.1648559570312,788.5347900390625,797.8021850585938,788.5347900390625
756,772.8204956054688,786.923095703125,794.5787353515625,786.923095703125
757,782.893798828125,787.7289428710938,790.1465454101562,787.7289428710938
758,788.5347900390625,792.5640869140625,788.1318969726562,784.1025390625
759,789.3406372070312,794.1758422851562,790.5494384765625,786.923095703125
760,792.967041015625,794.1758422851562,791.3552856445312,796.1904907226562
761,793.3699340820312,796.996337890625,793.7728881835938,801.025634765625
762,792.5640869140625,797.3992919921875,795.3846435546875,794.5787353515625
763,794.981689453125,792.967041015625,793.3699340820312,791.7582397460938
764,794.981689453125,789.3406372070312,792.1611938476562,799.8168334960938
765,795.7875366210938,788.5347900390625,798.2051391601562,802.6373901367188
766,797.8021850585938,792.5640869140625,798.2051391601562,799.8168334960938
767,797.8021850585938,793.3699340820312,796.996337890625,799.010986328125
768,798.2051391601562,793.7728881835938,801.4285888671875,799.4139404296875
769,796.996337890625,799.4139404296875,800.2197875976562,793.3699340820312
770,794.981689453125,798.6080322265625,796.996337890625,787.7289428710938
771,796.996337890625,795.3846435546875,793.3699340820312,791.7582397460938
772,789.3406372070312,793.7728881835938,786.1171875,788.5347900390625
773,780.879150390625,792.967041015625,786.923095703125,784.908447265625
774,782.087890625,791.7582397460938,794.1758422851562,790.5494384765625
775,784.5054931640625,791.3552856445312,795.7875366210938,791.3552856445312
776,783.2966918945312,786.923095703125,793.3699340820312,791.7582397460938
777,779.2673950195312,786.1171875,789.3406372070312,789.7435913085938
778,778.8644409179688,787.7289428710938,790.1465454101562,787.3259887695312
779,776.4468994140625,786.923095703125,794.5787353515625,790.952392578125
780,782.087890625,794.1758422851562,790.952392578125,791.7582397460938
781,792.967041015625,796.1904907226562,788.1318969726562,794.5787353515625
782,794.1758422851562,790.952392578125,790.1465454101562,795.3846435546875
783,794.981689453125,789.3406372070312,792.5640869140625,800.2197875976562
784,792.1611938476562,792.5640869140625,790.5494384765625,793.3699340820312
785,777.6557006835938,792.5640869140625,790.952392578125,781.2820434570312
786,767.1795043945312,788.5347900390625,793.3699340820312,782.087890625
787,774.029296875,790.1465454101562,794.1758422851562,785.3113403320312
788,774.4322509765625,790.5494384765625,792.967041015625,780.879150390625
789,770.4029541015625,787.3259887695312,790.5494384765625,774.8351440429688
790,777.6557006835938,784.5054931640625,790.952392578125,781.6849975585938
791,782.4908447265625,783.2966918945312,788.937744140625,781.6849975585938
792,785.7142944335938,793.3699340820312,786.923095703125,776.8497924804688
793,786.923095703125,798.2051391601562,793.3699340820312,786.923095703125
794,781.2820434570312,792.1611938476562,793.3699340820312,788.1318969726562
795,782.4908447265625,790.5494384765625,792.5640869140625,786.923095703125
796,785.7142944335938,795.3846435546875,792.967041015625,788.1318969726562
797,781.6849975585938,795.7875366210938,791.3552856445312,789.7435913085938
798,780.879150390625,794.981689453125,793.3699340820312,791.3552856445312
799,784.1025390625,795.3846435546875,792.5640869140625,786.5201416015625
800,790.5494384765625,796.996337890625,795.7875366210938,788.1318969726562
801,790.1465454101562,794.5787353515625,797.3992919921875,787.7289428710938
802,783.6996459960938,790.5494384765625,793.7728881835938,793.3699340820312
803,783.2966918945312,794.5787353515625,794.1758422851562,796.1904907226562
804,786.5201416015625,792.5640869140625,793.7728881835938,784.1025390625
805,786.1171875,788.937744140625,790.952392578125,781.6849975585938
806,786.1171875,789.3406372070312,789.7435913085938,788.1318969726562
807,784.908447265625,786.1171875,792.1611938476562,786.923095703125
808,779.6703491210938,789.3406372070312,791.3552856445312,787.3259887695312
809,776.0439453125,786.5201416015625,789.3406372070312,789.7435913085938
810,775.2380981445312,786.923095703125,790.5494384765625,790.1465454101562
811,782.087890625,792.5640869140625,793.3699340820312,790.5494384765625
812,779.6703491210938,791.7582397460938,792.5640869140625,784.5054931640625
813,778.8644409179688,793.3699340820312,793.3699340820312,784.908447265625
814,783.6996459960938,794.1758422851562,794.1758422851562,784.908447265625
815,779.6703491210938,794.1758422851562,791.3552856445312,781.2820434570312
816,771.6116943359375,794.981689453125,789.7435913085938,778.05859375
817,776.4468994140625,784.908447265625,790.952392578125,784.5054931640625
818,788.1318969726562,784.5054931640625,795.7875366210938,790.5494384765625
819,787.7289428710938,798.6080322265625,799.010986328125,785.7142944335938
820,785.3113403320312,801.4285888671875,797.3992919921875,782.4908447265625
821,791.3552856445312,799.010986328125,795.3846435546875,786.923095703125
822,794.981689453125,794.981689453125,794.1758422851562,791.7582397460938
823,787.3259887695312,788.5347900390625,793.3699340820312,786.5201416015625
824,786.5201416015625,786.5201416015625,794.5787353515625,783.6996459960938
825,794.5787353515625,786.923095703125,797.3992919921875,784.5054931640625
826,792.5640869140625,790.952392578125,793.7728881835938,786.1171875
827,782.893798828125,789.7435913085938,791.7582397460938,790.5494384765625
828,773.6264038085938,784.5054931640625,793.7728881835938,790.5494384765625
829,770.4029541015625,780.4761962890625,792.5640869140625,784.5054931640625
830,770.8058471679688,780.0732421875,790.1465454101562,784.1025390625
831,776.4468994140625,788.1318969726562,787.7289428710938,783.6996459960938
832,783.6996459960938,787.3259887695312,785.3113403320312,787.7289428710938
833,783.2966918945312,782.893798828125,784.5054931640625,783.2966918945312
834,791.3552856445312,788.1318969726562,786.1171875,779.6703491210938
835,792.5640869140625,793.3699340820312,788.5347900390625,784.5054931640625
836,780.4761962890625,794.981689453125,784.1025390625,785.3113403320312
837,785.7142944335938,795.3846435546875,786.5201416015625,789.3406372070312
838,792.5640869140625,791.3552856445312,789.7435913085938,794.5787353515625
839,783.2966918945312,791.3552856445312,788.1318969726562,793.7728881835938
840,778.4615478515625,794.981689453125,789.7435913085938,798.6080322265625
841,783.6996459960938,792.967041015625,790.1465454101562,805.4578857421875
842,793.3699340820312,796.1904907226562,789.7435913085938,799.4139404296875
843,799.010986328125,799.010986328125,792.1611938476562,790.1465454101562
844,795.7875366210938,794.5787353515625,791.7582397460938,784.908447265625
845,793.3699340820312,793.3699340820312,791.3552856445312,782.4908447265625
846,792.5640869140625,794.981689453125,792.1611938476562,782.893798828125
847,789.7435913085938,790.5494384765625,790.952392578125,789.3406372070312
848,788.1318969726562,790.5494384765625,790.5494384765625,792.5640869140625
849,785.7142944335938,791.7582397460938,786.5201416015625,788.1318969726562
850,785.7142944335938,788.5347900390625,786.5201416015625,788.1318969726562
851,783.6996459960938,787.3259887695312,788.5347900390625,790.5494384765625
852,783.6996459960938,784.1025390625,790.952392578125,790.952392578125
853,786.5201416015625,784.1025390625,793.7728881835938,793.7728881835938
854,786.1171875,784.1025390625,792.5640869140625,789.3406372070312
855,782.4908447265625,778.4615478515625,790.1465454101562,782.087890625
856,775.2380981445312,780.0732421875,786.1171875,785.7142944335938
857,777.6557006835938,789.3406372070312,790.952392578125,798.6080322265625
858,781.2820434570312,790.1465454101562,794.5787353515625,799.010986328125
859,780.879150390625,786.923095703125,794.981689453125,796.1904907226562
860,784.1025390625,790.5494384765625,796.1904907226562,796.996337890625
861,783.2966918945312,792.5640869140625,793.7728881835938,795.7875366210938
862,790.1465454101562,788.1318969726562,791.7582397460938,801.025634765625
863,793.7728881835938,786.5201416015625,789.7435913085938,804.6520385742188
864,789.7435913085938,790.1465454101562,786.1171875,798.6080322265625
865,788.937744140625,788.937744140625,781.2820434570312,790.952392578125
866,793.3699340820312,787.7289428710938,783.2966918945312,786.5201416015625
867,798.2051391601562,793.3699340820312,784.1025390625,792.1611938476562
868,797.3992919921875,791.3552856445312,784.908447265625,798.6080322265625
869,799.4139404296875,796.1904907226562,788.5347900390625,795.3846435546875
870,800.6226806640625,806.6666870117188,785.3113403320312,794.5787353515625
871,796.5933837890625,801.025634765625,784.5054931640625,790.952392578125
872,796.1904907226562,792.967041015625,786.1171875,786.923095703125
873,801.8314819335938,794.5787353515625,787.7289428710938,789.7435913085938
874,799.010986328125,792.1611938476562,784.5054931640625,784.908447265625
875,789.7435913085938,790.5494384765625,782.087890625,780.0732421875
876,793.3699340820312,794.5787353515625,786.5201416015625,792.5640869140625
877,792.1611938476562,792.1611938476562,789.3406372070312,794.981689453125
878,788.937744140625,791.7582397460938,790.1465454101562,787.3259887695312
879,789.3406372070312,793.3699340820312,786.5201416015625,791.3552856445312
880,785.7142944335938,792.1611938476562,782.893798828125,790.952392578125
881,778.05859375,791.3552856445312,787.3259887695312,782.893798828125
882,783.2966918945312,794.1758422851562,793.3699340820312,788.937744140625
883,792.967041015625,794.5787353515625,796.996337890625,792.967041015625
884,792.1611938476562,791.3552856445312,793.7728881835938,787.7289428710938
885,789.3406372070312,792.5640869140625,796.5933837890625,793.7728881835938
886,778.4615478515625,792.1611938476562,802.2344360351562,793.3699340820312
887,779.6703491210938,794.5787353515625,799.4139404296875,794.981689453125
888,790.5494384765625,796.996337890625,797.3992919921875,795.7875366210938
889,797.3992919921875,794.5787353515625,795.3846435546875,793.3699340820312
890,799.010986328125,795.7875366210938,795.7875366210938,794.5787353515625
891,794.5787353515625,801.025634765625,799.010986328125,791.3552856445312
892,789.7435913085938,796.996337890625,797.3992919921875,784.1025390625
893,787.3259887695312,791.7582397460938,794.1758422851562,777.6557006835938
894,787.7289428710938,791.3552856445312,794.1758422851562,785.3113403320312
895,781.6849975585938,792.967041015625,794.1758422851562,790.1465454101562
896,783.6996459960938,796.5933837890625,793.3699340820312,788.1318969726562
897,787.3259887695312,793.7728881835938,795.3846435546875,789.7435913085938
898,787.7289428710938,790.1465454101562,794.981689453125,791.3552856445312
899,791.7582397460938,793.7728881835938,792.5640869140625,792.1611938476562
900,793.7728881835938,799.4139404296875,794.5787353515625,787.7289428710938
901,794.1758422851562,798.6080322265625,795.3846435546875,789.7435913085938
902,790.5494384765625,796.1904907226562,799.8168334960938,796.996337890625
903,789.3406372070312,794.981689453125,801.8314819335938,792.967041015625
904,785.7142944335938,794.5787353515625,797.8021850585938,782.893798828125
905,789.3406372070312,796.1904907226562,794.1758422851562,784.5054931640625
906,794.5787353515625,797.8021850585938,792.967041015625,786.5201416015625
907,792.5640869140625,800.2197875976562,794.5787353515625,785.3113403320312
908,796.1904907226562,802.2344360351562,794.5787353515625,788.5347900390625
909,798.2051391601562,801.025634765625,796.1904907226562,786.5201416015625
910,798.2051391601562,796.996337890625,800.2197875976562,786.1171875
911,803.4432373046875,796.996337890625,796.996337890625,786.1171875
912,805.054931640625,798.2051391601562,794.981689453125,785.3113403320312
913,796.1904907226562,794.5787353515625,796.1904907226562,787.7289428710938
914,792.1611938476562,791.7582397460938,794.981689453125,788.5347900390625
915,786.923095703125,792.5640869140625,792.5640869140625,784.908447265625
916,778.05859375,799.010986328125,793.3699340820312,784.908447265625
917,778.8644409179688,800.6226806640625,792.967041015625,792.967041015625
918,788.937744140625,796.5933837890625,794.981689453125,794.1758422851562
919,803.8461303710938,797.8021850585938,797.8021850585938,789.7435913085938
920,802.2344360351562,795.3846435546875,795.7875366210938,788.937744140625
921,786.5201416015625,793.7728881835938,789.7435913085938,788.937744140625
922,790.1465454101562,790.952392578125,790.1465454101562,792.967041015625
923,789.3406372070312,790.1465454101562,793.3699340820312,794.1758422851562
924,785.7142944335938,798.6080322265625,792.967041015625,797.3992919921875
925,787.7289428710938,799.8168334960938,790.5494384765625,796.996337890625
926,792.1611938476562,799.010986328125,791.7582397460938,796.996337890625
927,792.5640869140625,795.7875366210938,792.5640869140625,786.5201416015625
928,789.3406372070312,792.967041015625,793.3699340820312,780.879150390625
929,784.1025390625,795.7875366210938,794.981689453125,789.7435913085938
930,780.0732421875,800.2197875976562,795.7875366210938,788.937744140625
931,780.4761962890625,795.7875366210938,796.996337890625,788.937744140625
932,780.879150390625,789.3406372070312,791.3552856445312,787.3259887695312
933,790.1465454101562,787.7289428710938,791.3552856445312,786.1171875
934,791.7582397460938,794.1758422851562,794.981689453125,785.3113403320312
935,782.4908447265625,797.3992919921875,794.981689453125,785.3113403320312
936,775.2380981445312,793.3699340820312,796.5933837890625,790.952392578125
937,771.6116943359375,792.5640869140625,792.967041015625,785.7142944335938
938,775.2380981445312,792.967041015625,792.1611938476562,780.879150390625
939,778.8644409179688,794.1758422851562,793.7728881835938,782.893798828125
940,784.908447265625,793.3699340820312,794.5787353515625,787.3259887695312
941,792.967041015625,789.7435913085938,794.981689453125,786.1171875
942,793.7728881835938,792.1611938476562,792.967041015625,779.2673950195312
943,791.3552856445312,793.3699340820312,794.981689453125,782.087890625
944,790.952392578125,789.7435913085938,794.981689453125,788.1318969726562
945,788.1318969726562,791.3552856445312,790.1465454101562,790.5494384765625
946,788.1318969726562,795.3846435546875,785.3113403320312,787.3259887695312
947,792.1611938476562,798.2051391601562,789.7435913085938,788.1318969726562
948,791.7582397460938,802.2344360351562,798.2051391601562,790.952392578125
949,784.908447265625,798.2051391601562,794.981689453125,788.5347900390625
950,780.0732421875,794.981689453125,791.7582397460938,786.923095703125
951,785.7142944335938,794.981689453125,789.3406372070312,786.923095703125
952,787.7289428710938,791.3552856445312,788.1318969726562,791.3552856445312
953,777.6557006835938,790.1465454101562,791.3552856445312,784.908447265625
954,779.6703491210938,791.7582397460938,789.3406372070312,778.05859375
955,788.5347900390625,790.5494384765625,790.952392578125,780.0732421875
956,790.5494384765625,790.952392578125,795.3846435546875,784.908447265625
957,791.7582397460938,791.7582397460938,794.981689453125,786.923095703125
958,793.3699340820312,794.981689453125,795.7875366210938,787.3259887695312
959,794.5787353515625,794.5787353515625,797.3992919921875,796.1904907226562
960,795.3846435546875,791.7582397460938,796.1904907226562,797.3992919921875
961,790.952392578125,790.5494384765625,793.3699340820312,791.3552856445312
962,784.5054931640625,788.1318969726562,792.5640869140625,783.6996459960938
963,777.6557006835938,785.7142944335938,792.1611938476562,779.2673950195312
964,774.4322509765625,786.1171875,795.3846435546875,784.5054931640625
965,779.2673950195312,788.937744140625,800.2197875976562,789.3406372070312
966,785.3113403320312,790.952392578125,797.3992919921875,790.1465454101562
967,784.5054931640625,792.5640869140625,799.4139404296875,794.5787353515625
968,784.908447265625,788.937744140625,803.8461303710938,798.2051391601562
969,792.967041015625,788.1318969726562,798.6080322265625,796.1904907226562
970,784.1025390625,789.7435913085938,795.7875366210938,793.3699340820312
971,786.1171875,789.7435913085938,796.996337890625,789.7435913085938
972,793.3699340820312,792.1611938476562,793.3699340820312,786.923095703125
973,794.5787353515625,790.952392578125,789.7435913085938,784.908447265625
974,799.4139404296875,793.3699340820312,790.952392578125,789.3406372070312
975,783.6996459960938,794.1758422851562,792.5640869140625,792.967041015625
976,780.879150390625,791.3552856445312,793.3699340820312,791.3552856445312
977,790.1465454101562,792.1611938476562,794.981689453125,788.5347900390625
978,791.3552856445312,794.1758422851562,796.5933837890625,786.923095703125
979,794.5787353515625,795.7875366210938,794.5787353515625,788.937744140625
980,797.8021850585938,798.6080322265625,792.967041015625,790.952392578125
981,797.8021850585938,799.4139404296875,789.3406372070312,790.952392578125
982,798.2051391601562,794.981689453125,788.5347900390625,788.5347900390625
983,798.2051391601562,794.5787353515625,793.7728881835938,784.908447265625
984,789.3406372070312,791.3552856445312,794.981689453125,784.5054931640625
985,783.2966918945312,791.7582397460938,796.996337890625,791.3552856445312
986,790.1465454101562,796.1904907226562,801.4285888671875,798.6080322265625
987,796.5933837890625,796.5933837890625,800.2197875976562,800.2197875976562
988,788.5347900390625,799.8168334960938,799.010986328125,793.3699340820312
989,781.6849975585938,801.025634765625,801.025634765625,789.7435913085938
990,781.6849975585938,793.3699340820312,799.8168334960938,786.5201416015625
991,785.3113403320312,793.7728881835938,797.8021850585938,788.5347900390625
992,790.1465454101562,794.5787353515625,794.5787353515625,790.5494384765625
993,782.087890625,787.3259887695312,794.1758422851562,781.2820434570312
994,787.7289428710938,790.1465454101562,799.010986328125,783.2966918945312
995,792.967041015625,794.1758422851562,799.8168334960938,786.923095703125
996,782.893798828125,794.1758422851562,800.6226806640625,786.923095703125
997,782.087890625,795.7875366210938,797.8021850585938,784.908447265625
998,787.7289428710938,796.1904907226562,792.1611938476562,790.5494384765625
999,797.8021850585938,794.5787353515625,794.981689453125,799.010986328125
1000,799.4139404296875,792.967041015625,791.7582397460938,786.5201416015625
1001,788.5347900390625,792.5640869140625,791.7582397460938,780.879150390625
1002,784.1025390625,793.7728881835938,794.981689453125,782.893798828125
1003,774.8351440429688,786.923095703125,791.7582397460938,780.879150390625
1004,766.7765502929688,780.879150390625,794.981689453125,784.1025390625
1005,768.3883056640625,785.7142944335938,796.996337890625,785.7142944335938
1006,770.0,784.908447265625,796.996337890625,783.6996459960938
1007,770.4029541015625,785.3113403320312,794.1758422851562,784.1025390625
1008,769.1941528320312,788.5347900390625,791.7582397460938,790.1465454101562
1009,770.8058471679688,791.3552856445312,794.5787353515625,791.3552856445312
1010,774.8351440429688,792.5640869140625,792.5640869140625,787.3259887695312
1011,780.4761962890625,791.7582397460938,789.3406372070312,789.3406372070312
1012,781.2820434570312,790.952392578125,790.5494384765625,789.3406372070312
1013,784.908447265625,793.3699340820312,792.5640869140625,791.3552856445312
1014,791.3552856445312,796.5933837890625,790.5494384765625,794.1758422851562
1015,782.893798828125,792.5640869140625,795.3846435546875,790.5494384765625
1016,777.2527465820312,785.3113403320312,795.3846435546875,789.3406372070312
1017,783.2966918945312,791.3552856445312,792.967041015625,786.1171875
1018,784.1025390625,796.1904907226562,790.952392578125,785.7142944335938
1019,779.2673950195312,789.7435913085938,790.1465454101562,782.4908447265625
1020,790.5494384765625,791.7582397460938,789.7435913085938,786.923095703125
1021,797.3992919921875,799.4139404296875,792.1611938476562,803.8461303710938
1022,794.1758422851562,799.010986328125,792.5640869140625,801.8314819335938
1023,796.5933837890625,799.010986328125,792.967041015625,795.7875366210938
1024,798.6080322265625,801.4285888671875,795.3846435546875,800.6226806640625
1025,800.2197875976562,797.8021850585938,794.981689453125,801.4285888671875
1026,793.3699340820312,794.1758422851562,794.5787353515625,798.2051391601562
1027,788.5347900390625,792.5640869140625,794.5787353515625,794.1758422851562
1028,790.1465454101562,793.7728881835938,796.996337890625,794.1758422851562
1029,792.1611938476562,790.952392578125,799.4139404296875,788.1318969726562
1030,785.7142944335938,790.952392578125,795.3846435546875,783.2966918945312
1031,785.7142944335938,794.981689453125,793.7728881835938,787.3259887695312
1032,791.7582397460938,793.3699340820312,793.7728881835938,788.937744140625
1033,787.7289428710938,790.5494384765625,790.952392578125,788.5347900390625
1034,786.1171875,793.7728881835938,791.7582397460938,788.1318969726562
1035,790.952392578125,796.1904907226562,793.7728881835938,790.952392578125
1036,790.1465454101562,793.7728881835938,790.952392578125,797.3992919921875
1037,788.1318969726562,792.5640869140625,786.923095703125,797.8021850585938
1038,793.7728881835938,790.952392578125,785.3113403320312,790.5494384765625
1039,805.054931640625,791.3552856445312,782.893798828125,790.5494384765625
1040,787.7289428710938,784.5054931640625,784.1025390625,789.3406372070312
1041,770.0,783.6996459960938,785.3113403320312,789.7435913085938
1042,779.2673950195312,790.5494384765625,783.2966918945312,795.7875366210938
1043,777.6557006835938,788.1318969726562,784.5054931640625,793.7728881835938
1044,778.8644409179688,791.7582397460938,790.1465454101562,791.7582397460938
1045,784.908447265625,792.5640869140625,792.967041015625,793.3699340820312
1046,786.5201416015625,792.1611938476562,791.7582397460938,794.981689453125
1047,790.952392578125,796.5933837890625,795.7875366210938,799.010986328125
1048,790.1465454101562,794.5787353515625,797.8021850585938,802.6373901367188
1049,780.4761962890625,792.5640869140625,798.6080322265625,798.6080322265625
1050,784.5054931640625,792.967041015625,797.3992919921875,793.3699340820312
1051,791.3552856445312,794.5787353515625,797.8021850585938,796.5933837890625
1052,788.1318969726562,795.3846435546875,794.1758422851562,800.2197875976562
1053,787.7289428710938,788.1318969726562,788.937744140625,796.996337890625
1054,786.923095703125,789.7435913085938,789.3406372070312,790.1465454101562
1055,783.6996459960938,798.2051391601562,790.952392578125,789.3406372070312
1056,784.1025390625,800.2197875976562,795.7875366210938,788.937744140625
1057,786.923095703125,794.981689453125,794.1758422851562,788.1318969726562
1058,789.7435913085938,792.1611938476562,793.7728881835938,789.7435913085938
1059,791.7582397460938,796.1904907226562,796.5933837890625,790.5494384765625
1060,785.3113403320312,793.3699340820312,795.7875366210938,787.3259887695312
1061,781.6849975585938,791.3552856445312,794.1758422851562,782.4908447265625
1062,786.5201416015625,793.7728881835938,796.5933837890625,786.5201416015625
1063,784.1025390625,792.1611938476562,797.3992919921875,786.1171875
1064,787.3259887695312,792.5640869140625,796.1904907226562,784.1025390625
1065,793.7728881835938,794.981689453125,798.2051391601562,787.7289428710938
1066,791.7582397460938,796.1904907226562,801.025634765625,792.967041015625
1067,787.7289428710938,798.2051391601562,799.4139404296875,793.3699340820312
1068,784.1025390625,798.6080322265625,800.2197875976562,794.1758422851562
1069,784.5054931640625,793.3699340820312,803.4432373046875,796.1904907226562
1070,793.3699340820312,795.7875366210938,803.8461303710938,791.7582397460938
1071,800.2197875976562,798.2051391601562,805.8607788085938,790.5494384765625
1072,799.010986328125,799.010986328125,807.069580078125,790.952392578125
1073,800.2197875976562,799.8168334960938,801.8314819335938,788.5347900390625
1074,801.4285888671875,800.2197875976562,800.6226806640625,790.5494384765625
1075,790.1465454101562,800.6226806640625,797.8021850585938,787.7289428710938
1076,782.4908447265625,801.8314819335938,795.3846435546875,786.1171875
1077,781.6849975585938,799.010986328125,797.8021850585938,790.1465454101562
1078,781.2820434570312,788.937744140625,797.8021850585938,789.7435913085938
1079,782.087890625,789.3406372070312,795.3846435546875,783.2966918945312
1080,781.2820434570312,796.996337890625,790.952392578125,778.05859375
1081,785.3113403320312,798.2051391601562,792.5640869140625,777.6557006835938
1082,790.1465454101562,795.3846435546875,793.7728881835938,788.1318969726562
1083,788.937744140625,794.981689453125,787.7289428710938,794.1758422851562
1084,789.3406372070312,795.3846435546875,788.1318969726562,789.3406372070312
1085,787.3259887695312,794.981689453125,793.7728881835938,791.7582397460938
1086,788.1318969726562,792.967041015625,796.996337890625,792.967041015625
1087,796.996337890625,793.3699340820312,795.7875366210938,792.5640869140625
1088,793.3699340820312,797.3992919921875,797.8021850585938,799.4139404296875
1089,787.3259887695312,792.967041015625,798.2051391601562,797.3992919921875
1090,784.5054931640625,786.1171875,794.5787353515625,792.1611938476562
1091,787.7289428710938,788.937744140625,794.981689453125,797.3992919921875
1092,797.8021850585938,796.1904907226562,793.7728881835938,799.8168334960938
1093,807.4725341796875,799.4139404296875,794.981689453125,797.3992919921875
1094,806.2637329101562,795.3846435546875,797.8021850585938,796.1904907226562
1095,802.2344360351562,793.3699340820312,799.8168334960938,794.5787353515625
1096,798.2051391601562,792.1611938476562,800.2197875976562,792.5640869140625
1097,787.7289428710938,788.937744140625,797.8021850585938,794.981689453125
1098,783.2966918945312,790.952392578125,794.5787353515625,796.1904907226562
1099,788.5347900390625,792.5640869140625,792.1611938476562,793.7728881835938
1100,789.3406372070312,797.8021850585938,790.1465454101562,796.996337890625
1101,784.908447265625,796.996337890625,791.7582397460938,799.010986328125
1102,786.5201416015625,795.3846435546875,794.5787353515625,798.6080322265625
1103,788.937744140625,794.981689453125,789.7435913085938,792.5640869140625
1104,790.1465454101562,790.952392578125,792.1611938476562,784.1025390625
1105,788.1318969726562,792.1611938476562,794.1758422851562,784.1025390625
1106,787.3259887695312,792.5640869140625,793.7728881835938,785.3113403320312
1107,783.2966918945312,792.967041015625,797.8021850585938,782.893798828125
1108,774.029296875,791.7582397460938,797.3992919921875,789.7435913085938
1109,777.6557006835938,795.3846435546875,799.010986328125,797.8021850585938
1110,790.1465454101562,796.996337890625,796.996337890625,801.025634765625
1111,790.1465454101562,793.7728881835938,793.7728881835938,800.6226806640625
1112,788.5347900390625,795.3846435546875,794.5787353515625,789.7435913085938
1113,802.2344360351562,798.2051391601562,794.1758422851562,795.7875366210938
1114,819.5604248046875,798.2051391601562,795.3846435546875,815.5311279296875
1115,810.2930297851562,794.5787353515625,793.3699340820312,807.87548828125
1116,801.4285888671875,790.952392578125,794.981689453125,801.8314819335938
1117,806.2637329101562,792.1611938476562,794.1758422851562,804.2490844726562
1118,806.2637329101562,794.981689453125,790.1465454101562,801.4285888671875
1119,804.2490844726562,797.3992919921875,790.952392578125,796.996337890625
1120,799.8168334960938,797.3992919921875,789.3406372070312,791.7582397460938
1121,800.2197875976562,791.7582397460938,790.1465454101562,797.8021850585938
1122,800.2197875976562,788.5347900390625,790.5494384765625,792.1611938476562
1123,798.6080322265625,794.5787353515625,787.7289428710938,786.923095703125
1124,798.6080322265625,794.981689453125,788.937744140625,790.952392578125
1125,795.7875366210938,794.1758422851562,791.3552856445312,788.937744140625
1126,792.5640869140625,796.996337890625,791.7582397460938,784.1025390625
1127,790.5494384765625,794.981689453125,791.7582397460938,781.2820434570312
1128,789.3406372070312,794.981689453125,792.967041015625,786.1171875
1129,783.6996459960938,790.5494384765625,793.3699340820312,782.087890625
1130,780.4761962890625,784.1025390625,789.3406372070312,778.4615478515625
1131,782.893798828125,789.7435913085938,789.3406372070312,779.2673950195312
1132,782.893798828125,788.1318969726562,791.3552856445312,782.087890625
1133,784.5054931640625,787.3259887695312,790.952392578125,787.7289428710938
1134,782.087890625,794.981689453125,792.967041015625,790.1465454101562
1135,775.6410522460938,791.7582397460938,792.1611938476562,791.7582397460938
1136,782.087890625,791.3552856445312,791.7582397460938,791.7582397460938
1137,786.5201416015625,793.7728881835938,792.5640869140625,790.5494384765625
1138,787.7289428710938,793.7728881835938,792.1611938476562,795.7875366210938
1139,792.967041015625,790.5494384765625,795.7875366210938,803.040283203125
1140,796.5933837890625,783.6996459960938,798.6080322265625,807.069580078125
1141,798.6080322265625,786.5201416015625,793.7728881835938,809.4871826171875
1142,794.5787353515625,791.7582397460938,792.967041015625,805.8607788085938
1143,798.6080322265625,795.3846435546875,796.1904907226562,800.2197875976562
1144,802.2344360351562,790.952392578125,799.4139404296875,806.6666870117188
1145,795.7875366210938,786.5201416015625,801.025634765625,809.89013671875
1146,796.5933837890625,794.5787353515625,799.010986328125,809.084228515625
1147,796.5933837890625,795.3846435546875,797.3992919921875,798.2051391601562
1148,795.3846435546875,792.1611938476562,796.5933837890625,786.923095703125
1149,792.1611938476562,792.5640869140625,795.7875366210938,785.7142944335938
1150,787.3259887695312,788.937744140625,796.1904907226562,790.5494384765625
1151,788.5347900390625,790.1465454101562,803.8461303710938,797.8021850585938
1152,787.3259887695312,795.7875366210938,806.6666870117188,797.3992919921875
1153,787.7289428710938,794.5787353515625,805.4578857421875,794.5787353515625
1154,785.3113403320312,790.952392578125,803.4432373046875,788.937744140625
1155,785.7142944335938,788.5347900390625,800.6226806640625,790.1465454101562
1156,784.1025390625,786.923095703125,799.4139404296875,787.3259887695312
1157,779.2673950195312,789.7435913085938,796.1904907226562,782.087890625
1158,782.893798828125,790.952392578125,794.5787353515625,784.908447265625
1159,785.3113403320312,794.5787353515625,795.7875366210938,791.7582397460938
1160,794.1758422851562,795.3846435546875,796.5933837890625,796.996337890625
1161,796.1904907226562,791.3552856445312,793.3699340820312,799.010986328125
1162,790.952392578125,792.5640869140625,788.937744140625,800.6226806640625
1163,797.8021850585938,796.1904907226562,790.5494384765625,798.6080322265625
1164,799.4139404296875,796.5933837890625,793.3699340820312,795.3846435546875
1165,788.5347900390625,794.5787353515625,795.3846435546875,794.981689453125
1166,784.5054931640625,791.7582397460938,796.1904907226562,792.5640869140625
1167,791.7582397460938,796.1904907226562,796.5933837890625,792.5640869140625
1168,793.3699340820312,802.6373901367188,796.5933837890625,788.1318969726562
1169,792.1611938476562,800.6226806640625,797.3992919921875,784.5054931640625
1170,793.7728881835938,794.5787353515625,801.4285888671875,788.5347900390625
1171,792.967041015625,796.1904907226562,804.2490844726562,791.7582397460938
1172,793.3699340820312,801.025634765625,800.2197875976562,792.967041015625
1173,790.1465454101562,801.8314819335938,797.8021850585938,793.3699340820312
1174,785.3113403320312,798.2051391601562,796.996337890625,791.7582397460938
1175,782.893798828125,796.1904907226562,800.2197875976562,788.1318969726562
1176,775.2380981445312,789.3406372070312,796.996337890625,777.6557006835938
1177,777.2527465820312,787.7289428710938,791.7582397460938,776.4468994140625
1178,786.923095703125,793.3699340820312,792.967041015625,781.2820434570312
1179,787.3259887695312,798.2051391601562,791.7582397460938,781.6849975585938
1180,784.908447265625,792.967041015625,794.5787353515625,783.6996459960938
1181,776.4468994140625,786.1171875,797.8021850585938,784.5054931640625
1182,773.2234497070312,787.3259887695312,791.7582397460938,782.4908447265625
1183,778.4615478515625,788.937744140625,790.1465454101562,782.893798828125
1184,778.8644409179688,786.923095703125,792.1611938476562,783.2966918945312
1185,781.6849975585938,784.1025390625,796.1904907226562,787.7289428710938
1186,787.7289428710938,788.937744140625,795.7875366210938,794.5787353515625
1187,791.7582397460938,790.5494384765625,792.5640869140625,791.7582397460938
1188,792.1611938476562,790.1465454101562,790.1465454101562,788.937744140625
1189,794.5787353515625,790.952392578125,788.1318969726562,786.923095703125
1190,793.7728881835938,790.5494384765625,790.5494384765625,785.3113403320312
1191,788.1318969726562,791.7582397460938,790.952392578125,784.5054931640625
1192,787.7289428710938,794.1758422851562,790.952392578125,786.5201416015625
1193,786.923095703125,795.7875366210938,794.981689453125,786.5201416015625
1194,782.087890625,792.1611938476562,797.8021850585938,780.4761962890625
1195,789.3406372070312,794.5787353515625,798.2051391601562,787.3259887695312
1196,803.040283203125,799.4139404296875,795.3846435546875,795.7875366210938
1197,799.4139404296875,795.3846435546875,795.3846435546875,794.1758422851562
1198,791.7582397460938,792.5640869140625,795.7875366210938,796.1904907226562
1199,788.937744140625,793.7728881835938,797.3992919921875,793.7728881835938
1200,785.3113403320312,794.981689453125,800.6226806640625,789.3406372070312
1201,786.5201416015625,794.5787353515625,801.8314819335938,790.1465454101562
1202,786.5201416015625,795.7875366210938,800.2197875976562,791.7582397460938
1203,780.879150390625,792.1611938476562,800.6226806640625,794.1758422851562
1204,778.8644409179688,786.1171875,796.996337890625,789.7435913085938
1205,779.6703491210938,786.1171875,794.1758422851562,789.7435913085938
1206,780.4761962890625,788.5347900390625,795.3846435546875,790.5494384765625
1207,790.1465454101562,794.981689453125,795.7875366210938,787.3259887695312
1208,794.5787353515625,797.8021850585938,794.5787353515625,790.952392578125
1209,786.5201416015625,793.3699340820312,794.1758422851562,791.7582397460938
1210,784.5054931640625,791.7582397460938,793.7728881835938,793.3699340820312
1211,792.967041015625,788.5347900390625,792.967041015625,792.5640869140625
1212,800.2197875976562,793.3699340820312,792.967041015625,795.7875366210938
1213,794.5787353515625,797.8021850585938,795.7875366210938,795.7875366210938
1214,788.1318969726562,796.1904907226562,800.6226806640625,791.3552856445312
1215,788.5347900390625,794.1758422851562,805.8607788085938,791.7582397460938
1216,792.967041015625,791.7582397460938,807.87548828125,790.1465454101562
1217,801.4285888671875,794.981689453125,805.4578857421875,798.2051391601562
1218,803.040283203125,794.1758422851562,803.4432373046875,797.3992919921875
1219,794.1758422851562,793.3699340820312,803.4432373046875,788.937744140625
1220,784.5054931640625,790.5494384765625,803.4432373046875,787.3259887695312
1221,785.3113403320312,784.1025390625,802.2344360351562,783.6996459960938
1222,788.1318969726562,788.5347900390625,802.2344360351562,781.6849975585938
1223,788.5347900390625,795.3846435546875,803.040283203125,784.908447265625
1224,784.1025390625,795.3846435546875,805.8607788085938,791.7582397460938
1225,781.6849975585938,791.3552856445312,807.87548828125,790.1465454101562
1226,788.937744140625,794.1758422851562,809.89013671875,789.7435913085938
1227,796.1904907226562,797.3992919921875,807.87548828125,796.1904907226562
1228,788.1318969726562,792.967041015625,805.054931640625,796.996337890625
1229,782.087890625,790.5494384765625,800.6226806640625,796.5933837890625
1230,786.923095703125,786.923095703125,798.2051391601562,789.3406372070312
1231,786.923095703125,786.1171875,801.025634765625,786.5201416015625
1232,786.1171875,789.7435913085938,803.040283203125,792.5640869140625
1233,786.5201416015625,791.3552856445312,803.8461303710938,791.7582397460938
1234,790.952392578125,792.1611938476562,800.6226806640625,787.7289428710938
1235,791.7582397460938,791.7582397460938,796.1904907226562,788.5347900390625
1236,792.967041015625,792.5640869140625,794.981689453125,792.967041015625
1237,792.1611938476562,791.3552856445312,792.1611938476562,792.5640869140625
1238,792.1611938476562,790.952392578125,790.5494384765625,789.3406372070312
1239,794.5787353515625,790.1465454101562,789.3406372070312,786.1171875
1240,800.2197875976562,794.1758422851562,792.967041015625,792.1611938476562
1241,801.8314819335938,795.7875366210938,794.5787353515625,796.1904907226562
1242,799.8168334960938,792.967041015625,789.3406372070312,793.3699340820312
1243,800.6226806640625,796.5933837890625,788.5347900390625,790.952392578125
1244,799.010986328125,795.3846435546875,788.1318969726562,786.5201416015625
1245,800.2197875976562,790.5494384765625,786.1171875,784.5054931640625
1246,796.5933837890625,790.1465454101562,787.7289428710938,784.1025390625
1247,799.8168334960938,791.7582397460938,789.7435913085938,789.7435913085938
1248,804.6520385742188,794.981689453125,788.1318969726562,789.3406372070312
1249,796.5933837890625,796.996337890625,786.1171875,782.4908447265625
1250,791.3552856445312,795.3846435546875,783.6996459960938,785.3113403320312
1251,785.3113403320312,792.1611938476562,788.1318969726562,791.3552856445312
1252,781.6849975585938,794.5787353515625,792.1611938476562,795.3846435546875
1253,784.5054931640625,794.1758422851562,792.967041015625,791.7582397460938
1254,784.1025390625,791.3552856445312,793.3699340820312,785.7142944335938
1255,781.6849975585938,796.5933837890625,792.967041015625,782.087890625
1256,780.879150390625,795.7875366210938,792.1611938476562,782.087890625
1257,786.923095703125,791.3552856445312,794.1758422851562,789.3406372070312
1258,794.981689453125,793.3699340820312,796.1904907226562,792.5640869140625
1259,790.1465454101562,792.5640869140625,794.1758422851562,788.1318969726562
1260,782.4908447265625,790.1465454101562,792.5640869140625,784.1025390625
1261,786.923095703125,791.3552856445312,790.952392578125,783.2966918945312
1262,791.7582397460938,787.7289428710938,790.952392578125,784.1025390625
1263,796.5933837890625,787.7289428710938,790.952392578125,797.8021850585938
1264,795.3846435546875,792.5640869140625,793.7728881835938,800.6226806640625
1265,795.7875366210938,792.1611938476562,795.3846435546875,792.5640869140625
1266,800.2197875976562,788.937744140625,792.967041015625,797.3992919921875
1267,792.967041015625,791.3552856445312,793.3699340820312,789.7435913085938
1268,787.7289428710938,796.1904907226562,788.1318969726562,780.879150390625
1269,789.7435913085938,790.952392578125,790.1465454101562,791.7582397460938
1270,792.1611938476562,788.1318969726562,793.7728881835938,802.2344360351562
1271,792.1611938476562,790.5494384765625,794.981689453125,796.996337890625
1272,785.3113403320312,786.5201416015625,797.3992919921875,790.5494384765625
1273,784.908447265625,786.923095703125,796.1904907226562,786.1171875
1274,789.7435913085938,789.3406372070312,798.2051391601562,792.1611938476562
1275,787.7289428710938,786.923095703125,797.3992919921875,796.5933837890625
1276,785.3113403320312,784.908447265625,794.981689453125,790.5494384765625
1277,789.3406372070312,784.908447265625,797.8021850585938,791.3552856445312
1278,794.981689453125,787.7289428710938,799.010986328125,790.952392578125
1279,798.6080322265625,791.7582397460938,796.996337890625,791.3552856445312
1280,799.4139404296875,792.5640869140625,796.996337890625,788.937744140625
1281,799.010986328125,792.5640869140625,799.8168334960938,791.3552856445312
1282,791.3552856445312,793.7728881835938,796.996337890625,796.1904907226562
1283,789.3406372070312,796.996337890625,796.996337890625,798.6080322265625
1284,792.5640869140625,795.3846435546875,799.4139404296875,799.8168334960938
1285,785.7142944335938,794.981689453125,792.967041015625,794.1758422851562
1286,784.5054931640625,799.4139404296875,790.5494384765625,794.5787353515625
1287,784.908447265625,798.6080322265625,796.1904907226562,795.3846435546875
1288,786.923095703125,796.996337890625,797.8021850585938,786.923095703125
1289,789.3406372070312,797.8021850585938,801.025634765625,788.937744140625
1290,785.3113403320312,796.5933837890625,803.040283203125,794.1758422851562
1291,788.937744140625,794.981689453125,801.025634765625,786.1171875
1292,796.5933837890625,794.981689453125,792.5640869140625,780.879150390625
1293,794.5787353515625,796.5933837890625,790.952392578125,788.5347900390625
1294,787.7289428710938,796.1904907226562,795.7875366210938,791.3552856445312
1295,785.7142944335938,791.7582397460938,793.7728881835938,790.1465454101562
1296,789.3406372070312,792.967041015625,793.3699340820312,789.7435913085938
1297,788.937744140625,793.3699340820312,796.5933837890625,791.3552856445312
1298,782.893798828125,789.7435913085938,794.981689453125,792.1611938476562
1299,782.4908447265625,793.7728881835938,793.3699340820312,790.952392578125
1300,792.967041015625,796.1904907226562,795.7875366210938,792.967041015625
1301,790.5494384765625,794.981689453125,796.1904907226562,797.8021850585938
1302,785.3113403320312,796.1904907226562,795.3846435546875,800.2197875976562
1303,801.8314819335938,796.996337890625,795.3846435546875,794.1758422851562
1304,807.069580078125,792.1611938476562,794.5787353515625,790.5494384765625
1305,792.5640869140625,788.1318969726562,791.3552856445312,792.1611938476562
1306,785.3113403320312,790.5494384765625,788.1318969726562,784.1025390625
1307,781.2820434570312,787.3259887695312,784.5054931640625,776.8497924804688
1308,780.0732421875,789.3406372070312,787.3259887695312,781.6849975585938
1309,787.7289428710938,793.3699340820312,792.5640869140625,787.7289428710938
1310,793.7728881835938,796.996337890625,787.3259887695312,789.3406372070312
1311,792.1611938476562,799.010986328125,783.6996459960938,783.2966918945312
1312,791.3552856445312,797.3992919921875,784.908447265625,778.8644409179688
1313,795.3846435546875,799.4139404296875,788.1318969726562,785.7142944335938
1314,793.7728881835938,799.010986328125,789.7435913085938,790.1465454101562
1315,788.937744140625,799.010986328125,790.952392578125,790.5494384765625
1316,789.7435913085938,798.6080322265625,792.967041015625,790.952392578125
1317,791.7582397460938,797.3992919921875,791.7582397460938,787.3259887695312
1318,788.5347900390625,797.3992919921875,789.7435913085938,785.7142944335938
1319,788.937744140625,792.1611938476562,794.1758422851562,788.1318969726562
1320,795.3846435546875,788.937744140625,797.8021850585938,787.7289428710938
1321,792.967041015625,790.952392578125,799.4139404296875,785.3113403320312
1322,790.5494384765625,790.5494384765625,798.2051391601562,788.937744140625
1323,794.5787353515625,791.3552856445312,796.1904907226562,789.7435913085938
1324,796.996337890625,794.1758422851562,798.2051391601562,796.1904907226562
1325,792.5640869140625,791.7582397460938,796.1904907226562,798.2051391601562
1326,789.7435913085938,789.7435913085938,794.981689453125,787.7289428710938
1327,790.5494384765625,786.1171875,794.1758422851562,786.923095703125
1328,788.937744140625,785.7142944335938,795.3846435546875,791.7582397460938
1329,788.1318969726562,791.7582397460938,795.7875366210938,791.3552856445312
1330,784.1025390625,794.1758422851562,789.7435913085938,786.923095703125
1331,791.7582397460938,794.5787353515625,796.996337890625,793.3699340820312
1332,798.6080322265625,790.5494384765625,799.8168334960938,796.996337890625
1333,793.7728881835938,792.5640869140625,802.6373901367188,796.996337890625
1334,800.6226806640625,803.4432373046875,805.054931640625,805.8607788085938
1335,794.1758422851562,799.010986328125,798.2051391601562,799.010986328125
1336,782.893798828125,796.996337890625,797.8021850585938,794.1758422851562
1337,782.087890625,803.040283203125,798.6080322265625,792.5640869140625
1338,786.923095703125,804.2490844726562,803.8461303710938,786.5201416015625
1339,782.893798828125,800.6226806640625,792.1611938476562,777.6557006835938
1340,778.05859375,803.040283203125,790.952392578125,772.4176025390625
1341,772.0146484375,812.7106323242188,804.6520385742188,774.029296875
1342,749.047607421875,811.90478515625,798.6080322265625,760.3296508789062
1343,740.989013671875,815.5311279296875,794.1758422851562,747.4359130859375
1344,738.974365234375,825.2014770507812,798.2051391601562,743.8095092773438
1345,731.3186645507812,833.6630249023438,797.3992919921875,737.3626098632812
1346,717.6190185546875,840.915771484375,797.3992919921875,716.00732421875
1347,709.5604248046875,843.3333129882812,793.3699340820312,707.1428833007812
1348,703.91943359375,846.1538696289062,794.5787353515625,707.94873046875
1349,689.010986328125,850.989013671875,794.5787353515625,688.2051391601562
1350,681.3552856445312,850.989013671875,790.5494384765625,679.7435913085938
1351,680.952392578125,852.1978149414062,788.1318969726562,685.7875366210938
1352,683.7728881835938,859.047607421875,787.7289428710938,684.5787353515625
1353,690.6226806640625,862.6740112304688,788.937744140625,682.967041015625
1354,701.098876953125,858.6447143554688,787.7289428710938,691.4285888671875
1355,704.3223266601562,857.4359130859375,785.3113403320312,693.4432373046875
1356,702.7106323242188,848.5714111328125,782.893798828125,693.8461303710938
1357,703.91943359375,840.915771484375,778.8644409179688,704.3223266601562
1358,705.5311279296875,840.915771484375,775.2380981445312,699.89013671875
1359,722.05126953125,835.2747192382812,777.2527465820312,716.00732421875
1360,742.6007080078125,834.4688720703125,779.6703491210938,738.5714111328125
1361,742.1978149414062,830.4395751953125,781.6849975585938,729.3040161132812
1362,737.3626098632812,817.1428833007812,783.6996459960938,736.1538696289062
1363,740.5860595703125,815.1282348632812,784.1025390625,751.8681030273438
1364,751.8681030273438,811.5018310546875,781.2820434570312,762.7472534179688
1365,768.3883056640625,806.2637329101562,789.3406372070312,775.6410522460938
1366,778.4615478515625,800.6226806640625,794.981689453125,780.879150390625
1367,782.893798828125,792.5640869140625,789.7435913085938,781.2820434570312
1368,786.5201416015625,787.3259887695312,788.937744140625,788.1318969726562
1369,795.7875366210938,786.923095703125,789.7435913085938,796.5933837890625
1370,803.040283203125,782.4908447265625,788.937744140625,805.8607788085938
1371,794.981689453125,779.2673950195312,792.1611938476562,812.7106323242188
1372,798.2051391601562,780.879150390625,791.3552856445312,817.5457763671875
1373,809.084228515625,777.2527465820312,787.7289428710938,821.97802734375
1374,815.5311279296875,772.8204956054688,788.937744140625,819.1575317382812
1375,822.7838745117188,772.4176025390625,791.7582397460938,823.1868286132812
1376,818.7545776367188,773.6264038085938,790.5494384765625,823.5897216796875
1377,818.3516235351562,771.6116943359375,790.952392578125,819.1575317382812
1378,814.7252807617188,767.1795043945312,794.5787353515625,817.1428833007812
1379,805.8607788085938,770.4029541015625,795.7875366210938,817.5457763671875
1380,809.084228515625,771.2088012695312,798.6080322265625,819.5604248046875
1381,813.113525390625,767.5823974609375,796.996337890625,818.3516235351562
1382,811.90478515625,769.5970458984375,788.937744140625,822.7838745117188
1383,807.069580078125,769.5970458984375,785.7142944335938,817.5457763671875
1384,801.8314819335938,767.9853515625,785.7142944335938,807.069580078125
1385,807.87548828125,766.7765502929688,786.1171875,811.90478515625
1386,815.5311279296875,767.9853515625,791.7582397460938,817.1428833007812
1387,816.3369750976562,768.7911987304688,791.3552856445312,814.7252807617188
1388,826.00732421875,772.8204956054688,790.5494384765625,819.96337890625
1389,825.6043701171875,776.0439453125,790.5494384765625,821.1721801757812
1390,821.97802734375,775.2380981445312,789.3406372070312,822.3809814453125
1391,823.5897216796875,777.2527465820312,792.5640869140625,823.5897216796875
1392,818.7545776367188,773.6264038085938,792.1611938476562,819.96337890625
1393,821.1721801757812,774.4322509765625,794.1758422851562,823.99267578125
1394,816.7399291992188,775.2380981445312,796.5933837890625,820.3662719726562
1395,811.5018310546875,775.2380981445312,794.5787353515625,817.5457763671875
1396,815.5311279296875,777.2527465820312,796.1904907226562,825.6043701171875
1397,815.1282348632812,776.4468994140625,799.010986328125,830.8424682617188
1398,813.91943359375,777.2527465820312,798.6080322265625,829.2307739257812
1399,814.3223266601562,780.0732421875,798.6080322265625,828.4249267578125
1400,815.5311279296875,779.6703491210938,800.2197875976562,831.6483764648438
1401,816.7399291992188,780.0732421875,802.2344360351562,824.7985229492188
1402,819.96337890625,778.8644409179688,798.6080322265625,816.3369750976562
1403,815.5311279296875,776.4468994140625,795.7875366210938,811.098876953125
1404,809.4871826171875,770.8058471679688,798.2051391601562,807.87548828125
1405,808.6813354492188,768.7911987304688,799.8168334960938,812.7106323242188
1406,804.2490844726562,774.8351440429688,795.7875366210938,808.6813354492188
1407,802.6373901367188,780.4761962890625,792.967041015625,804.2490844726562
1408,800.6226806640625,780.4761962890625,792.5640869140625,810.2930297851562
1409,799.4139404296875,778.8644409179688,793.7728881835938,811.90478515625
1410,803.040283203125,782.087890625,792.967041015625,807.87548828125
1411,810.6959838867188,781.2820434570312,790.5494384765625,810.6959838867188
1412,815.93408203125,778.4615478515625,794.1758422851562,816.7399291992188
1413,810.6959838867188,781.6849975585938,796.1904907226562,819.1575317382812
1414,803.040283203125,782.087890625,796.996337890625,815.1282348632812
1415,796.5933837890625,783.6996459960938,798.2051391601562,810.6959838867188
1416,800.6226806640625,787.3259887695312,800.2197875976562,813.5164794921875
1417,812.3076782226562,787.7289428710938,796.5933837890625,814.7252807617188
1418,812.7106323242188,786.5201416015625,793.7728881835938,815.1282348632812
1419,812.3076782226562,788.1318969726562,796.996337890625,813.5164794921875
1420,815.5311279296875,790.5494384765625,801.4285888671875,812.7106323242188
1421,812.3076782226562,793.7728881835938,796.5933837890625,815.1282348632812
1422,806.6666870117188,794.5787353515625,787.7289428710938,813.91943359375
1423,807.87548828125,789.3406372070312,790.952392578125,812.3076782226562
1424,804.2490844726562,787.7289428710938,798.6080322265625,811.90478515625
1425,805.8607788085938,786.923095703125,801.025634765625,808.6813354492188
1426,807.069580078125,785.7142944335938,799.8168334960938,801.8314819335938
1427,793.3699340820312,785.7142944335938,797.8021850585938,797.3992919921875
1428,788.1318969726562,788.5347900390625,796.1904907226562,792.967041015625
1429,793.3699340820312,791.3552856445312,795.3846435546875,793.3699340820312
1430,789.3406372070312,783.2966918945312,789.7435913085938,787.7289428710938
1431,789.7435913085938,782.087890625,783.2966918945312,784.5054931640625
1432,796.1904907226562,784.908447265625,785.3113403320312,803.040283203125
1433,792.1611938476562,788.1318969726562,790.5494384765625,807.4725341796875
1434,793.7728881835938,787.7289428710938,792.5640869140625,795.3846435546875
1435,796.1904907226562,778.05859375,789.3406372070312,788.937744140625
1436,794.981689453125,778.8644409179688,782.087890625,784.908447265625
1437,799.4139404296875,788.1318969726562,784.5054931640625,785.3113403320312
1438,797.8021850585938,790.1465454101562,785.7142944335938,786.5201416015625
1439,794.1758422851562,790.952392578125,783.2966918945312,792.1611938476562
1440,792.5640869140625,793.3699340820312,784.1025390625,798.2051391601562
1441,799.010986328125,793.7728881835938,786.923095703125,803.4432373046875
1442,806.6666870117188,795.3846435546875,794.1758422851562,807.87548828125
1443,807.069580078125,798.2051391601562,792.5640869140625,812.3076782226562
1444,803.040283203125,797.8021850585938,796.5933837890625,816.3369750976562
1445,797.3992919921875,786.923095703125,801.025634765625,806.2637329101562
1446,792.967041015625,783.6996459960938,793.7728881835938,800.6226806640625
1447,796.996337890625,789.3406372070312,794.5787353515625,804.6520385742188
1448,799.8168334960938,789.7435913085938,796.5933837890625,801.8314819335938
1449,803.040283203125,788.937744140625,795.7875366210938,797.8021850585938
1450,803.040283203125,784.5054931640625,793.3699340820312,791.3552856445312
1451,796.1904907226562,783.2966918945312,792.5640869140625,790.5494384765625
1452,795.3846435546875,782.4908447265625,791.3552856445312,795.7875366210938
1453,791.3552856445312,778.4615478515625,792.5640869140625,790.952392578125
1454,786.5201416015625,780.4761962890625,795.7875366210938,788.5347900390625
1455,784.1025390625,784.5054931640625,792.967041015625,797.3992919921875
1456,785.3113403320312,787.3259887695312,794.981689453125,794.5787353515625
1457,792.967041015625,789.7435913085938,793.7728881835938,785.7142944335938
1458,795.7875366210938,791.7582397460938,795.7875366210938,791.3552856445312
1459,794.5787353515625,790.952392578125,797.8021850585938,796.1904907226562
1460,792.5640869140625,788.937744140625,794.981689453125,786.923095703125
1461,791.3552856445312,789.7435913085938,795.3846435546875,783.6996459960938
1462,792.967041015625,789.7435913085938,796.1904907226562,789.7435913085938
1463,797.3992919921875,786.5201416015625,794.981689453125,790.1465454101562
1464,796.996337890625,788.1318969726562,795.3846435546875,786.5201416015625
1465,802.2344360351562,792.5640869140625,799.4139404296875,789.3406372070312
1466,807.4725341796875,792.1611938476562,794.5787353515625,793.3699340820312
1467,801.4285888671875,794.1758422851562,790.1465454101562,793.7728881835938
1468,792.5640869140625,795.7875366210938,796.5933837890625,790.1465454101562
1469,787.7289428710938,794.1758422851562,797.3992919921875,791.3552856445312
1470,790.1465454101562,796.5933837890625,796.5933837890625,791.7582397460938
1471,789.3406372070312,795.3846435546875,799.010986328125,783.6996459960938
1472,785.7142944335938,793.3699340820312,801.025634765625,782.087890625
1473,789.3406372070312,792.5640869140625,800.2197875976562,789.3406372070312
1474,787.7289428710938,789.3406372070312,792.5640869140625,788.5347900390625
1475,784.908447265625,789.7435913085938,792.1611938476562,780.4761962890625
1476,785.7142944335938,790.5494384765625,794.1758422851562,782.4908447265625
1477,781.2820434570312,790.952392578125,788.937744140625,788.1318969726562
1478,780.879150390625,794.981689453125,790.952392578125,791.3552856445312
1479,780.4761962890625,794.981689453125,791.3552856445312,786.5201416015625
1480,779.2673950195312,793.7728881835938,793.3699340820312,782.4908447265625
1481,791.3552856445312,791.3552856445312,792.5640869140625,783.6996459960938
1482,794.1758422851562,790.952392578125,789.7435913085938,788.1318969726562
1483,788.5347900390625,790.952392578125,793.3699340820312,792.5640869140625
1484,786.5201416015625,787.3259887695312,792.1611938476562,791.3552856445312
1485,781.6849975585938,786.923095703125,788.5347900390625,786.923095703125
1486,783.6996459960938,790.1465454101562,784.908447265625,785.3113403320312
1487,782.4908447265625,784.5054931640625,784.1025390625,784.1025390625
1488,789.7435913085938,782.4908447265625,783.6996459960938,785.3113403320312
1489,799.010986328125,794.5787353515625,780.0732421875,790.1465454101562
1490,795.3846435546875,798.6080322265625,782.893798828125,788.1318969726562
1491,782.893798828125,799.8168334960938,787.3259887695312,786.923095703125
1492,778.05859375,794.1758422851562,787.7289428710938,786.923095703125
1493,784.908447265625,790.5494384765625,791.7582397460938,794.1758422851562
1494,790.1465454101562,794.5787353515625,791.3552856445312,799.8168334960938
1495,788.1318969726562,792.5640869140625,793.3699340820312,792.1611938476562
1496,781.6849975585938,787.3259887695312,794.981689453125,786.5201416015625
1497,775.6410522460938,784.5054931640625,792.5640869140625,784.1025390625
1498,770.8058471679688,784.1025390625,795.3846435546875,784.908447265625
1499,778.8644409179688,784.5054931640625,794.5787353515625,787.7289428710938
1500,792.967041015625,784.908447265625,794.5787353515625,786.5201416015625
1501,787.7289428710938,787.3259887695312,796.1904907226562,788.937744140625
1502,782.4908447265625,789.3406372070312,797.8021850585938,795.3846435546875
1503,789.3406372070312,790.952392578125,800.6226806640625,795.7875366210938
1504,788.937744140625,792.5640869140625,801.4285888671875,798.2051391601562
1505,788.937744140625,794.5787353515625,797.3992919921875,801.025634765625
1506,797.3992919921875,800.6226806640625,802.2344360351562,796.1904907226562
1507,801.4285888671875,802.2344360351562,807.069580078125,790.952392578125
1508,794.1758422851562,800.6226806640625,805.4578857421875,793.3699340820312
1509,792.1611938476562,796.1904907226562,801.8314819335938,790.952392578125
1510,796.5933837890625,790.952392578125,799.010986328125,784.1025390625
1511,799.010986328125,792.1611938476562,800.2197875976562,788.1318969726562
1512,795.3846435546875,792.967041015625,799.8168334960938,790.952392578125
1513,787.7289428710938,789.7435913085938,794.1758422851562,786.1171875
1514,790.5494384765625,787.7289428710938,792.5640869140625,781.6849975585938
1515,791.7582397460938,791.3552856445312,796.1904907226562,778.05859375
1516,786.5201416015625,794.5787353515625,796.1904907226562,781.6849975585938
1517,788.5347900390625,794.5787353515625,794.1758422851562,785.7142944335938
1518,784.1025390625,791.3552856445312,797.3992919921875,784.1025390625
1519,776.0439453125,790.5494384765625,796.1904907226562,786.5201416015625
1520,780.4761962890625,794.1758422851562,792.967041015625,793.3699340820312
1521,780.879150390625,792.967041015625,791.7582397460938,794.5787353515625
1522,776.8497924804688,790.952392578125,795.3846435546875,792.967041015625
1523,789.3406372070312,792.967041015625,800.6226806640625,801.025634765625
1524,797.3992919921875,793.3699340820312,799.8168334960938,801.4285888671875
1525,786.5201416015625,794.981689453125,799.8168334960938,794.1758422851562
1526,778.05859375,798.2051391601562,799.4139404296875,795.7875366210938
1527,773.6264038085938,799.010986328125,796.5933837890625,791.3552856445312
1528,782.893798828125,799.010986328125,799.4139404296875,798.6080322265625
1529,782.4908447265625,798.6080322265625,798.6080322265625,803.8461303710938
1530,778.05859375,794.5787353515625,797.3992919921875,795.3846435546875
1531,788.5347900390625,792.1611938476562,797.3992919921875,799.4139404296875
1532,794.1758422851562,794.5787353515625,799.4139404296875,796.5933837890625
1533,802.2344360351562,797.3992919921875,803.4432373046875,788.5347900390625
1534,809.4871826171875,795.7875366210938,800.6226806640625,789.3406372070312
1535,813.91943359375,794.5787353515625,798.2051391601562,791.7582397460938
1536,811.90478515625,791.7582397460938,796.5933837890625,790.5494384765625
1537,807.4725341796875,794.981689453125,795.7875366210938,786.923095703125
1538,807.87548828125,796.5933837890625,797.8021850585938,784.1025390625
1539,804.2490844726562,796.996337890625,795.7875366210938,788.937744140625
1540,803.8461303710938,799.8168334960938,794.1758422851562,795.7875366210938
1541,801.025634765625,795.7875366210938,796.1904907226562,790.1465454101562
1542,797.3992919921875,789.3406372070312,797.3992919921875,789.3406372070312
1543,790.5494384765625,786.5201416015625,794.1758422851562,789.7435913085938
1544,787.3259887695312,788.5347900390625,793.3699340820312,786.5201416015625
1545,795.7875366210938,793.7728881835938,796.5933837890625,791.3552856445312
1546,789.3406372070312,796.996337890625,796.996337890625,789.7435913085938
1547,783.6996459960938,795.3846435546875,798.2051391601562,788.5347900390625
1548,783.6996459960938,792.967041015625,797.3992919921875,791.7582397460938
1549,783.6996459960938,791.7582397460938,799.010986328125,789.3406372070312
1550,786.1171875,794.5787353515625,801.8314819335938,788.1318969726562
1551,790.1465454101562,795.7875366210938,800.2197875976562,793.7728881835938
1552,789.7435913085938,798.2051391601562,804.2490844726562,795.3846435546875
1553,784.5054931640625,802.6373901367188,805.8607788085938,792.5640869140625
1554,785.3113403320312,796.1904907226562,800.2197875976562,794.981689453125
1555,785.3113403320312,792.967041015625,796.5933837890625,790.5494384765625
1556,793.7728881835938,796.996337890625,799.010986328125,792.5640869140625
1557,794.5787353515625,792.1611938476562,798.2051391601562,786.1171875
1558,795.7875366210938,792.967041015625,795.7875366210938,784.1025390625
1559,804.2490844726562,797.8021850585938,794.981689453125,790.952392578125
1560,803.8461303710938,795.3846435546875,792.5640869140625,784.908447265625
1561,804.2490844726562,795.3846435546875,789.7435913085938,780.4761962890625
1562,801.025634765625,795.7875366210938,784.5054931640625,782.4908447265625
1563,793.7728881835938,794.5787353515625,787.3259887695312,789.3406372070312
1564,795.3846435546875,794.981689453125,790.1465454101562,783.6996459960938
1565,805.054931640625,795.3846435546875,790.1465454101562,781.6849975585938
1566,801.8314819335938,794.5787353515625,794.981689453125,782.893798828125
1567,791.3552856445312,790.952392578125,793.3699340820312,781.2820434570312
1568,792.5640869140625,791.7582397460938,790.952392578125,785.3113403320312
1569,794.5787353515625,790.952392578125,792.1611938476562,792.1611938476562
1570,788.5347900390625,790.1465454101562,792.5640869140625,798.6080322265625
1571,781.6849975585938,788.5347900390625,795.7875366210938,800.2197875976562
1572,782.893798828125,790.952392578125,795.7875366210938,799.4139404296875
1573,782.4908447265625,797.3992919921875,792.1611938476562,797.3992919921875
1574,776.0439453125,796.1904907226562,792.5640869140625,791.7582397460938
1575,780.879150390625,796.1904907226562,793.7728881835938,793.7728881835938
1576,786.5201416015625,797.8021850585938,793.3699340820312,799.4139404296875
1577,788.5347900390625,799.4139404296875,794.1758422851562,790.1465454101562
1578,787.3259887695312,796.996337890625,795.3846435546875,782.087890625
1579,780.879150390625,788.937744140625,791.7582397460938,780.0732421875
1580,785.7142944335938,787.3259887695312,790.952392578125,780.4761962890625
1581,790.952392578125,791.7582397460938,790.952392578125,788.5347900390625
1582,790.952392578125,793.3699340820312,794.1758422851562,798.2051391601562
1583,790.1465454101562,795.7875366210938,801.025634765625,790.5494384765625
1584,790.1465454101562,796.996337890625,799.8168334960938,787.7289428710938
1585,792.1611938476562,796.1904907226562,799.4139404296875,796.5933837890625
