timestamp,RAW_TP9,RAW_AF7,RAW_AF8,RAW_TP10
1,805.8607788085938,784.5054931640625,785.7142944335938,792.1611938476562
2,800.6226806640625,788.937744140625,786.1171875,792.5640869140625
3,788.937744140625,791.3552856445312,786.1171875,784.5054931640625
4,787.3259887695312,791.3552856445312,786.5201416015625,785.3113403320312
5,791.7582397460938,791.7582397460938,792.967041015625,790.1465454101562
6,796.5933837890625,790.1465454101562,792.5640869140625,797.3992919921875
7,793.3699340820312,786.1171875,785.7142944335938,796.996337890625
8,790.1465454101562,785.7142944335938,786.923095703125,792.5640869140625
9,791.3552856445312,783.2966918945312,791.3552856445312,789.7435913085938
10,792.5640869140625,780.879150390625,795.7875366210938,787.3259887695312
11,793.3699340820312,790.1465454101562,797.3992919921875,791.3552856445312
12,790.1465454101562,796.5933837890625,796.5933837890625,797.8021850585938
13,785.7142944335938,792.1611938476562,792.5640869140625,792.1611938476562
14,787.3259887695312,790.5494384765625,796.1904907226562,788.1318969726562
15,801.025634765625,793.7728881835938,796.996337890625,785.3113403320312
16,809.89013671875,792.1611938476562,789.7435913085938,785.7142944335938
17,809.084228515625,787.7289428710938,788.1318969726562,783.6996459960938
18,807.4725341796875,791.7582397460938,791.7582397460938,788.5347900390625
19,801.4285888671875,792.967041015625,797.8021850585938,788.937744140625
20,798.2051391601562,792.5640869140625,796.1904907226562,780.4761962890625
21,799.010986328125,790.5494384765625,793.7728881835938,788.937744140625
22,793.3699340820312,786.1171875,798.2051391601562,796.5933837890625
23,791.7582397460938,790.5494384765625,796.1904907226562,796.1904907226562
24,794.1758422851562,796.996337890625,793.7728881835938,793.7728881835938
25,793.3699340820312,798.2051391601562,798.2051391601562,793.3699340820312
26,794.1758422851562,795.7875366210938,802.6373901367188,796.996337890625
27,796.996337890625,798.6080322265625,804.2490844726562,796.5933837890625
28,791.3552856445312,796.5933837890625,800.6226806640625,788.937744140625
29,787.3259887695312,784.5054931640625,794.5787353515625,794.981689453125
30,788.1318969726562,788.937744140625,794.981689453125,809.89013671875
31,788.937744140625,802.6373901367188,803.4432373046875,802.2344360351562
32,799.4139404296875,795.7875366210938,802.6373901367188,798.6080322265625
33,797.3992919921875,791.3552856445312,791.7582397460938,798.6080322265625
34,782.893798828125,796.5933837890625,788.1318969726562,790.1465454101562
35,781.2820434570312,792.1611938476562,791.7582397460938,790.5494384765625
36,786.5201416015625,791.7582397460938,796.1904907226562,800.2197875976562
37,788.1318969726562,795.7875366210938,796.1904907226562,801.4285888671875
38,788.1318969726562,795.7875366210938,794.1758422851562,796.5933837890625
39,790.5494384765625,791.3552856445312,792.967041015625,796.1904907226562
40,794.981689453125,791.7582397460938,790.952392578125,794.981689453125
41,793.7728881835938,790.952392578125,783.2966918945312,798.6080322265625
42,788.937744140625,792.967041015625,784.908447265625,796.5933837890625
43,790.1465454101562,799.010986328125,794.5787353515625,792.967041015625
44,790.952392578125,797.3992919921875,792.5640869140625,789.7435913085938
45,788.1318969726562,792.1611938476562,791.7582397460938,787.7289428710938
46,788.1318969726562,790.1465454101562,800.2197875976562,796.5933837890625
47,795.3846435546875,792.1611938476562,806.6666870117188,803.040283203125
48,799.010986328125,797.8021850585938,803.040283203125,799.8168334960938
49,792.967041015625,799.010986328125,799.8168334960938,799.4139404296875
50,791.7582397460938,797.3992919921875,801.025634765625,800.2197875976562
51,793.7728881835938,798.6080322265625,799.4139404296875,794.1758422851562
52,788.1318969726562,794.981689453125,798.6080322265625,788.5347900390625
53,784.5054931640625,794.1758422851562,801.025634765625,788.1318969726562
54,788.5347900390625,794.981689453125,800.2197875976562,782.4908447265625
55,792.5640869140625,792.1611938476562,795.7875366210938,785.3113403320312
56,790.5494384765625,796.996337890625,791.7582397460938,795.7875366210938
57,789.3406372070312,791.3552856445312,793.7728881835938,794.5787353515625
58,798.6080322265625,790.1465454101562,800.2197875976562,792.1611938476562
59,803.040283203125,799.8168334960938,800.6226806640625,796.5933837890625
60,800.6226806640625,794.981689453125,793.7728881835938,798.2051391601562
61,798.6080322265625,793.3699340820312,794.981689453125,795.7875366210938
62,798.6080322265625,794.5787353515625,798.6080322265625,789.7435913085938
63,798.6080322265625,794.5787353515625,795.7875366210938,793.3699340820312
64,794.5787353515625,795.7875366210938,794.981689453125,799.010986328125
65,796.5933837890625,790.5494384765625,793.3699340820312,791.7582397460938
66,801.4285888671875,791.7582397460938,791.3552856445312,780.0732421875
67,800.6226806640625,793.3699340820312,792.1611938476562,778.05859375
68,800.6226806640625,785.7142944335938,788.5347900390625,780.879150390625
69,799.010986328125,780.4761962890625,784.5054931640625,775.2380981445312
70,790.952392578125,789.3406372070312,787.3259887695312,778.4615478515625
71,786.5201416015625,794.5787353515625,784.908447265625,788.5347900390625
72,788.937744140625,792.5640869140625,786.923095703125,790.1465454101562
73,790.952392578125,792.5640869140625,788.5347900390625,786.5201416015625
74,789.3406372070312,788.1318969726562,786.5201416015625,789.7435913085938
75,798.6080322265625,787.7289428710938,789.7435913085938,802.6373901367188
76,795.3846435546875,788.937744140625,792.1611938476562,797.3992919921875
77,781.6849975585938,790.952392578125,792.967041015625,785.3113403320312
78,782.893798828125,793.7728881835938,792.1611938476562,786.1171875
79,790.5494384765625,792.1611938476562,794.1758422851562,792.967041015625
80,792.1611938476562,785.3113403320312,792.967041015625,794.981689453125
81,790.952392578125,782.4908447265625,789.7435913085938,791.7582397460938
82,791.3552856445312,789.7435913085938,793.7728881835938,798.2051391601562
83,796.996337890625,791.7582397460938,795.3846435546875,799.4139404296875
84,796.5933837890625,793.7728881835938,794.981689453125,783.6996459960938
85,791.3552856445312,795.3846435546875,790.5494384765625,777.2527465820312
86,790.952392578125,788.937744140625,788.5347900390625,786.1171875
87,791.7582397460938,789.7435913085938,788.1318969726562,788.937744140625
88,791.3552856445312,794.981689453125,788.5347900390625,782.4908447265625
89,790.1465454101562,790.1465454101562,787.3259887695312,780.4761962890625
90,787.7289428710938,784.1025390625,785.3113403320312,778.8644409179688
91,790.952392578125,783.6996459960938,780.4761962890625,789.3406372070312
92,794.981689453125,789.7435913085938,784.908447265625,792.5640869140625
93,792.5640869140625,792.967041015625,793.3699340820312,782.087890625
94,786.5201416015625,795.7875366210938,791.7582397460938,784.5054931640625
95,787.7289428710938,799.8168334960938,792.1611938476562,786.5201416015625
96,786.1171875,794.1758422851562,792.5640869140625,787.3259887695312
97,785.7142944335938,789.7435913085938,790.5494384765625,790.952392578125
98,784.908447265625,788.1318969726562,784.1025390625,788.5347900390625
99,778.8644409179688,784.908447265625,784.908447265625,789.3406372070312
100,777.2527465820312,786.1171875,789.3406372070312,791.7582397460938
101,782.087890625,789.7435913085938,792.1611938476562,788.937744140625
102,790.1465454101562,789.3406372070312,791.7582397460938,788.937744140625
103,790.1465454101562,793.3699340820312,789.3406372070312,787.3259887695312
104,792.5640869140625,794.5787353515625,794.5787353515625,788.5347900390625
105,795.7875366210938,792.1611938476562,795.3846435546875,796.5933837890625
106,794.5787353515625,790.952392578125,791.3552856445312,794.981689453125
107,796.996337890625,789.7435913085938,793.7728881835938,793.3699340820312
108,799.8168334960938,792.967041015625,794.5787353515625,793.3699340820312
109,797.3992919921875,795.3846435546875,792.967041015625,792.1611938476562
110,796.1904907226562,794.981689453125,794.981689453125,796.5933837890625
111,794.1758422851562,795.3846435546875,796.1904907226562,790.5494384765625
112,796.5933837890625,796.996337890625,791.7582397460938,790.1465454101562
113,793.7728881835938,796.996337890625,790.952392578125,796.1904907226562
114,788.937744140625,792.5640869140625,794.5787353515625,796.996337890625
115,796.1904907226562,792.1611938476562,797.8021850585938,796.996337890625
116,796.996337890625,794.1758422851562,793.3699340820312,794.5787353515625
117,792.5640869140625,794.5787353515625,791.3552856445312,796.996337890625
118,791.3552856445312,796.1904907226562,796.1904907226562,801.025634765625
119,790.5494384765625,793.3699340820312,796.5933837890625,802.6373901367188
120,786.923095703125,788.5347900390625,790.952392578125,799.4139404296875
121,783.6996459960938,786.923095703125,788.5347900390625,791.3552856445312
122,788.1318969726562,791.7582397460938,791.3552856445312,794.5787353515625
123,794.981689453125,799.010986328125,795.7875366210938,797.3992919921875
124,795.3846435546875,799.8168334960938,799.8168334960938,790.952392578125
125,790.5494384765625,794.5787353515625,797.3992919921875,795.3846435546875
126,794.981689453125,794.5787353515625,790.1465454101562,804.6520385742188
127,803.4432373046875,796.1904907226562,793.3699340820312,796.996337890625
128,805.8607788085938,791.3552856445312,795.7875366210938,797.8021850585938
129,807.069580078125,792.967041015625,796.1904907226562,797.3992919921875
130,801.4285888671875,791.7582397460938,798.6080322265625,791.7582397460938
131,796.1904907226562,787.3259887695312,795.3846435546875,792.1611938476562
132,791.7582397460938,786.923095703125,790.1465454101562,785.3113403320312
133,787.3259887695312,784.908447265625,785.3113403320312,782.4908447265625
134,782.4908447265625,778.4615478515625,785.3113403320312,781.6849975585938
135,778.05859375,782.4908447265625,786.923095703125,780.4761962890625
136,778.05859375,786.923095703125,790.5494384765625,785.7142944335938
137,787.7289428710938,786.923095703125,796.996337890625,794.981689453125
138,787.3259887695312,786.923095703125,796.996337890625,786.1171875
139,780.4761962890625,787.3259887695312,792.967041015625,781.2820434570312
140,782.893798828125,786.5201416015625,788.5347900390625,788.1318969726562
141,786.923095703125,789.7435913085938,789.3406372070312,790.952392578125
142,786.923095703125,789.7435913085938,794.1758422851562,788.1318969726562
143,778.4615478515625,781.6849975585938,794.981689453125,780.4761962890625
144,774.4322509765625,783.6996459960938,794.1758422851562,775.6410522460938
145,778.8644409179688,791.7582397460938,800.2197875976562,783.6996459960938
146,779.6703491210938,794.1758422851562,800.2197875976562,786.923095703125
147,778.8644409179688,793.7728881835938,793.7728881835938,781.6849975585938
148,786.923095703125,789.7435913085938,787.7289428710938,790.1465454101562
149,790.952392578125,780.4761962890625,792.1611938476562,800.2197875976562
150,783.6996459960938,782.893798828125,799.4139404296875,798.6080322265625
151,788.1318969726562,795.3846435546875,796.1904907226562,805.054931640625
152,793.3699340820312,798.2051391601562,793.3699340820312,797.3992919921875
153,788.5347900390625,793.3699340820312,791.3552856445312,785.7142944335938
154,785.7142944335938,793.3699340820312,790.5494384765625,789.7435913085938
155,789.3406372070312,794.1758422851562,798.6080322265625,795.7875366210938
156,790.5494384765625,795.3846435546875,796.1904907226562,796.1904907226562
157,788.1318969726562,794.5787353515625,792.1611938476562,788.5347900390625
158,783.6996459960938,791.3552856445312,794.981689453125,785.7142944335938
159,782.087890625,792.1611938476562,787.3259887695312,788.5347900390625
160,782.893798828125,788.5347900390625,782.893798828125,790.952392578125
161,780.0732421875,788.937744140625,788.5347900390625,785.7142944335938
162,784.5054931640625,793.3699340820312,790.5494384765625,785.7142944335938
163,794.1758422851562,790.952392578125,794.981689453125,796.5933837890625
164,798.6080322265625,792.967041015625,796.5933837890625,803.040283203125
165,795.3846435546875,800.2197875976562,792.5640869140625,796.5933837890625
166,792.967041015625,794.981689453125,793.3699340820312,790.5494384765625
167,792.967041015625,788.937744140625,796.5933837890625,791.3552856445312
168,794.981689453125,791.7582397460938,793.3699340820312,792.967041015625
169,799.4139404296875,787.7289428710938,787.3259887695312,792.967041015625
170,796.5933837890625,786.5201416015625,789.7435913085938,789.3406372070312
171,797.3992919921875,786.923095703125,793.3699340820312,798.6080322265625
172,801.025634765625,787.3259887695312,793.7728881835938,803.040283203125
173,794.1758422851562,791.3552856445312,795.3846435546875,786.923095703125
174,789.3406372070312,794.1758422851562,794.1758422851562,786.1171875
175,788.1318969726562,794.981689453125,792.1611938476562,792.1611938476562
176,788.937744140625,793.3699340820312,789.7435913085938,791.3552856445312
177,790.952392578125,792.5640869140625,792.5640869140625,794.5787353515625
178,791.7582397460938,798.2051391601562,797.3992919921875,798.2051391601562
179,792.5640869140625,797.8021850585938,801.025634765625,792.967041015625
180,791.3552856445312,795.3846435546875,798.6080322265625,777.2527465820312
181,792.967041015625,799.010986328125,793.3699340820312,774.8351440429688
182,794.1758422851562,800.2197875976562,792.967041015625,789.3406372070312
183,796.1904907226562,797.3992919921875,793.7728881835938,794.981689453125
184,796.5933837890625,797.8021850585938,795.7875366210938,794.5787353515625
185,801.8314819335938,801.4285888671875,798.2051391601562,799.8168334960938
186,804.2490844726562,795.7875366210938,802.2344360351562,799.8168334960938
187,803.4432373046875,787.7289428710938,799.8168334960938,803.040283203125
188,803.8461303710938,792.5640869140625,796.996337890625,800.2197875976562
189,803.8461303710938,794.5787353515625,797.8021850585938,796.996337890625
190,805.4578857421875,795.3846435546875,799.4139404296875,798.2051391601562
191,798.2051391601562,801.8314819335938,798.2051391601562,798.6080322265625
192,796.1904907226562,805.8607788085938,795.7875366210938,792.1611938476562
193,798.6080322265625,798.6080322265625,801.4285888671875,789.7435913085938
194,798.6080322265625,792.5640869140625,800.6226806640625,794.1758422851562
195,798.2051391601562,796.996337890625,797.3992919921875,797.3992919921875
196,800.6226806640625,799.010986328125,794.1758422851562,807.069580078125
197,811.5018310546875,786.1171875,792.967041015625,816.3369750976562
198,807.4725341796875,784.908447265625,794.5787353515625,809.89013671875
199,789.7435913085938,791.3552856445312,794.5787353515625,796.996337890625
200,794.981689453125,794.1758422851562,794.1758422851562,791.7582397460938
201,800.6226806640625,791.3552856445312,793.3699340820312,786.1171875
202,793.3699340820312,797.3992919921875,798.6080322265625,791.7582397460938
203,800.2197875976562,798.6080322265625,801.4285888671875,795.7875366210938
204,805.8607788085938,791.7582397460938,802.6373901367188,800.2197875976562
205,801.025634765625,790.5494384765625,797.3992919921875,804.2490844726562
206,792.1611938476562,794.1758422851562,793.7728881835938,803.8461303710938
207,787.7289428710938,788.937744140625,791.3552856445312,801.8314819335938
208,792.967041015625,792.1611938476562,787.7289428710938,802.6373901367188
209,791.7582397460938,799.010986328125,791.7582397460938,793.7728881835938
210,794.981689453125,800.6226806640625,796.996337890625,791.3552856445312
211,796.5933837890625,801.4285888671875,794.981689453125,791.7582397460938
212,793.3699340820312,801.4285888671875,795.7875366210938,796.1904907226562
213,796.1904907226562,803.040283203125,795.7875366210938,796.996337890625
214,794.981689453125,803.040283203125,792.1611938476562,788.937744140625
215,802.2344360351562,804.2490844726562,786.923095703125,794.981689453125
216,808.2783813476562,803.4432373046875,785.3113403320312,803.4432373046875
217,803.8461303710938,801.8314819335938,781.6849975585938,794.1758422851562
218,794.981689453125,797.8021850585938,782.893798828125,779.2673950195312
219,789.3406372070312,794.5787353515625,790.1465454101562,777.6557006835938
220,791.3552856445312,801.8314819335938,788.5347900390625,788.937744140625
221,795.7875366210938,803.040283203125,792.1611938476562,798.2051391601562
222,804.2490844726562,796.1904907226562,797.8021850585938,805.054931640625
223,805.4578857421875,792.967041015625,793.7728881835938,805.8607788085938
224,802.6373901367188,794.981689453125,788.937744140625,800.6226806640625
225,800.6226806640625,796.996337890625,791.7582397460938,796.996337890625
226,798.2051391601562,798.2051391601562,792.1611938476562,796.5933837890625
227,800.6226806640625,799.8168334960938,791.7582397460938,795.7875366210938
228,809.89013671875,796.1904907226562,794.981689453125,792.5640869140625
229,807.4725341796875,788.1318969726562,791.7582397460938,794.5787353515625
230,805.054931640625,790.952392578125,790.1465454101562,798.6080322265625
231,812.7106323242188,793.7728881835938,794.1758422851562,807.87548828125
232,808.2783813476562,792.967041015625,796.1904907226562,803.040283203125
233,796.5933837890625,790.1465454101562,796.5933837890625,790.1465454101562
234,795.7875366210938,791.3552856445312,795.3846435546875,793.3699340820312
235,797.8021850585938,800.2197875976562,798.2051391601562,795.3846435546875
236,794.981689453125,802.2344360351562,800.2197875976562,801.4285888671875
237,790.952392578125,795.3846435546875,803.8461303710938,806.2637329101562
238,792.967041015625,794.5787353515625,800.2197875976562,799.4139404296875
239,798.6080322265625,796.5933837890625,796.996337890625,792.967041015625
240,799.8168334960938,792.5640869140625,796.1904907226562,792.1611938476562
241,798.2051391601562,789.7435913085938,795.3846435546875,794.981689453125
242,791.7582397460938,789.3406372070312,796.996337890625,794.1758422851562
243,790.952392578125,792.5640869140625,796.5933837890625,796.5933837890625
244,796.1904907226562,794.5787353515625,802.6373901367188,796.996337890625
245,795.7875366210938,782.087890625,800.6226806640625,791.3552856445312
246,792.5640869140625,781.6849975585938,796.996337890625,791.7582397460938
247,789.3406372070312,794.1758422851562,801.025634765625,796.1904907226562
248,792.5640869140625,794.5787353515625,800.2197875976562,800.6226806640625
249,797.3992919921875,788.937744140625,797.3992919921875,800.2197875976562
250,796.996337890625,789.7435913085938,799.010986328125,791.7582397460938
251,802.2344360351562,796.996337890625,802.2344360351562,791.7582397460938
252,798.6080322265625,801.4285888671875,805.4578857421875,796.1904907226562
253,800.6226806640625,796.996337890625,801.025634765625,804.6520385742188
254,806.6666870117188,792.5640869140625,795.3846435546875,815.93408203125
255,800.2197875976562,792.967041015625,800.6226806640625,807.4725341796875
256,799.010986328125,796.1904907226562,800.2197875976562,791.7582397460938
257,801.025634765625,792.967041015625,794.1758422851562,796.1904907226562
258,801.4285888671875,794.981689453125,791.7582397460938,804.6520385742188
259,792.1611938476562,801.025634765625,791.7582397460938,801.025634765625
260,789.3406372070312,803.4432373046875,787.7289428710938,794.5787353515625
261,793.7728881835938,800.6226806640625,787.7289428710938,793.3699340820312
262,788.5347900390625,796.5933837890625,787.7289428710938,792.1611938476562
263,784.1025390625,791.3552856445312,786.5201416015625,788.1318969726562
264,786.923095703125,788.1318969726562,791.3552856445312,788.937744140625
265,788.937744140625,793.7728881835938,790.952392578125,789.3406372070312
266,797.8021850585938,790.1465454101562,788.5347900390625,799.010986328125
267,810.6959838867188,786.5201416015625,796.1904907226562,816.7399291992188
268,801.4285888671875,795.3846435546875,798.2051391601562,805.4578857421875
269,785.7142944335938,797.8021850585938,788.1318969726562,781.6849975585938
270,792.5640869140625,797.3992919921875,780.0732421875,785.3113403320312
271,805.4578857421875,803.040283203125,780.879150390625,799.8168334960938
272,799.4139404296875,799.4139404296875,790.952392578125,805.054931640625
273,797.8021850585938,801.4285888671875,794.1758422851562,801.4285888671875
274,807.87548828125,804.2490844726562,792.967041015625,802.6373901367188
275,796.5933837890625,789.7435913085938,794.5787353515625,793.7728881835938
276,790.952392578125,788.5347900390625,795.7875366210938,786.923095703125
277,801.4285888671875,794.1758422851562,799.010986328125,797.3992919921875
278,802.2344360351562,792.1611938476562,796.5933837890625,796.996337890625
279,802.2344360351562,796.5933837890625,790.5494384765625,788.1318969726562
280,808.6813354492188,797.3992919921875,789.3406372070312,792.5640869140625
281,805.8607788085938,792.967041015625,786.923095703125,804.2490844726562
282,800.2197875976562,801.025634765625,792.1611938476562,799.010986328125
283,799.8168334960938,797.3992919921875,791.3552856445312,793.3699340820312
284,798.2051391601562,784.5054931640625,787.3259887695312,793.7728881835938
285,793.3699340820312,791.7582397460938,793.7728881835938,795.3846435546875
286,790.5494384765625,797.3992919921875,790.1465454101562,798.2051391601562
287,788.1318969726562,790.5494384765625,778.4615478515625,796.996337890625
288,787.7289428710938,788.937744140625,782.087890625,795.7875366210938
289,792.1611938476562,793.3699340820312,788.937744140625,794.981689453125
290,796.996337890625,793.7728881835938,792.5640869140625,801.4285888671875
291,801.025634765625,794.981689453125,792.967041015625,807.069580078125
292,803.8461303710938,792.967041015625,793.3699340820312,805.8607788085938
293,801.8314819335938,788.937744140625,796.996337890625,802.6373901367188
294,801.4285888671875,788.937744140625,795.3846435546875,798.6080322265625
295,803.040283203125,786.5201416015625,789.7435913085938,799.010986328125
296,802.6373901367188,782.893798828125,787.7289428710938,804.2490844726562
297,798.2051391601562,790.5494384765625,785.3113403320312,801.025634765625
298,801.4285888671875,795.3846435546875,791.3552856445312,800.2197875976562
299,807.4725341796875,788.937744140625,794.981689453125,801.025634765625
300,809.084228515625,790.952392578125,794.981689453125,802.6373901367188
301,807.4725341796875,795.3846435546875,792.967041015625,799.010986328125
302,804.6520385742188,794.1758422851562,790.5494384765625,795.3846435546875
303,806.2637329101562,795.7875366210938,790.5494384765625,796.996337890625
304,807.87548828125,793.7728881835938,790.1465454101562,799.010986328125
305,809.4871826171875,793.7728881835938,790.952392578125,796.1904907226562
306,808.2783813476562,789.3406372070312,790.5494384765625,791.7582397460938
307,801.025634765625,788.5347900390625,794.5787353515625,788.937744140625
308,793.7728881835938,794.5787353515625,796.1904907226562,783.6996459960938
309,794.5787353515625,794.981689453125,793.7728881835938,783.2966918945312
310,798.6080322265625,789.3406372070312,791.7582397460938,787.7289428710938
311,799.4139404296875,785.3113403320312,792.1611938476562,793.3699340820312
312,794.1758422851562,789.7435913085938,790.5494384765625,798.2051391601562
313,788.1318969726562,791.7582397460938,790.952392578125,796.5933837890625
314,788.937744140625,790.952392578125,791.7582397460938,795.3846435546875
315,795.7875366210938,792.5640869140625,798.2051391601562,802.2344360351562
316,799.4139404296875,790.952392578125,796.996337890625,800.6226806640625
317,794.981689453125,793.7728881835938,792.5640869140625,796.5933837890625
318,792.1611938476562,787.7289428710938,796.996337890625,797.8021850585938
319,790.1465454101562,785.3113403320312,793.7728881835938,793.3699340820312
320,787.7289428710938,790.5494384765625,792.5640869140625,794.1758422851562
321,794.5787353515625,794.5787353515625,794.5787353515625,797.8021850585938
322,790.5494384765625,792.1611938476562,792.1611938476562,793.7728881835938
323,784.5054931640625,780.879150390625,792.967041015625,791.7582397460938
324,786.923095703125,780.4761962890625,796.1904907226562,792.1611938476562
325,786.1171875,786.5201416015625,798.2051391601562,794.1758422851562
326,788.1318969726562,787.7289428710938,795.7875366210938,796.1904907226562
327,789.3406372070312,793.3699340820312,792.5640869140625,800.2197875976562
328,784.5054931640625,792.967041015625,793.7728881835938,788.937744140625
329,782.893798828125,790.5494384765625,791.3552856445312,781.2820434570312
330,786.5201416015625,792.967041015625,793.3699340820312,788.1318969726562
331,787.3259887695312,795.7875366210938,797.8021850585938,790.952392578125
332,785.7142944335938,798.6080322265625,795.7875366210938,788.937744140625
333,789.7435913085938,799.8168334960938,796.5933837890625,788.1318969726562
334,792.1611938476562,796.996337890625,796.5933837890625,789.3406372070312
335,796.996337890625,797.8021850585938,792.1611938476562,789.3406372070312
336,807.87548828125,802.6373901367188,784.1025390625,789.3406372070312
337,805.4578857421875,796.5933837890625,783.2966918945312,783.2966918945312
338,794.5787353515625,794.981689453125,788.937744140625,789.3406372070312
339,791.3552856445312,787.3259887695312,792.967041015625,793.3699340820312
340,789.7435913085938,788.5347900390625,793.3699340820312,785.3113403320312
341,790.5494384765625,800.6226806640625,792.1611938476562,788.5347900390625
342,790.5494384765625,797.3992919921875,790.952392578125,788.937744140625
343,788.1318969726562,792.1611938476562,786.923095703125,787.3259887695312
344,788.937744140625,793.7728881835938,790.1465454101562,790.952392578125
345,793.3699340820312,795.3846435546875,790.5494384765625,794.5787353515625
346,798.6080322265625,796.5933837890625,793.3699340820312,797.3992919921875
347,799.4139404296875,792.967041015625,795.3846435546875,797.3992919921875
348,796.1904907226562,786.5201416015625,790.5494384765625,796.5933837890625
349,792.1611938476562,787.7289428710938,793.7728881835938,794.981689453125
350,787.3259887695312,789.7435913085938,793.7728881835938,796.5933837890625
351,786.923095703125,792.5640869140625,793.7728881835938,796.1904907226562
352,789.3406372070312,798.6080322265625,796.5933837890625,792.967041015625
353,792.1611938476562,798.6080322265625,795.3846435546875,798.2051391601562
354,796.5933837890625,792.967041015625,792.967041015625,801.8314819335938
355,793.7728881835938,792.5640869140625,790.1465454101562,793.3699340820312
356,790.5494384765625,797.8021850585938,790.1465454101562,783.6996459960938
357,793.7728881835938,798.6080322265625,789.3406372070312,782.893798828125
358,795.7875366210938,800.6226806640625,793.3699340820312,782.4908447265625
359,790.5494384765625,798.6080322265625,799.8168334960938,786.5201416015625
360,794.981689453125,796.1904907226562,797.3992919921875,788.5347900390625
361,798.2051391601562,794.1758422851562,792.5640869140625,786.5201416015625
362,797.8021850585938,791.7582397460938,790.952392578125,786.1171875
363,795.7875366210938,795.3846435546875,799.4139404296875,780.4761962890625
364,791.7582397460938,795.7875366210938,799.010986328125,781.6849975585938
365,791.7582397460938,790.952392578125,790.1465454101562,789.7435913085938
366,792.5640869140625,792.967041015625,794.1758422851562,790.1465454101562
367,791.3552856445312,795.3846435546875,796.5933837890625,787.3259887695312
368,788.5347900390625,794.981689453125,796.996337890625,789.3406372070312
369,789.3406372070312,792.5640869140625,797.3992919921875,790.5494384765625
370,788.5347900390625,785.7142944335938,794.981689453125,786.1171875
371,787.3259887695312,787.3259887695312,794.5787353515625,785.7142944335938
372,789.3406372070312,796.996337890625,794.5787353515625,794.1758422851562
373,791.7582397460938,802.2344360351562,801.4285888671875,799.8168334960938
374,790.1465454101562,803.4432373046875,801.8314819335938,803.8461303710938
375,785.3113403320312,798.6080322265625,796.1904907226562,800.2197875976562
376,787.7289428710938,793.3699340820312,792.1611938476562,795.3846435546875
377,798.6080322265625,793.7728881835938,788.1318969726562,796.996337890625
378,796.1904907226562,794.1758422851562,789.7435913085938,787.7289428710938
379,788.937744140625,792.5640869140625,791.3552856445312,778.8644409179688
380,797.3992919921875,792.1611938476562,790.5494384765625,786.923095703125
381,801.4285888671875,792.967041015625,793.7728881835938,788.5347900390625
382,800.2197875976562,796.1904907226562,796.1904907226562,786.923095703125
383,799.4139404296875,792.1611938476562,796.5933837890625,792.5640869140625
384,796.1904907226562,790.5494384765625,796.996337890625,799.8168334960938
385,792.5640869140625,790.952392578125,796.1904907226562,800.6226806640625
386,796.1904907226562,794.5787353515625,798.6080322265625,799.8168334960938
387,798.6080322265625,796.1904907226562,799.010986328125,799.8168334960938
388,798.2051391601562,792.1611938476562,792.1611938476562,801.8314819335938
389,801.025634765625,795.7875366210938,794.981689453125,800.2197875976562
390,800.2197875976562,795.3846435546875,800.2197875976562,795.3846435546875
391,795.3846435546875,790.952392578125,798.6080322265625,792.5640869140625
392,798.2051391601562,797.8021850585938,803.040283203125,790.952392578125
393,797.8021850585938,798.2051391601562,804.6520385742188,790.1465454101562
394,792.1611938476562,790.952392578125,801.8314819335938,791.3552856445312
395,795.3846435546875,790.1465454101562,799.010986328125,796.5933837890625
396,800.6226806640625,800.6226806640625,799.8168334960938,800.2197875976562
397,794.981689453125,802.2344360351562,805.4578857421875,794.1758422851562
398,790.1465454101562,797.8021850585938,801.8314819335938,796.996337890625
399,794.5787353515625,800.2197875976562,799.010986328125,805.054931640625
400,794.5787353515625,799.010986328125,804.6520385742188,811.5018310546875
401,790.1465454101562,797.8021850585938,806.2637329101562,808.2783813476562
402,793.3699340820312,797.8021850585938,804.6520385742188,805.8607788085938
403,795.7875366210938,794.981689453125,801.8314819335938,808.2783813476562
404,790.1465454101562,793.7728881835938,801.8314819335938,805.054931640625
405,787.7289428710938,792.5640869140625,796.5933837890625,800.2197875976562
406,788.1318969726562,794.1758422851562,793.3699340820312,801.8314819335938
407,795.7875366210938,793.7728881835938,796.5933837890625,807.87548828125
408,802.2344360351562,794.981689453125,795.3846435546875,811.90478515625
409,799.8168334960938,794.981689453125,795.3846435546875,804.2490844726562
410,796.996337890625,790.1465454101562,798.2051391601562,799.8168334960938
411,793.7728881835938,784.1025390625,799.010986328125,799.4139404296875
412,790.1465454101562,786.1171875,799.4139404296875,789.7435913085938
413,789.3406372070312,792.967041015625,802.6373901367188,782.087890625
414,790.5494384765625,792.5640869140625,802.6373901367188,791.3552856445312
415,783.6996459960938,792.1611938476562,798.2051391601562,792.967041015625
416,780.879150390625,792.1611938476562,796.1904907226562,787.3259887695312
417,782.893798828125,790.952392578125,794.5787353515625,788.5347900390625
418,788.5347900390625,788.937744140625,795.7875366210938,792.967041015625
419,788.937744140625,788.1318969726562,799.8168334960938,791.7582397460938
420,784.5054931640625,792.967041015625,795.7875366210938,791.7582397460938
421,786.1171875,790.952392578125,791.3552856445312,796.1904907226562
422,788.937744140625,790.5494384765625,793.7728881835938,792.5640869140625
423,791.7582397460938,796.5933837890625,794.981689453125,792.967041015625
424,790.5494384765625,798.6080322265625,792.967041015625,788.937744140625
425,788.937744140625,795.7875366210938,796.1904907226562,783.6996459960938
426,787.7289428710938,791.7582397460938,796.996337890625,789.3406372070312
427,796.1904907226562,790.952392578125,796.5933837890625,796.1904907226562
428,804.6520385742188,795.7875366210938,795.7875366210938,795.7875366210938
429,805.8607788085938,796.996337890625,793.7728881835938,789.3406372070312
430,809.084228515625,793.7728881835938,794.981689453125,784.908447265625
431,810.6959838867188,788.1318969726562,793.3699340820312,795.3846435546875
432,809.89013671875,785.7142944335938,794.981689453125,802.6373901367188
433,805.054931640625,792.1611938476562,793.7728881835938,798.6080322265625
434,790.952392578125,796.5933837890625,784.5054931640625,788.937744140625
435,782.087890625,796.996337890625,789.3406372070312,785.7142944335938
436,769.1941528320312,794.1758422851562,805.4578857421875,779.6703491210938
437,770.4029541015625,786.1171875,799.8168334960938,780.879150390625
438,781.2820434570312,785.3113403320312,791.3552856445312,788.1318969726562
439,778.05859375,794.1758422851562,793.7728881835938,778.8644409179688
440,785.7142944335938,801.025634765625,800.2197875976562,782.4908447265625
441,797.3992919921875,798.2051391601562,802.2344360351562,794.981689453125
442,804.2490844726562,798.2051391601562,801.4285888671875,800.2197875976562
443,805.8607788085938,798.6080322265625,801.4285888671875,801.4285888671875
444,797.8021850585938,789.3406372070312,794.1758422851562,792.5640869140625
445,794.981689453125,783.6996459960938,790.1465454101562,789.7435913085938
446,798.6080322265625,782.893798828125,792.1611938476562,795.3846435546875
447,797.3992919921875,783.2966918945312,794.1758422851562,789.7435913085938
448,795.7875366210938,788.1318969726562,796.996337890625,786.5201416015625
449,795.3846435546875,796.996337890625,797.3992919921875,797.8021850585938
450,788.1318969726562,799.8168334960938,797.3992919921875,797.8021850585938
451,782.893798828125,790.1465454101562,796.5933837890625,790.952392578125
452,780.4761962890625,790.5494384765625,792.5640869140625,793.7728881835938
453,777.6557006835938,792.5640869140625,792.5640869140625,794.5787353515625
454,781.2820434570312,784.1025390625,797.3992919921875,794.1758422851562
455,789.7435913085938,784.5054931640625,800.6226806640625,796.1904907226562
456,790.952392578125,785.7142944335938,801.8314819335938,802.2344360351562
457,792.5640869140625,784.908447265625,801.4285888671875,802.6373901367188
458,797.3992919921875,787.7289428710938,799.4139404296875,795.7875366210938
459,800.6226806640625,791.7582397460938,800.6226806640625,790.952392578125
460,799.8168334960938,787.7289428710938,796.996337890625,785.7142944335938
461,797.8021850585938,784.1025390625,796.1904907226562,784.5054931640625
462,797.8021850585938,793.7728881835938,804.6520385742188,784.5054931640625
463,803.040283203125,800.6226806640625,805.4578857421875,786.1171875
464,805.8607788085938,796.1904907226562,799.010986328125,790.952392578125
465,806.6666870117188,800.6226806640625,793.7728881835938,793.3699340820312
466,805.8607788085938,809.89013671875,794.5787353515625,791.3552856445312
467,805.4578857421875,803.4432373046875,802.6373901367188,791.7582397460938
468,803.4432373046875,798.2051391601562,799.8168334960938,793.7728881835938
469,796.5933837890625,796.996337890625,794.1758422851562,792.1611938476562
470,792.967041015625,794.981689453125,796.5933837890625,788.937744140625
471,788.937744140625,795.3846435546875,796.1904907226562,789.3406372070312
472,788.1318969726562,792.5640869140625,796.1904907226562,796.996337890625
473,786.5201416015625,782.893798828125,794.1758422851562,801.025634765625
474,784.1025390625,781.2820434570312,795.3846435546875,803.040283203125
475,779.6703491210938,783.2966918945312,800.6226806640625,798.2051391601562
476,774.4322509765625,785.3113403320312,798.6080322265625,790.952392578125
477,778.8644409179688,789.7435913085938,799.4139404296875,796.996337890625
478,784.5054931640625,791.7582397460938,799.4139404296875,798.2051391601562
479,786.923095703125,788.5347900390625,797.8021850585938,788.1318969726562
480,789.3406372070312,785.3113403320312,796.5933837890625,788.5347900390625
481,792.5640869140625,784.5054931640625,797.3992919921875,790.1465454101562
482,797.3992919921875,784.1025390625,797.3992919921875,786.5201416015625
483,798.2051391601562,788.1318969726562,799.010986328125,783.2966918945312
484,800.6226806640625,794.5787353515625,802.6373901367188,793.7728881835938
485,802.6373901367188,798.2051391601562,800.2197875976562,800.2197875976562
486,803.040283203125,798.6080322265625,800.2197875976562,794.981689453125
487,806.2637329101562,797.3992919921875,801.025634765625,798.2051391601562
488,801.8314819335938,799.010986328125,805.8607788085938,798.2051391601562
489,799.010986328125,798.6080322265625,803.040283203125,788.937744140625
490,804.2490844726562,800.2197875976562,800.6226806640625,787.7289428710938
491,802.2344360351562,797.8021850585938,802.2344360351562,791.3552856445312
492,797.8021850585938,793.7728881835938,796.5933837890625,783.2966918945312
493,797.3992919921875,797.8021850585938,794.5787353515625,783.2966918945312
494,799.4139404296875,801.025634765625,794.1758422851562,787.3259887695312
495,796.996337890625,799.010986328125,790.952392578125,788.1318969726562
496,796.996337890625,790.952392578125,790.5494384765625,800.6226806640625
497,791.7582397460938,794.981689453125,794.5787353515625,801.025634765625
498,790.1465454101562,801.8314819335938,795.3846435546875,793.3699340820312
499,794.981689453125,803.4432373046875,793.3699340820312,799.010986328125
500,788.937744140625,797.3992919921875,797.8021850585938,802.6373901367188
501,782.893798828125,790.1465454101562,795.7875366210938,799.4139404296875
502,778.05859375,788.1318969726562,789.7435913085938,784.1025390625
503,782.087890625,789.3406372070312,790.952392578125,779.6703491210938
504,786.923095703125,786.5201416015625,793.7728881835938,784.5054931640625
505,791.7582397460938,780.879150390625,793.7728881835938,788.1318969726562
506,790.5494384765625,777.2527465820312,789.3406372070312,780.4761962890625
507,790.5494384765625,783.2966918945312,786.5201416015625,788.1318969726562
508,797.8021850585938,795.7875366210938,790.952392578125,807.069580078125
509,799.010986328125,795.3846435546875,796.1904907226562,800.2197875976562
510,802.2344360351562,793.7728881835938,796.1904907226562,797.8021850585938
511,804.6520385742188,794.981689453125,793.3699340820312,794.5787353515625
512,804.6520385742188,797.3992919921875,795.3846435546875,790.952392578125
513,803.4432373046875,800.2197875976562,794.5787353515625,796.5933837890625
514,799.4139404296875,797.3992919921875,792.967041015625,794.5787353515625
515,805.4578857421875,794.981689453125,795.7875366210938,792.5640869140625
516,802.2344360351562,793.7728881835938,792.967041015625,794.1758422851562
517,792.1611938476562,792.5640869140625,791.7582397460938,791.7582397460938
518,792.5640869140625,789.3406372070312,790.952392578125,796.5933837890625
519,796.1904907226562,776.4468994140625,792.967041015625,809.084228515625
520,791.7582397460938,785.7142944335938,799.010986328125,806.6666870117188
521,791.3552856445312,799.8168334960938,803.040283203125,806.2637329101562
522,795.3846435546875,797.3992919921875,802.2344360351562,805.4578857421875
523,792.5640869140625,793.7728881835938,792.1611938476562,794.5787353515625
524,787.3259887695312,789.7435913085938,788.937744140625,788.1318969726562
525,785.3113403320312,791.3552856445312,790.1465454101562,791.7582397460938
526,785.3113403320312,790.1465454101562,790.1465454101562,789.7435913085938
527,784.908447265625,788.5347900390625,790.1465454101562,788.5347900390625
528,790.1465454101562,789.3406372070312,787.7289428710938,793.3699340820312
529,794.1758422851562,789.3406372070312,789.3406372070312,789.3406372070312
530,799.010986328125,788.5347900390625,791.3552856445312,789.7435913085938
531,800.2197875976562,790.952392578125,791.7582397460938,796.5933837890625
532,795.7875366210938,796.5933837890625,795.7875366210938,789.7435913085938
533,787.7289428710938,798.2051391601562,797.3992919921875,786.923095703125
534,782.087890625,791.7582397460938,795.3846435546875,786.923095703125
535,789.7435913085938,786.1171875,796.1904907226562,788.1318969726562
536,795.7875366210938,797.8021850585938,798.2051391601562,790.952392578125
537,797.8021850585938,804.2490844726562,797.3992919921875,792.5640869140625
538,797.8021850585938,790.1465454101562,793.3699340820312,795.7875366210938
539,791.3552856445312,792.967041015625,794.1758422851562,786.5201416015625
540,795.7875366210938,806.6666870117188,797.3992919921875,780.0732421875
541,799.8168334960938,797.8021850585938,792.967041015625,784.1025390625
542,790.952392578125,792.5640869140625,789.7435913085938,793.7728881835938
543,785.3113403320312,799.8168334960938,791.7582397460938,792.967041015625
544,784.5054931640625,799.010986328125,798.6080322265625,792.1611938476562
545,782.4908447265625,792.967041015625,796.5933837890625,798.6080322265625
546,782.4908447265625,794.981689453125,795.3846435546875,803.8461303710938
547,785.7142944335938,792.967041015625,798.6080322265625,804.2490844726562
548,784.908447265625,789.7435913085938,799.010986328125,798.6080322265625
549,782.4908447265625,792.1611938476562,793.3699340820312,791.7582397460938
550,783.6996459960938,787.3259887695312,790.952392578125,793.7728881835938
551,788.1318969726562,788.937744140625,794.981689453125,797.8021850585938
552,790.1465454101562,786.5201416015625,794.981689453125,795.3846435546875
553,788.1318969726562,786.5201416015625,793.3699340820312,786.5201416015625
554,793.3699340820312,788.937744140625,793.3699340820312,784.5054931640625
555,799.8168334960938,790.952392578125,788.937744140625,787.3259887695312
556,793.7728881835938,795.7875366210938,790.1465454101562,786.923095703125
557,790.1465454101562,796.1904907226562,785.7142944335938,791.7582397460938
558,790.5494384765625,796.996337890625,784.908447265625,790.5494384765625
559,792.1611938476562,799.010986328125,791.7582397460938,782.4908447265625
560,801.025634765625,800.2197875976562,792.5640869140625,788.937744140625
561,802.6373901367188,795.7875366210938,794.1758422851562,795.3846435546875
562,795.3846435546875,791.7582397460938,795.7875366210938,792.1611938476562
563,793.3699340820312,797.8021850585938,794.5787353515625,794.1758422851562
564,800.6226806640625,807.069580078125,793.3699340820312,800.2197875976562
565,806.2637329101562,802.2344360351562,792.967041015625,802.2344360351562
566,799.8168334960938,794.981689453125,794.1758422851562,801.4285888671875
567,796.5933837890625,796.1904907226562,796.1904907226562,803.040283203125
568,800.6226806640625,801.4285888671875,797.8021850585938,807.069580078125
569,797.8021850585938,802.6373901367188,793.7728881835938,812.3076782226562
570,794.1758422851562,798.6080322265625,797.3992919921875,805.8607788085938
571,791.7582397460938,791.3552856445312,797.3992919921875,797.8021850585938
572,793.7728881835938,794.1758422851562,795.7875366210938,797.3992919921875
573,794.5787353515625,797.3992919921875,793.7728881835938,794.981689453125
574,790.5494384765625,795.3846435546875,790.1465454101562,791.7582397460938
575,790.952392578125,794.1758422851562,794.5787353515625,791.7582397460938
576,791.3552856445312,799.010986328125,798.2051391601562,790.5494384765625
577,798.2051391601562,805.4578857421875,801.4285888671875,786.1171875
578,800.6226806640625,802.6373901367188,799.8168334960938,780.0732421875
579,793.3699340820312,801.4285888671875,794.981689453125,776.0439453125
580,793.3699340820312,796.996337890625,795.3846435546875,782.893798828125
581,793.7728881835938,794.1758422851562,798.6080322265625,791.3552856445312
582,788.5347900390625,801.8314819335938,801.025634765625,780.879150390625
583,787.3259887695312,808.2783813476562,800.6226806640625,784.5054931640625
584,787.3259887695312,807.069580078125,799.010986328125,792.5640869140625
585,786.1171875,799.010986328125,803.8461303710938,790.952392578125
586,786.5201416015625,794.5787353515625,806.2637329101562,794.5787353515625
587,790.1465454101562,801.4285888671875,806.2637329101562,791.7582397460938
588,789.3406372070312,801.4285888671875,801.8314819335938,788.937744140625
589,788.5347900390625,794.1758422851562,792.967041015625,787.3259887695312
590,788.937744140625,789.7435913085938,792.1611938476562,786.923095703125
591,790.1465454101562,789.7435913085938,796.1904907226562,796.5933837890625
592,793.7728881835938,795.7875366210938,795.7875366210938,807.069580078125
593,792.5640869140625,803.040283203125,796.996337890625,799.8168334960938
594,789.3406372070312,803.040283203125,795.7875366210938,789.3406372070312
595,787.3259887695312,794.5787353515625,792.967041015625,789.7435913085938
596,790.5494384765625,789.7435913085938,794.1758422851562,792.5640869140625
597,795.3846435546875,792.1611938476562,796.5933837890625,795.7875366210938
598,800.6226806640625,797.8021850585938,797.3992919921875,795.7875366210938
599,797.8021850585938,792.5640869140625,790.952392578125,796.1904907226562
600,794.981689453125,790.1465454101562,788.5347900390625,794.981689453125
601,792.5640869140625,791.3552856445312,787.7289428710938,788.1318969726562
602,789.3406372070312,789.3406372070312,784.908447265625,788.1318969726562
603,792.967041015625,784.908447265625,788.1318969726562,792.967041015625
604,791.3552856445312,784.908447265625,797.3992919921875,792.5640869140625
605,786.5201416015625,793.7728881835938,797.8021850585938,786.923095703125
606,782.893798828125,789.3406372070312,792.967041015625,782.4908447265625
607,784.908447265625,787.7289428710938,796.5933837890625,786.1171875
608,788.937744140625,796.1904907226562,803.8461303710938,789.3406372070312
609,787.3259887695312,790.952392578125,803.040283203125,786.1171875
610,788.5347900390625,789.7435913085938,796.1904907226562,790.5494384765625
611,786.923095703125,796.5933837890625,794.1758422851562,796.5933837890625
612,785.7142944335938,792.1611938476562,794.1758422851562,793.3699340820312
613,786.1171875,790.1465454101562,790.5494384765625,793.3699340820312
614,779.2673950195312,791.7582397460938,789.3406372070312,795.7875366210938
615,781.6849975585938,790.5494384765625,788.937744140625,800.6226806640625
616,787.3259887695312,789.7435913085938,790.1465454101562,796.996337890625
617,789.7435913085938,786.5201416015625,788.5347900390625,784.1025390625
618,791.7582397460938,793.3699340820312,789.3406372070312,780.879150390625
619,789.3406372070312,799.4139404296875,793.3699340820312,783.6996459960938
620,793.7728881835938,796.1904907226562,796.5933837890625,787.7289428710938
621,795.3846435546875,797.8021850585938,799.4139404296875,786.1171875
622,799.010986328125,799.8168334960938,800.6226806640625,791.3552856445312
623,801.4285888671875,792.5640869140625,796.996337890625,794.1758422851562
624,799.010986328125,790.1465454101562,796.5933837890625,790.5494384765625
625,794.5787353515625,784.5054931640625,792.967041015625,788.5347900390625
626,793.7728881835938,784.5054931640625,789.3406372070312,791.3552856445312
627,796.1904907226562,801.4285888671875,792.967041015625,801.025634765625
628,790.5494384765625,807.87548828125,797.8021850585938,793.7728881835938
629,785.7142944335938,798.6080322265625,789.3406372070312,788.1318969726562
630,787.3259887695312,790.1465454101562,786.5201416015625,790.952392578125
631,785.7142944335938,790.1465454101562,794.981689453125,790.1465454101562
632,789.7435913085938,788.5347900390625,799.010986328125,799.8168334960938
633,804.2490844726562,789.7435913085938,795.3846435546875,813.91943359375
634,803.4432373046875,806.6666870117188,788.1318969726562,805.4578857421875
635,795.7875366210938,814.7252807617188,782.893798828125,784.1025390625
636,786.1171875,803.8461303710938,788.1318969726562,778.05859375
637,782.4908447265625,792.1611938476562,786.923095703125,777.6557006835938
638,792.967041015625,795.3846435546875,783.6996459960938,781.2820434570312
639,802.2344360351562,803.4432373046875,791.7582397460938,796.996337890625
640,786.1171875,793.7728881835938,794.5787353515625,790.952392578125
641,770.4029541015625,793.3699340820312,794.5787353515625,778.8644409179688
642,780.0732421875,799.8168334960938,794.981689453125,780.879150390625
643,784.1025390625,796.996337890625,787.7289428710938,782.893798828125
644,779.6703491210938,799.4139404296875,786.5201416015625,784.1025390625
645,782.893798828125,800.2197875976562,791.7582397460938,786.1171875
646,781.6849975585938,796.5933837890625,796.1904907226562,794.1758422851562
647,778.4615478515625,793.7728881835938,799.010986328125,793.3699340820312
648,787.3259887695312,790.952392578125,797.3992919921875,788.5347900390625
649,790.5494384765625,788.1318969726562,796.996337890625,788.5347900390625
650,781.2820434570312,785.3113403320312,798.6080322265625,798.6080322265625
651,780.4761962890625,787.7289428710938,799.4139404296875,801.025634765625
652,780.879150390625,790.1465454101562,797.8021850585938,792.967041015625
653,777.2527465820312,787.7289428710938,793.3699340820312,794.981689453125
654,778.4615478515625,791.3552856445312,794.981689453125,801.4285888671875
655,775.2380981445312,795.3846435546875,798.6080322265625,799.8168334960938
656,777.2527465820312,792.5640869140625,799.010986328125,792.967041015625
657,780.4761962890625,788.5347900390625,797.8021850585938,792.1611938476562
658,781.2820434570312,789.7435913085938,799.010986328125,794.981689453125
659,790.5494384765625,786.923095703125,798.6080322265625,800.2197875976562
660,795.7875366210938,784.908447265625,799.8168334960938,805.4578857421875
661,797.8021850585938,797.3992919921875,802.2344360351562,811.90478515625
662,801.4285888671875,799.4139404296875,799.4139404296875,806.2637329101562
663,801.025634765625,791.3552856445312,796.5933837890625,795.7875366210938
664,799.8168334960938,790.5494384765625,792.5640869140625,796.5933837890625
665,801.025634765625,790.5494384765625,788.937744140625,802.2344360351562
666,796.1904907226562,792.1611938476562,788.937744140625,799.8168334960938
667,796.996337890625,793.7728881835938,786.923095703125,794.1758422851562
668,804.6520385742188,788.5347900390625,788.1318969726562,792.1611938476562
669,804.6520385742188,795.7875366210938,788.937744140625,791.3552856445312
670,800.6226806640625,801.8314819335938,788.937744140625,794.1758422851562
671,802.2344360351562,794.1758422851562,794.1758422851562,792.967041015625
672,799.4139404296875,794.5787353515625,795.3846435546875,794.5787353515625
673,791.3552856445312,796.5933837890625,791.3552856445312,792.1611938476562
674,789.3406372070312,795.7875366210938,790.5494384765625,788.5347900390625
675,787.3259887695312,792.967041015625,793.3699340820312,785.3113403320312
676,787.3259887695312,793.7728881835938,793.3699340820312,784.1025390625
677,789.7435913085938,791.7582397460938,787.3259887695312,795.7875366210938
678,782.087890625,787.3259887695312,787.3259887695312,783.6996459960938
679,784.1025390625,788.5347900390625,788.937744140625,777.6557006835938
680,788.937744140625,791.7582397460938,793.3699340820312,788.5347900390625
681,787.3259887695312,792.1611938476562,798.2051391601562,790.1465454101562
682,788.5347900390625,789.3406372070312,790.1465454101562,790.5494384765625
683,791.7582397460938,792.1611938476562,786.923095703125,794.981689453125
684,792.5640869140625,793.7728881835938,791.3552856445312,794.5787353515625
685,795.3846435546875,795.7875366210938,791.3552856445312,792.5640869140625
686,792.5640869140625,797.8021850585938,790.952392578125,791.3552856445312
687,795.3846435546875,796.996337890625,791.7582397460938,793.7728881835938
688,804.2490844726562,799.4139404296875,792.967041015625,801.4285888671875
689,803.040283203125,799.4139404296875,797.8021850585938,794.1758422851562
690,809.89013671875,797.3992919921875,795.3846435546875,789.7435913085938
691,809.89013671875,798.2051391601562,794.5787353515625,788.937744140625
692,802.2344360351562,793.7728881835938,795.3846435546875,788.1318969726562
693,807.069580078125,787.3259887695312,797.8021850585938,794.1758422851562
694,809.084228515625,793.3699340820312,797.3992919921875,796.996337890625
695,806.6666870117188,803.4432373046875,791.3552856445312,794.1758422851562
696,798.2051391601562,802.2344360351562,791.3552856445312,788.5347900390625
697,793.3699340820312,796.996337890625,796.1904907226562,789.7435913085938
698,799.4139404296875,796.1904907226562,796.5933837890625,795.7875366210938
699,803.4432373046875,800.2197875976562,797.3992919921875,801.8314819335938
700,801.025634765625,801.8314819335938,800.6226806640625,801.025634765625
701,796.5933837890625,801.025634765625,800.2197875976562,794.1758422851562
702,798.6080322265625,792.967041015625,794.5787353515625,799.4139404296875
703,797.3992919921875,790.952392578125,792.1611938476562,802.2344360351562
704,796.996337890625,798.2051391601562,796.1904907226562,799.8168334960938
705,799.8168334960938,795.7875366210938,794.1758422851562,802.2344360351562
706,799.4139404296875,788.5347900390625,792.1611938476562,803.040283203125
707,801.4285888671875,795.7875366210938,796.1904907226562,804.2490844726562
708,798.2051391601562,799.8168334960938,798.2051391601562,800.6226806640625
709,799.4139404296875,800.2197875976562,798.2051391601562,797.3992919921875
710,804.2490844726562,799.010986328125,800.2197875976562,799.010986328125
711,804.2490844726562,793.7728881835938,797.8021850585938,807.069580078125
712,794.981689453125,791.3552856445312,796.1904907226562,801.8314819335938
713,786.5201416015625,790.5494384765625,792.5640869140625,793.3699340820312
714,794.981689453125,792.967041015625,790.952392578125,799.4139404296875
715,801.8314819335938,790.952392578125,794.981689453125,798.2051391601562
716,796.996337890625,789.3406372070312,796.5933837890625,794.981689453125
717,796.1904907226562,791.3552856445312,793.7728881835938,799.010986328125
718,800.2197875976562,785.7142944335938,793.7728881835938,802.6373901367188
719,803.040283203125,785.3113403320312,793.7728881835938,803.040283203125
720,804.2490844726562,787.7289428710938,797.3992919921875,799.8168334960938
721,804.6520385742188,790.952392578125,798.6080322265625,794.5787353515625
722,798.6080322265625,791.7582397460938,796.5933837890625,793.3699340820312
723,796.5933837890625,790.952392578125,796.5933837890625,799.4139404296875
724,794.1758422851562,790.5494384765625,798.2051391601562,798.6080322265625
725,791.3552856445312,787.3259887695312,799.4139404296875,795.3846435546875
726,790.952392578125,794.981689453125,792.967041015625,797.8021850585938
727,787.3259887695312,793.7728881835938,785.7142944335938,797.3992919921875
728,784.1025390625,786.923095703125,789.3406372070312,791.7582397460938
729,790.1465454101562,791.7582397460938,792.5640869140625,792.5640869140625
730,793.3699340820312,795.3846435546875,794.1758422851562,794.5787353515625
731,796.1904907226562,794.1758422851562,796.5933837890625,791.7582397460938
732,796.996337890625,789.7435913085938,797.3992919921875,793.3699340820312
733,793.3699340820312,792.5640869140625,794.5787353515625,796.996337890625
734,796.1904907226562,793.3699340820312,790.5494384765625,807.87548828125
735,795.3846435546875,788.937744140625,792.5640869140625,807.4725341796875
736,796.996337890625,790.1465454101562,795.7875366210938,804.6520385742188
737,799.010986328125,790.1465454101562,792.967041015625,807.4725341796875
738,794.1758422851562,786.5201416015625,793.7728881835938,803.040283203125
739,795.3846435546875,791.3552856445312,794.5787353515625,797.8021850585938
740,795.7875366210938,794.981689453125,792.1611938476562,798.6080322265625
741,792.1611938476562,787.3259887695312,792.967041015625,790.5494384765625
742,789.3406372070312,788.5347900390625,790.952392578125,781.2820434570312
743,785.3113403320312,794.1758422851562,787.3259887695312,780.879150390625
744,784.908447265625,792.967041015625,791.3552856445312,786.923095703125
745,789.7435913085938,789.7435913085938,790.952392578125,786.5201416015625
746,788.5347900390625,789.7435913085938,788.5347900390625,786.5201416015625
747,779.6703491210938,788.937744140625,791.7582397460938,788.5347900390625
748,781.6849975585938,789.3406372070312,791.3552856445312,785.3113403320312
749,787.7289428710938,790.1465454101562,789.3406372070312,796.5933837890625
750,788.1318969726562,792.5640869140625,789.7435913085938,809.89013671875
751,789.3406372070312,793.7728881835938,798.6080322265625,794.1758422851562
752,786.5201416015625,793.3699340820312,801.8314819335938,788.937744140625
753,787.7289428710938,793.3699340820312,796.5933837890625,791.3552856445312
754,792.5640869140625,791.3552856445312,793.7728881835938,787.7289428710938
755,788.5347900390625,789.3406372070312,792.1611938476562,785.3113403320312
756,780.879150390625,783.6996459960938,790.5494384765625,785.7142944335938
757,783.2966918945312,788.1318969726562,791.7582397460938,791.7582397460938
758,785.3113403320312,794.1758422851562,797.8021850585938,795.3846435546875
759,780.4761962890625,790.952392578125,797.8021850585938,792.5640869140625
760,785.3113403320312,788.937744140625,795.3846435546875,790.5494384765625
761,784.5054931640625,789.7435913085938,794.1758422851562,788.1318969726562
762,784.908447265625,793.7728881835938,794.1758422851562,786.5201416015625
763,785.7142944335938,792.5640869140625,794.1758422851562,786.5201416015625
764,788.937744140625,789.7435913085938,793.7728881835938,787.7289428710938
765,794.1758422851562,788.1318969726562,792.1611938476562,789.7435913085938
766,791.3552856445312,789.3406372070312,792.1611938476562,786.1171875
767,791.3552856445312,793.3699340820312,794.981689453125,785.7142944335938
768,789.3406372070312,794.1758422851562,798.2051391601562,789.3406372070312
769,786.5201416015625,794.1758422851562,799.010986328125,793.7728881835938
770,788.937744140625,796.5933837890625,798.2051391601562,799.010986328125
771,792.5640869140625,804.6520385742188,797.8021850585938,793.3699340820312
772,795.3846435546875,801.4285888671875,797.3992919921875,795.7875366210938
773,796.996337890625,793.3699340820312,800.6226806640625,796.996337890625
774,801.4285888671875,801.025634765625,795.3846435546875,787.7289428710938
775,796.996337890625,803.040283203125,790.5494384765625,787.3259887695312
776,794.1758422851562,796.5933837890625,791.7582397460938,794.1758422851562
777,800.6226806640625,799.4139404296875,791.3552856445312,795.7875366210938
778,793.7728881835938,794.1758422851562,788.5347900390625,792.1611938476562
779,787.3259887695312,792.1611938476562,790.5494384765625,795.7875366210938
780,790.1465454101562,796.996337890625,792.5640869140625,800.6226806640625
781,791.7582397460938,796.1904907226562,791.3552856445312,802.2344360351562
782,788.1318969726562,794.981689453125,790.952392578125,798.6080322265625
783,782.087890625,781.2820434570312,792.5640869140625,791.3552856445312
784,781.2820434570312,778.4615478515625,790.1465454101562,792.5640869140625
785,784.1025390625,789.3406372070312,790.1465454101562,790.1465454101562
786,788.5347900390625,791.7582397460938,792.5640869140625,788.937744140625
787,796.996337890625,791.3552856445312,793.3699340820312,794.981689453125
788,794.5787353515625,780.879150390625,791.3552856445312,792.1611938476562
789,786.1171875,777.6557006835938,789.7435913085938,788.937744140625
790,791.3552856445312,790.1465454101562,795.7875366210938,790.1465454101562
791,802.2344360351562,795.3846435546875,800.2197875976562,788.5347900390625
792,803.040283203125,800.2197875976562,805.054931640625,786.1171875
793,801.4285888671875,800.2197875976562,802.6373901367188,788.937744140625
794,795.3846435546875,794.1758422851562,797.3992919921875,788.937744140625
795,786.923095703125,792.1611938476562,797.3992919921875,786.1171875
796,787.3259887695312,789.3406372070312,794.981689453125,786.923095703125
797,790.1465454101562,785.3113403320312,799.010986328125,784.5054931640625
798,784.908447265625,783.2966918945312,798.2051391601562,784.5054931640625
799,790.5494384765625,788.5347900390625,790.5494384765625,794.1758422851562
800,793.7728881835938,791.7582397460938,795.3846435546875,795.7875366210938
801,792.5640869140625,793.3699340820312,803.8461303710938,795.3846435546875
802,790.952392578125,798.2051391601562,797.8021850585938,795.7875366210938
803,788.937744140625,796.996337890625,793.3699340820312,794.1758422851562
804,791.7582397460938,791.3552856445312,792.1611938476562,794.981689453125
805,790.952392578125,791.7582397460938,794.1758422851562,794.5787353515625
806,790.952392578125,798.6080322265625,797.3992919921875,797.3992919921875
807,794.1758422851562,798.6080322265625,792.967041015625,802.2344360351562
808,792.5640869140625,796.5933837890625,793.7728881835938,800.6226806640625
809,797.3992919921875,797.8021850585938,792.1611938476562,803.040283203125
810,803.4432373046875,790.5494384765625,789.3406372070312,806.6666870117188
811,800.6226806640625,788.937744140625,796.5933837890625,800.6226806640625
812,798.6080322265625,789.7435913085938,795.3846435546875,794.981689453125
813,801.4285888671875,785.7142944335938,790.5494384765625,785.3113403320312
814,796.5933837890625,792.5640869140625,790.5494384765625,779.6703491210938
815,790.5494384765625,794.1758422851562,786.5201416015625,787.7289428710938
816,787.3259887695312,791.7582397460938,789.3406372070312,783.6996459960938
817,793.7728881835938,789.3406372070312,792.5640869140625,784.1025390625
818,802.6373901367188,789.7435913085938,790.5494384765625,799.010986328125
819,799.4139404296875,788.5347900390625,790.1465454101562,804.2490844726562
820,788.937744140625,794.1758422851562,795.7875366210938,797.3992919921875
821,790.5494384765625,796.1904907226562,799.8168334960938,802.6373901367188
822,796.5933837890625,790.5494384765625,800.2197875976562,802.6373901367188
823,800.2197875976562,797.3992919921875,797.8021850585938,794.1758422851562
824,798.6080322265625,797.8021850585938,793.7728881835938,790.952392578125
825,794.5787353515625,794.1758422851562,794.1758422851562,791.7582397460938
826,790.1465454101562,790.1465454101562,791.3552856445312,791.3552856445312
827,781.6849975585938,781.6849975585938,788.1318969726562,790.952392578125
828,784.1025390625,780.879150390625,791.3552856445312,796.5933837890625
829,787.7289428710938,782.893798828125,797.3992919921875,801.025634765625
830,788.937744140625,786.5201416015625,794.5787353515625,801.4285888671875
831,797.8021850585938,788.1318969726562,792.1611938476562,796.5933837890625
832,802.6373901367188,785.7142944335938,793.7728881835938,786.1171875
833,803.8461303710938,788.5347900390625,796.5933837890625,784.5054931640625
834,807.4725341796875,792.967041015625,794.1758422851562,790.952392578125
835,805.8607788085938,786.923095703125,796.1904907226562,788.1318969726562
836,801.8314819335938,785.3113403320312,794.5787353515625,783.6996459960938
837,807.069580078125,791.3552856445312,788.1318969726562,784.5054931640625
838,806.6666870117188,792.5640869140625,786.923095703125,783.2966918945312
839,801.025634765625,789.7435913085938,789.3406372070312,785.3113403320312
840,797.3992919921875,781.6849975585938,792.1611938476562,791.7582397460938
841,790.952392578125,781.6849975585938,793.7728881835938,793.7728881835938
842,788.5347900390625,783.6996459960938,796.1904907226562,790.952392578125
843,789.7435913085938,788.1318969726562,794.981689453125,782.893798828125
844,786.923095703125,792.967041015625,792.5640869140625,783.2966918945312
845,787.7289428710938,792.5640869140625,792.967041015625,790.5494384765625
846,793.7728881835938,790.952392578125,799.4139404296875,799.4139404296875
847,794.1758422851562,790.5494384765625,800.6226806640625,804.2490844726562
848,788.5347900390625,797.3992919921875,795.7875366210938,803.8461303710938
849,784.5054931640625,794.981689453125,788.937744140625,804.2490844726562
850,784.1025390625,794.5787353515625,791.3552856445312,804.2490844726562
851,785.7142944335938,800.2197875976562,800.6226806640625,801.025634765625
852,785.7142944335938,793.7728881835938,799.8168334960938,794.5787353515625
853,785.7142944335938,787.3259887695312,793.3699340820312,795.7875366210938
854,785.7142944335938,790.952392578125,793.3699340820312,794.5787353515625
855,792.1611938476562,797.3992919921875,793.3699340820312,790.5494384765625
856,793.7728881835938,796.5933837890625,789.3406372070312,790.5494384765625
857,789.7435913085938,793.7728881835938,786.1171875,799.4139404296875
858,789.7435913085938,798.2051391601562,788.1318969726562,800.2197875976562
859,792.1611938476562,799.8168334960938,790.952392578125,797.8021850585938
860,790.5494384765625,793.3699340820312,793.3699340820312,798.6080322265625
861,789.7435913085938,792.1611938476562,791.3552856445312,798.2051391601562
862,790.952392578125,794.5787353515625,788.5347900390625,793.3699340820312
863,796.5933837890625,794.981689453125,788.937744140625,791.3552856445312
864,796.996337890625,798.6080322265625,788.1318969726562,790.952392578125
865,796.1904907226562,801.8314819335938,790.5494384765625,792.967041015625
866,794.981689453125,796.5933837890625,794.5787353515625,788.937744140625
867,788.5347900390625,796.996337890625,792.967041015625,786.5201416015625
868,790.952392578125,801.025634765625,793.3699340820312,799.8168334960938
869,793.3699340820312,790.1465454101562,791.7582397460938,807.87548828125
870,792.967041015625,789.3406372070312,793.7728881835938,796.5933837890625
871,794.1758422851562,800.6226806640625,799.4139404296875,788.5347900390625
872,791.3552856445312,799.4139404296875,800.2197875976562,782.893798828125
873,786.5201416015625,790.1465454101562,794.5787353515625,780.0732421875
874,785.7142944335938,790.952392578125,790.5494384765625,785.7142944335938
875,789.7435913085938,795.7875366210938,793.7728881835938,790.5494384765625
876,788.1318969726562,797.3992919921875,799.010986328125,792.5640869140625
877,789.3406372070312,796.5933837890625,801.025634765625,790.5494384765625
878,790.952392578125,796.1904907226562,793.7728881835938,791.3552856445312
879,787.3259887695312,791.7582397460938,787.3259887695312,792.5640869140625
880,789.7435913085938,791.3552856445312,787.7289428710938,800.6226806640625
881,790.5494384765625,799.010986328125,792.967041015625,806.6666870117188
882,790.1465454101562,795.3846435546875,796.996337890625,801.4285888671875
883,790.952392578125,786.923095703125,794.981689453125,792.1611938476562
884,787.3259887695312,787.7289428710938,790.5494384765625,780.879150390625
885,788.5347900390625,792.5640869140625,791.3552856445312,781.6849975585938
886,791.7582397460938,792.967041015625,794.981689453125,789.3406372070312
887,791.7582397460938,792.1611938476562,793.7728881835938,787.7289428710938
888,793.7728881835938,789.7435913085938,792.967041015625,787.7289428710938
889,794.5787353515625,790.5494384765625,792.967041015625,784.5054931640625
890,794.1758422851562,790.5494384765625,791.3552856445312,779.2673950195312
891,799.4139404296875,788.937744140625,794.1758422851562,789.3406372070312
892,792.5640869140625,785.7142944335938,792.1611938476562,790.952392578125
893,786.923095703125,783.2966918945312,790.952392578125,784.1025390625
894,788.5347900390625,791.7582397460938,792.5640869140625,787.3259887695312
895,787.3259887695312,794.1758422851562,796.996337890625,790.952392578125
896,788.937744140625,795.3846435546875,798.2051391601562,790.5494384765625
897,793.3699340820312,791.7582397460938,797.3992919921875,794.5787353515625
898,796.1904907226562,790.952392578125,800.2197875976562,797.3992919921875
899,796.996337890625,794.981689453125,799.4139404296875,801.8314819335938
900,799.010986328125,795.7875366210938,797.8021850585938,801.4285888671875
901,796.1904907226562,790.952392578125,792.5640869140625,794.1758422851562
902,795.7875366210938,783.2966918945312,792.5640869140625,800.6226806640625
903,802.6373901367188,787.3259887695312,798.6080322265625,811.5018310546875
904,802.6373901367188,794.5787353515625,801.025634765625,806.6666870117188
905,806.6666870117188,795.3846435546875,802.6373901367188,798.2051391601562
906,806.2637329101562,796.5933837890625,800.2197875976562,800.6226806640625
907,798.2051391601562,796.1904907226562,795.7875366210938,807.87548828125
908,796.1904907226562,799.4139404296875,797.8021850585938,802.2344360351562
909,796.996337890625,801.8314819335938,797.3992919921875,798.2051391601562
910,794.5787353515625,793.7728881835938,796.5933837890625,797.8021850585938
911,791.3552856445312,782.893798828125,798.6080322265625,786.1171875
912,794.981689453125,784.5054931640625,803.4432373046875,787.7289428710938
913,794.5787353515625,790.1465454101562,801.4285888671875,790.952392578125
914,791.7582397460938,790.1465454101562,796.1904907226562,793.7728881835938
915,793.3699340820312,786.923095703125,794.1758422851562,798.6080322265625
916,787.3259887695312,785.7142944335938,797.8021850585938,791.7582397460938
917,782.893798828125,792.967041015625,796.996337890625,794.981689453125
918,786.5201416015625,793.7728881835938,796.1904907226562,800.6226806640625
919,791.3552856445312,794.1758422851562,800.6226806640625,799.8168334960938
920,795.7875366210938,794.1758422851562,802.6373901367188,801.4285888671875
921,793.3699340820312,790.5494384765625,795.7875366210938,798.2051391601562
922,788.937744140625,788.1318969726562,788.1318969726562,787.3259887695312
923,788.937744140625,778.8644409179688,788.5347900390625,778.8644409179688
924,790.1465454101562,780.0732421875,791.3552856445312,783.6996459960938
925,797.8021850585938,786.5201416015625,793.7728881835938,790.952392578125
926,803.040283203125,788.1318969726562,794.1758422851562,793.7728881835938
927,800.6226806640625,785.7142944335938,788.937744140625,793.7728881835938
928,801.4285888671875,782.893798828125,794.1758422851562,794.5787353515625
929,803.040283203125,788.5347900390625,802.2344360351562,792.967041015625
930,803.4432373046875,796.5933837890625,796.996337890625,789.3406372070312
931,799.010986328125,795.7875366210938,794.981689453125,789.7435913085938
932,799.4139404296875,792.5640869140625,797.3992919921875,792.967041015625
933,803.040283203125,794.5787353515625,801.8314819335938,794.5787353515625
934,796.5933837890625,796.1904907226562,804.6520385742188,796.5933837890625
935,794.1758422851562,799.4139404296875,801.025634765625,799.010986328125
936,797.8021850585938,795.7875366210938,801.4285888671875,804.6520385742188
937,796.996337890625,792.967041015625,800.2197875976562,797.3992919921875
938,789.7435913085938,793.7728881835938,794.981689453125,789.7435913085938
939,789.3406372070312,794.1758422851562,794.5787353515625,788.1318969726562
940,792.5640869140625,792.1611938476562,791.7582397460938,783.6996459960938
941,791.3552856445312,793.7728881835938,793.3699340820312,794.981689453125
942,789.3406372070312,795.3846435546875,797.8021850585938,797.8021850585938
943,793.3699340820312,791.7582397460938,796.1904907226562,791.3552856445312
944,796.5933837890625,792.967041015625,796.996337890625,799.4139404296875
945,794.5787353515625,792.967041015625,796.5933837890625,803.4432373046875
946,792.967041015625,786.923095703125,793.3699340820312,796.996337890625
947,793.3699340820312,786.5201416015625,796.5933837890625,786.1171875
948,795.3846435546875,794.981689453125,801.8314819335938,789.7435913085938
949,795.3846435546875,795.7875366210938,796.996337890625,798.6080322265625
950,796.996337890625,788.5347900390625,796.1904907226562,800.6226806640625
951,798.6080322265625,789.7435913085938,800.6226806640625,803.040283203125
952,797.8021850585938,793.3699340820312,803.040283203125,800.2197875976562
953,793.7728881835938,788.5347900390625,804.2490844726562,798.2051391601562
954,787.3259887695312,786.923095703125,800.2197875976562,790.5494384765625
955,787.7289428710938,793.7728881835938,794.981689453125,780.4761962890625
956,784.908447265625,790.952392578125,794.981689453125,770.0
957,778.4615478515625,783.6996459960938,792.967041015625,770.8058471679688
958,780.4761962890625,789.7435913085938,794.1758422851562,784.1025390625
959,784.1025390625,793.3699340820312,791.7582397460938,785.3113403320312
960,789.7435913085938,792.5640869140625,790.5494384765625,787.3259887695312
961,790.5494384765625,790.1465454101562,795.7875366210938,794.5787353515625
962,784.908447265625,787.3259887695312,799.8168334960938,801.025634765625
963,787.3259887695312,788.5347900390625,801.025634765625,799.4139404296875
964,789.7435913085938,792.5640869140625,795.3846435546875,799.010986328125
965,784.5054931640625,794.981689453125,794.1758422851562,800.2197875976562
966,781.2820434570312,792.967041015625,801.025634765625,788.937744140625
967,784.5054931640625,794.5787353515625,801.025634765625,784.5054931640625
968,784.1025390625,793.7728881835938,796.996337890625,784.1025390625
969,784.5054931640625,792.967041015625,798.6080322265625,786.923095703125
970,787.3259887695312,796.1904907226562,798.2051391601562,797.3992919921875
971,790.5494384765625,796.1904907226562,797.3992919921875,804.6520385742188
972,793.3699340820312,792.967041015625,793.3699340820312,802.2344360351562
973,794.981689453125,793.7728881835938,792.1611938476562,793.7728881835938
974,794.1758422851562,795.7875366210938,794.5787353515625,789.7435913085938
975,788.5347900390625,790.5494384765625,797.8021850585938,788.5347900390625
976,790.1465454101562,789.3406372070312,796.1904907226562,790.952392578125
977,790.5494384765625,797.3992919921875,795.3846435546875,794.981689453125
978,782.4908447265625,794.1758422851562,800.2197875976562,790.5494384765625
979,784.908447265625,790.952392578125,796.996337890625,786.923095703125
980,791.3552856445312,781.6849975585938,789.3406372070312,782.4908447265625
981,786.1171875,778.05859375,788.5347900390625,776.4468994140625
982,783.2966918945312,794.981689453125,792.5640869140625,776.8497924804688
983,788.937744140625,802.2344360351562,792.5640869140625,780.4761962890625
984,789.3406372070312,797.8021850585938,791.7582397460938,782.087890625
985,788.937744140625,796.996337890625,790.952392578125,791.7582397460938
986,787.3259887695312,793.7728881835938,791.3552856445312,796.5933837890625
987,788.937744140625,794.1758422851562,794.1758422851562,794.5787353515625
988,791.3552856445312,790.1465454101562,793.7728881835938,795.7875366210938
989,790.952392578125,790.5494384765625,794.981689453125,792.5640869140625
990,794.981689453125,790.5494384765625,796.1904907226562,788.937744140625
991,798.6080322265625,789.3406372070312,796.1904907226562,794.981689453125
992,801.025634765625,792.5640869140625,798.2051391601562,793.3699340820312
993,801.025634765625,795.7875366210938,795.3846435546875,788.937744140625
994,792.1611938476562,796.1904907226562,792.5640869140625,785.7142944335938
995,794.981689453125,789.7435913085938,791.3552856445312,793.3699340820312
996,794.981689453125,787.7289428710938,792.967041015625,798.2051391601562
997,789.3406372070312,790.952392578125,793.7728881835938,784.5054931640625
998,791.3552856445312,788.1318969726562,789.7435913085938,784.1025390625
999,788.937744140625,784.1025390625,787.7289428710938,791.7582397460938
1000,791.3552856445312,789.3406372070312,792.967041015625,786.5201416015625
1001,794.5787353515625,793.3699340820312,792.5640869140625,787.7289428710938
1002,795.3846435546875,790.1465454101562,786.1171875,792.1611938476562
1003,796.1904907226562,790.1465454101562,790.952392578125,792.5640869140625
1004,790.1465454101562,788.5347900390625,791.3552856445312,788.1318969726562
1005,785.3113403320312,788.937744140625,786.5201416015625,788.1318969726562
1006,780.0732421875,793.3699340820312,786.5201416015625,794.5787353515625
1007,778.8644409179688,792.5640869140625,788.1318969726562,794.5787353515625
1008,784.5054931640625,792.5640869140625,793.7728881835938,795.7875366210938
1009,784.908447265625,793.3699340820312,793.3699340820312,798.2051391601562
1010,789.3406372070312,794.981689453125,792.1611938476562,801.025634765625
1011,798.2051391601562,794.1758422851562,793.7728881835938,805.8607788085938
1012,799.4139404296875,797.8021850585938,789.7435913085938,792.1611938476562
1013,790.952392578125,796.1904907226562,787.3259887695312,783.6996459960938
1014,793.7728881835938,788.937744140625,789.7435913085938,788.937744140625
1015,798.2051391601562,788.5347900390625,787.3259887695312,780.4761962890625
1016,791.7582397460938,787.7289428710938,789.7435913085938,776.8497924804688
1017,794.1758422851562,792.5640869140625,788.937744140625,781.2820434570312
1018,792.5640869140625,797.8021850585938,785.7142944335938,782.087890625
1019,790.1465454101562,799.010986328125,792.967041015625,785.3113403320312
1020,794.5787353515625,797.3992919921875,795.3846435546875,791.3552856445312
1021,798.6080322265625,796.5933837890625,790.952392578125,797.3992919921875
1022,803.4432373046875,796.996337890625,788.937744140625,801.8314819335938
1023,803.8461303710938,801.025634765625,790.952392578125,798.2051391601562
1024,796.996337890625,801.025634765625,793.3699340820312,793.3699340820312
1025,798.6080322265625,796.996337890625,786.1171875,792.5640869140625
1026,804.2490844726562,793.3699340820312,782.893798828125,791.7582397460938
1027,805.054931640625,795.3846435546875,784.908447265625,791.3552856445312
1028,799.4139404296875,797.8021850585938,786.1171875,787.3259887695312
1029,796.996337890625,789.3406372070312,786.5201416015625,785.7142944335938
1030,799.010986328125,783.6996459960938,788.937744140625,786.5201416015625
1031,791.3552856445312,788.937744140625,790.5494384765625,789.7435913085938
1032,782.893798828125,794.5787353515625,788.937744140625,793.3699340820312
1033,787.3259887695312,790.1465454101562,785.3113403320312,797.3992919921875
1034,788.937744140625,786.923095703125,784.5054931640625,795.3846435546875
1035,782.087890625,789.3406372070312,785.3113403320312,788.5347900390625
1036,779.6703491210938,792.1611938476562,788.937744140625,787.3259887695312
1037,781.6849975585938,794.981689453125,793.7728881835938,790.952392578125
1038,785.7142944335938,796.5933837890625,787.3259887695312,794.1758422851562
1039,788.1318969726562,790.952392578125,785.7142944335938,786.5201416015625
1040,790.5494384765625,786.5201416015625,787.7289428710938,779.2673950195312
1041,791.7582397460938,785.3113403320312,783.6996459960938,783.6996459960938
1042,784.5054931640625,784.5054931640625,786.1171875,781.6849975585938
1043,785.7142944335938,788.5347900390625,789.7435913085938,783.6996459960938
1044,794.5787353515625,785.7142944335938,793.7728881835938,795.7875366210938
1045,794.5787353515625,789.7435913085938,794.1758422851562,799.010986328125
1046,798.2051391601562,797.8021850585938,790.952392578125,793.3699340820312
1047,798.2051391601562,789.7435913085938,792.5640869140625,792.5640869140625
1048,792.1611938476562,787.7289428710938,797.3992919921875,790.5494384765625
1049,794.981689453125,786.923095703125,797.8021850585938,804.6520385742188
1050,794.1758422851562,788.937744140625,796.1904907226562,803.4432373046875
1051,789.3406372070312,792.5640869140625,796.1904907226562,792.5640869140625
1052,792.967041015625,788.5347900390625,796.1904907226562,797.3992919921875
1053,796.5933837890625,787.7289428710938,794.981689453125,802.6373901367188
1054,794.1758422851562,786.1171875,794.981689453125,805.054931640625
1055,792.967041015625,786.1171875,798.2051391601562,801.8314819335938
1056,794.5787353515625,794.1758422851562,795.3846435546875,803.040283203125
1057,797.8021850585938,798.6080322265625,794.5787353515625,802.2344360351562
1058,795.3846435546875,800.6226806640625,797.8021850585938,795.3846435546875
1059,794.5787353515625,801.4285888671875,797.3992919921875,793.7728881835938
1060,795.3846435546875,799.010986328125,796.996337890625,799.8168334960938
1061,793.3699340820312,793.7728881835938,798.6080322265625,795.3846435546875
1062,790.5494384765625,789.7435913085938,801.4285888671875,786.923095703125
1063,788.5347900390625,788.937744140625,794.981689453125,781.2820434570312
1064,787.3259887695312,788.937744140625,790.952392578125,776.8497924804688
1065,784.5054931640625,789.3406372070312,796.5933837890625,780.879150390625
1066,788.937744140625,789.3406372070312,796.1904907226562,787.3259887695312
1067,787.7289428710938,782.087890625,793.3699340820312,784.1025390625
1068,784.5054931640625,782.087890625,796.1904907226562,785.3113403320312
1069,790.1465454101562,790.952392578125,796.5933837890625,795.7875366210938
1070,790.5494384765625,791.3552856445312,792.5640869140625,799.8168334960938
1071,786.5201416015625,789.7435913085938,793.3699340820312,793.7728881835938
1072,787.3259887695312,791.3552856445312,795.3846435546875,792.5640869140625
1073,788.937744140625,790.1465454101562,794.5787353515625,787.7289428710938
1074,788.1318969726562,788.5347900390625,792.5640869140625,783.2966918945312
1075,793.3699340820312,787.3259887695312,792.967041015625,789.3406372070312
1076,792.1611938476562,788.5347900390625,794.981689453125,794.5787353515625
1077,785.3113403320312,788.5347900390625,789.7435913085938,785.3113403320312
1078,786.923095703125,793.3699340820312,787.3259887695312,782.087890625
1079,792.5640869140625,795.7875366210938,789.7435913085938,784.1025390625
1080,794.981689453125,789.7435913085938,792.967041015625,787.3259887695312
1081,796.1904907226562,788.1318969726562,798.6080322265625,788.937744140625
1082,795.7875366210938,790.5494384765625,792.967041015625,788.937744140625
1083,793.3699340820312,792.5640869140625,788.937744140625,786.5201416015625
1084,793.7728881835938,794.5787353515625,790.1465454101562,779.6703491210938
1085,795.7875366210938,795.3846435546875,789.3406372070312,780.4761962890625
1086,793.3699340820312,799.010986328125,790.952392578125,783.2966918945312
1087,792.5640869140625,793.3699340820312,789.3406372070312,782.893798828125
1088,793.7728881835938,791.3552856445312,792.5640869140625,788.1318969726562
1089,793.3699340820312,798.2051391601562,796.5933837890625,788.5347900390625
1090,795.3846435546875,799.4139404296875,792.5640869140625,782.893798828125
1091,798.2051391601562,791.3552856445312,787.3259887695312,792.1611938476562
1092,797.8021850585938,789.7435913085938,786.923095703125,791.7582397460938
1093,799.4139404296875,793.3699340820312,790.1465454101562,786.923095703125
1094,794.981689453125,792.967041015625,791.3552856445312,788.5347900390625
1095,792.967041015625,790.5494384765625,790.5494384765625,793.7728881835938
1096,794.5787353515625,788.1318969726562,792.967041015625,795.7875366210938
1097,794.1758422851562,790.952392578125,791.7582397460938,790.5494384765625
1098,799.8168334960938,797.3992919921875,796.1904907226562,797.8021850585938
1099,799.8168334960938,793.7728881835938,795.3846435546875,794.5787353515625
1100,786.5201416015625,790.1465454101562,790.952392578125,788.1318969726562
1101,788.937744140625,796.1904907226562,798.2051391601562,798.2051391601562
1102,794.981689453125,797.3992919921875,792.5640869140625,795.3846435546875
1103,794.1758422851562,788.1318969726562,784.5054931640625,786.1171875
1104,795.7875366210938,785.3113403320312,793.7728881835938,792.5640869140625
1105,792.967041015625,788.5347900390625,795.3846435546875,797.8021850585938
1106,796.1904907226562,796.5933837890625,790.952392578125,798.6080322265625
1107,801.8314819335938,804.6520385742188,793.7728881835938,796.1904907226562
1108,802.6373901367188,797.8021850585938,792.1611938476562,785.7142944335938
1109,799.8168334960938,786.923095703125,790.5494384765625,782.893798828125
1110,798.6080322265625,786.5201416015625,786.923095703125,793.7728881835938
1111,797.3992919921875,782.893798828125,785.7142944335938,795.3846435546875
1112,794.5787353515625,787.3259887695312,790.1465454101562,788.937744140625
1113,794.5787353515625,795.7875366210938,791.7582397460938,790.5494384765625
1114,797.3992919921875,794.981689453125,793.3699340820312,790.1465454101562
1115,799.010986328125,794.1758422851562,796.1904907226562,791.7582397460938
1116,800.6226806640625,793.3699340820312,798.6080322265625,794.5787353515625
1117,796.5933837890625,798.6080322265625,798.2051391601562,792.1611938476562
1118,794.5787353515625,803.4432373046875,789.3406372070312,796.1904907226562
1119,792.967041015625,796.996337890625,786.5201416015625,792.1611938476562
1120,789.7435913085938,791.7582397460938,787.7289428710938,780.0732421875
1121,790.5494384765625,797.8021850585938,786.5201416015625,786.5201416015625
1122,784.5054931640625,797.3992919921875,784.5054931640625,788.1318969726562
1123,784.1025390625,789.3406372070312,787.3259887695312,782.4908447265625
1124,789.3406372070312,787.7289428710938,792.5640869140625,783.6996459960938
1125,784.1025390625,791.7582397460938,792.5640869140625,784.908447265625
1126,779.2673950195312,794.5787353515625,789.7435913085938,784.5054931640625
1127,782.4908447265625,796.996337890625,788.1318969726562,784.1025390625
1128,780.4761962890625,797.8021850585938,791.3552856445312,782.4908447265625
1129,784.5054931640625,791.7582397460938,791.3552856445312,786.1171875
1130,787.3259887695312,779.2673950195312,783.6996459960938,783.6996459960938
1131,785.7142944335938,777.6557006835938,784.1025390625,778.05859375
1132,785.3113403320312,791.3552856445312,794.5787353515625,784.908447265625
1133,788.5347900390625,796.5933837890625,794.1758422851562,793.7728881835938
1134,790.5494384765625,798.6080322265625,790.5494384765625,795.3846435546875
1135,790.5494384765625,801.4285888671875,796.1904907226562,791.7582397460938
1136,789.7435913085938,801.4285888671875,797.8021850585938,792.5640869140625
1137,791.7582397460938,799.8168334960938,795.3846435546875,793.7728881835938
1138,792.967041015625,796.5933837890625,794.981689453125,790.952392578125
1139,792.967041015625,792.5640869140625,792.967041015625,786.1171875
1140,789.3406372070312,788.1318969726562,791.7582397460938,785.3113403320312
1141,785.3113403320312,788.1318969726562,790.1465454101562,790.952392578125
1142,784.908447265625,789.7435913085938,791.7582397460938,793.3699340820312
1143,785.7142944335938,793.7728881835938,791.7582397460938,792.1611938476562
1144,784.1025390625,803.040283203125,789.7435913085938,791.7582397460938
1145,789.7435913085938,804.2490844726562,788.5347900390625,799.8168334960938
1146,792.967041015625,805.4578857421875,791.7582397460938,796.1904907226562
1147,783.2966918945312,807.87548828125,790.952392578125,784.1025390625
1148,776.4468994140625,801.8314819335938,785.3113403320312,785.3113403320312
1149,780.0732421875,797.8021850585938,790.5494384765625,789.7435913085938
1150,789.7435913085938,799.010986328125,796.5933837890625,792.5640869140625
1151,797.3992919921875,801.025634765625,798.2051391601562,794.1758422851562
1152,797.3992919921875,796.5933837890625,797.8021850585938,796.5933837890625
1153,795.7875366210938,789.3406372070312,793.3699340820312,799.010986328125
1154,793.7728881835938,784.908447265625,793.7728881835938,793.3699340820312
1155,793.7728881835938,796.5933837890625,797.3992919921875,797.3992919921875
1156,796.1904907226562,806.6666870117188,799.010986328125,800.6226806640625
1157,796.1904907226562,806.6666870117188,798.6080322265625,794.1758422851562
1158,794.5787353515625,802.2344360351562,794.5787353515625,793.7728881835938
1159,796.1904907226562,794.5787353515625,792.1611938476562,792.5640869140625
1160,799.010986328125,789.7435913085938,796.5933837890625,789.7435913085938
1161,798.6080322265625,792.1611938476562,798.6080322265625,793.7728881835938
1162,797.3992919921875,789.7435913085938,796.1904907226562,799.8168334960938
1163,796.1904907226562,786.5201416015625,800.2197875976562,801.025634765625
1164,796.5933837890625,788.1318969726562,795.3846435546875,806.6666870117188
1165,794.5787353515625,787.3259887695312,793.3699340820312,808.6813354492188
1166,796.5933837890625,788.937744140625,801.4285888671875,791.3552856445312
1167,794.5787353515625,788.1318969726562,803.8461303710938,788.5347900390625
1168,790.1465454101562,790.1465454101562,795.7875366210938,797.3992919921875
1169,788.5347900390625,794.981689453125,796.1904907226562,802.2344360351562
1170,792.1611938476562,790.1465454101562,799.4139404296875,811.5018310546875
1171,801.8314819335938,788.937744140625,790.1465454101562,812.7106323242188
1172,797.3992919921875,794.1758422851562,784.5054931640625,801.8314819335938
1173,785.7142944335938,796.996337890625,785.3113403320312,789.7435913085938
1174,785.3113403320312,801.8314819335938,785.3113403320312,785.7142944335938
1175,791.7582397460938,796.996337890625,790.1465454101562,791.7582397460938
1176,800.6226806640625,794.1758422851562,790.5494384765625,792.5640869140625
1177,801.4285888671875,797.3992919921875,786.5201416015625,786.1171875
1178,796.996337890625,799.4139404296875,787.7289428710938,778.8644409179688
1179,802.2344360351562,799.4139404296875,786.923095703125,783.6996459960938
1180,800.2197875976562,799.8168334960938,785.3113403320312,787.3259887695312
1181,796.1904907226562,801.025634765625,787.7289428710938,780.0732421875
1182,802.2344360351562,790.5494384765625,789.3406372070312,778.8644409179688
1183,801.8314819335938,782.087890625,785.3113403320312,790.952392578125
1184,796.996337890625,787.7289428710938,784.1025390625,795.3846435546875
1185,795.3846435546875,794.1758422851562,789.3406372070312,790.1465454101562
1186,789.3406372070312,795.3846435546875,789.7435913085938,792.1611938476562
1187,788.5347900390625,795.3846435546875,788.937744140625,794.1758422851562
1188,784.908447265625,790.952392578125,792.967041015625,784.5054931640625
1189,780.4761962890625,788.5347900390625,798.6080322265625,781.2820434570312
1190,787.7289428710938,787.7289428710938,800.6226806640625,789.7435913085938
1191,795.7875366210938,790.952392578125,799.4139404296875,802.2344360351562
1192,789.3406372070312,793.3699340820312,800.2197875976562,802.6373901367188
1193,782.087890625,786.5201416015625,801.8314819335938,793.7728881835938
1194,785.7142944335938,788.5347900390625,800.6226806640625,793.3699340820312
1195,791.3552856445312,794.5787353515625,800.6226806640625,795.7875366210938
1196,792.5640869140625,791.3552856445312,794.5787353515625,797.3992919921875
1197,793.3699340820312,793.7728881835938,790.952392578125,796.996337890625
1198,795.7875366210938,799.8168334960938,792.1611938476562,799.010986328125
1199,798.6080322265625,807.4725341796875,792.967041015625,792.967041015625
1200,797.8021850585938,805.4578857421875,796.1904907226562,786.923095703125
1201,796.1904907226562,794.5787353515625,797.8021850585938,789.3406372070312
1202,799.4139404296875,791.3552856445312,796.5933837890625,792.967041015625
1203,800.2197875976562,793.3699340820312,793.3699340820312,795.3846435546875
1204,792.5640869140625,794.1758422851562,794.1758422851562,793.3699340820312
1205,794.981689453125,794.1758422851562,796.5933837890625,793.7728881835938
1206,800.2197875976562,793.7728881835938,796.1904907226562,798.6080322265625
1207,796.5933837890625,790.952392578125,794.1758422851562,804.6520385742188
1208,794.981689453125,794.5787353515625,796.5933837890625,796.1904907226562
1209,797.8021850585938,801.025634765625,796.1904907226562,789.3406372070312
1210,796.5933837890625,799.010986328125,792.1611938476562,793.3699340820312
1211,799.8168334960938,790.1465454101562,791.7582397460938,796.996337890625
1212,800.6226806640625,787.3259887695312,791.7582397460938,802.6373901367188
1213,797.8021850585938,795.7875366210938,796.5933837890625,808.6813354492188
1214,792.5640869140625,799.010986328125,796.1904907226562,809.084228515625
1215,786.1171875,799.010986328125,792.5640869140625,803.040283203125
1216,790.1465454101562,800.6226806640625,796.996337890625,799.010986328125
1217,795.7875366210938,801.025634765625,799.8168334960938,798.6080322265625
1218,801.025634765625,795.7875366210938,796.1904907226562,794.1758422851562
1219,801.025634765625,795.3846435546875,799.8168334960938,786.1171875
1220,801.8314819335938,798.2051391601562,802.6373901367188,784.908447265625
1221,803.040283203125,796.1904907226562,791.3552856445312,789.3406372070312
1222,801.8314819335938,797.8021850585938,792.1611938476562,790.5494384765625
1223,802.6373901367188,797.8021850585938,795.3846435546875,790.5494384765625
1224,800.6226806640625,796.996337890625,790.952392578125,788.937744140625
1225,800.2197875976562,796.5933837890625,795.3846435546875,792.1611938476562
1226,796.996337890625,792.5640869140625,794.5787353515625,794.5787353515625
1227,793.3699340820312,792.1611938476562,795.7875366210938,794.5787353515625
1228,794.1758422851562,792.967041015625,796.996337890625,798.2051391601562
1229,793.3699340820312,787.7289428710938,793.3699340820312,802.6373901367188
1230,791.3552856445312,783.2966918945312,798.2051391601562,813.91943359375
1231,793.7728881835938,787.3259887695312,801.025634765625,813.113525390625
1232,801.025634765625,790.952392578125,796.996337890625,809.084228515625
1233,799.8168334960938,793.3699340820312,797.3992919921875,814.7252807617188
1234,795.3846435546875,794.5787353515625,799.4139404296875,813.91943359375
1235,799.8168334960938,796.1904907226562,800.2197875976562,810.6959838867188
1236,799.010986328125,797.8021850585938,801.025634765625,808.2783813476562
1237,799.4139404296875,796.1904907226562,802.2344360351562,809.084228515625
1238,796.1904907226562,794.1758422851562,798.6080322265625,804.6520385742188
1239,794.5787353515625,791.7582397460938,796.5933837890625,796.996337890625
1240,797.8021850585938,794.981689453125,795.3846435546875,794.5787353515625
1241,802.2344360351562,792.967041015625,796.5933837890625,796.5933837890625
1242,803.4432373046875,790.952392578125,799.4139404296875,793.3699340820312
1243,798.6080322265625,799.4139404296875,795.3846435546875,788.937744140625
1244,800.6226806640625,796.996337890625,790.952392578125,794.5787353515625
1245,795.7875366210938,790.5494384765625,790.5494384765625,789.3406372070312
1246,786.923095703125,801.025634765625,791.3552856445312,780.0732421875
1247,790.1465454101562,803.4432373046875,793.7728881835938,780.0732421875
1248,791.7582397460938,795.7875366210938,791.7582397460938,785.3113403320312
1249,787.3259887695312,788.937744140625,786.5201416015625,785.3113403320312
1250,783.6996459960938,787.3259887695312,790.952392578125,780.0732421875
1251,784.5054931640625,794.5787353515625,794.5787353515625,778.4615478515625
1252,791.3552856445312,795.3846435546875,790.5494384765625,782.087890625
1253,796.5933837890625,793.7728881835938,787.3259887695312,786.5201416015625
1254,790.1465454101562,790.5494384765625,788.937744140625,781.6849975585938
1255,784.908447265625,787.7289428710938,790.1465454101562,781.6849975585938
1256,788.1318969726562,785.3113403320312,788.937744140625,783.2966918945312
1257,788.937744140625,785.3113403320312,781.6849975585938,789.7435913085938
1258,797.3992919921875,789.7435913085938,787.3259887695312,788.5347900390625
1259,801.025634765625,798.6080322265625,794.1758422851562,793.3699340820312
1260,796.996337890625,798.2051391601562,788.5347900390625,795.3846435546875
1261,795.7875366210938,788.5347900390625,789.3406372070312,792.5640869140625
1262,792.967041015625,788.5347900390625,790.952392578125,788.5347900390625
1263,793.7728881835938,794.5787353515625,791.3552856445312,788.1318969726562
1264,796.1904907226562,794.5787353515625,793.7728881835938,797.8021850585938
1265,796.1904907226562,788.5347900390625,796.1904907226562,804.6520385742188
1266,788.5347900390625,790.5494384765625,796.5933837890625,788.1318969726562
1267,784.908447265625,792.967041015625,794.5787353515625,778.4615478515625
1268,785.3113403320312,791.7582397460938,796.996337890625,786.5201416015625
1269,780.4761962890625,792.5640869140625,796.996337890625,782.893798828125
1270,779.2673950195312,787.7289428710938,790.5494384765625,776.4468994140625
1271,786.923095703125,788.937744140625,793.3699340820312,785.7142944335938
1272,794.1758422851562,792.1611938476562,792.967041015625,784.1025390625
1273,788.1318969726562,785.7142944335938,787.3259887695312,776.0439453125
1274,782.4908447265625,778.8644409179688,788.5347900390625,782.4908447265625
1275,794.1758422851562,788.5347900390625,793.3699340820312,791.3552856445312
1276,801.8314819335938,801.4285888671875,788.937744140625,801.8314819335938
1277,794.1758422851562,800.2197875976562,787.3259887695312,796.1904907226562
1278,790.952392578125,797.8021850585938,788.5347900390625,787.7289428710938
1279,798.6080322265625,798.6080322265625,787.7289428710938,793.7728881835938
1280,799.4139404296875,798.6080322265625,794.981689453125,800.2197875976562
1281,795.3846435546875,794.5787353515625,799.8168334960938,798.6080322265625
1282,792.5640869140625,790.952392578125,794.1758422851562,788.937744140625
1283,795.3846435546875,790.1465454101562,788.937744140625,790.1465454101562
1284,801.025634765625,796.996337890625,790.5494384765625,794.5787353515625
1285,799.4139404296875,799.4139404296875,792.967041015625,791.3552856445312
1286,801.4285888671875,789.3406372070312,792.5640869140625,786.923095703125
1287,805.4578857421875,794.5787353515625,787.7289428710938,792.1611938476562
1288,800.2197875976562,800.2197875976562,788.937744140625,800.2197875976562
1289,792.1611938476562,795.3846435546875,790.5494384765625,794.1758422851562
1290,792.967041015625,794.981689453125,789.7435913085938,790.952392578125
1291,794.5787353515625,797.8021850585938,787.3259887695312,793.3699340820312
1292,792.967041015625,799.8168334960938,788.937744140625,794.1758422851562
1293,791.3552856445312,791.7582397460938,790.952392578125,787.3259887695312
1294,788.1318969726562,786.923095703125,787.7289428710938,782.087890625
1295,790.5494384765625,793.7728881835938,790.952392578125,789.3406372070312
1296,789.3406372070312,792.1611938476562,795.3846435546875,792.5640869140625
1297,788.1318969726562,787.3259887695312,798.2051391601562,791.7582397460938
1298,794.5787353515625,786.923095703125,795.3846435546875,796.1904907226562
1299,789.7435913085938,790.1465454101562,785.7142944335938,800.2197875976562
1300,783.2966918945312,793.3699340820312,789.7435913085938,794.5787353515625
1301,790.5494384765625,790.952392578125,793.7728881835938,790.5494384765625
1302,795.3846435546875,793.7728881835938,793.3699340820312,794.1758422851562
1303,793.3699340820312,796.996337890625,795.3846435546875,791.3552856445312
1304,796.1904907226562,796.5933837890625,794.981689453125,791.7582397460938
1305,797.8021850585938,791.7582397460938,794.5787353515625,795.7875366210938
1306,797.8021850585938,786.5201416015625,792.5640869140625,797.8021850585938
1307,801.025634765625,793.3699340820312,786.923095703125,798.6080322265625
1308,803.8461303710938,801.8314819335938,791.3552856445312,805.054931640625
1309,793.3699340820312,796.996337890625,802.6373901367188,804.2490844726562
1310,784.1025390625,792.1611938476562,794.981689453125,789.3406372070312
1311,792.1611938476562,791.7582397460938,792.5640869140625,783.2966918945312
1312,794.1758422851562,789.7435913085938,794.981689453125,778.8644409179688
1313,789.3406372070312,790.1465454101562,786.923095703125,777.2527465820312
1314,790.5494384765625,790.1465454101562,787.3259887695312,783.6996459960938
1315,790.5494384765625,785.3113403320312,790.1465454101562,785.3113403320312
1316,788.937744140625,783.2966918945312,786.923095703125,785.7142944335938
1317,794.1758422851562,783.2966918945312,786.5201416015625,788.937744140625
1318,795.3846435546875,783.6996459960938,789.7435913085938,795.3846435546875
1319,787.7289428710938,786.923095703125,785.3113403320312,795.3846435546875
1320,782.4908447265625,786.5201416015625,778.4615478515625,790.5494384765625
1321,784.5054931640625,787.7289428710938,782.893798828125,791.3552856445312
1322,790.1465454101562,788.1318969726562,786.5201416015625,806.2637329101562
1323,794.981689453125,786.923095703125,790.1465454101562,811.098876953125
1324,800.2197875976562,792.1611938476562,793.7728881835938,799.010986328125
1325,804.6520385742188,795.7875366210938,794.981689453125,796.5933837890625
1326,799.4139404296875,791.3552856445312,792.967041015625,798.6080322265625
1327,794.981689453125,787.7289428710938,791.3552856445312,798.6080322265625
1328,796.1904907226562,792.1611938476562,787.7289428710938,796.1904907226562
1329,797.3992919921875,791.3552856445312,785.7142944335938,791.3552856445312
1330,801.025634765625,792.1611938476562,794.981689453125,792.5640869140625
1331,794.5787353515625,792.1611938476562,794.5787353515625,793.3699340820312
1332,790.952392578125,789.7435913085938,790.952392578125,790.1465454101562
1333,792.1611938476562,788.1318969726562,788.5347900390625,793.7728881835938
1334,793.3699340820312,786.923095703125,790.5494384765625,799.8168334960938
1335,796.5933837890625,793.3699340820312,796.1904907226562,799.8168334960938
1336,803.4432373046875,794.981689453125,797.3992919921875,800.2197875976562
1337,801.8314819335938,792.1611938476562,794.1758422851562,799.010986328125
1338,791.3552856445312,794.981689453125,790.1465454101562,792.5640869140625
1339,792.967041015625,796.1904907226562,797.8021850585938,790.1465454101562
1340,793.3699340820312,792.967041015625,801.4285888671875,792.967041015625
1341,788.937744140625,792.967041015625,799.010986328125,789.7435913085938
1342,786.5201416015625,793.3699340820312,800.2197875976562,794.5787353515625
1343,789.7435913085938,790.5494384765625,801.025634765625,799.010986328125
1344,790.1465454101562,784.1025390625,800.6226806640625,792.967041015625
1345,789.7435913085938,790.952392578125,799.010986328125,794.5787353515625
1346,790.1465454101562,795.7875366210938,795.7875366210938,792.5640869140625
1347,784.5054931640625,794.981689453125,792.967041015625,787.7289428710938
1348,787.3259887695312,794.5787353515625,796.1904907226562,788.5347900390625
1349,792.967041015625,787.7289428710938,799.8168334960938,788.5347900390625
1350,790.1465454101562,786.923095703125,792.5640869140625,783.6996459960938
1351,787.3259887695312,794.5787353515625,791.3552856445312,786.923095703125
1352,790.5494384765625,797.3992919921875,798.2051391601562,791.7582397460938
1353,795.3846435546875,794.5787353515625,799.010986328125,791.3552856445312
1354,795.3846435546875,791.7582397460938,795.7875366210938,788.5347900390625
1355,797.8021850585938,794.981689453125,798.6080322265625,789.3406372070312
1356,800.6226806640625,794.5787353515625,795.7875366210938,798.2051391601562
1357,803.040283203125,788.5347900390625,790.1465454101562,806.6666870117188
1358,803.040283203125,787.7289428710938,795.3846435546875,800.6226806640625
1359,804.2490844726562,794.1758422851562,799.4139404296875,793.3699340820312
1360,809.89013671875,793.7728881835938,796.1904907226562,796.996337890625
1361,803.8461303710938,785.3113403320312,793.7728881835938,802.6373901367188
1362,797.3992919921875,791.7582397460938,799.010986328125,798.6080322265625
1363,796.5933837890625,799.4139404296875,797.3992919921875,790.1465454101562
1364,796.1904907226562,794.5787353515625,792.967041015625,783.6996459960938
1365,796.996337890625,791.3552856445312,798.2051391601562,790.5494384765625
1366,792.5640869140625,790.5494384765625,798.6080322265625,793.7728881835938
1367,792.5640869140625,790.5494384765625,793.7728881835938,790.952392578125
1368,801.4285888671875,791.3552856445312,796.996337890625,801.025634765625
1369,813.113525390625,793.3699340820312,799.010986328125,810.6959838867188
1370,806.2637329101562,797.8021850585938,799.8168334960938,803.8461303710938
1371,791.7582397460938,793.7728881835938,802.6373901367188,793.3699340820312
1372,796.996337890625,791.3552856445312,796.1904907226562,802.2344360351562
1373,800.6226806640625,795.3846435546875,792.967041015625,803.8461303710938
1374,801.4285888671875,790.5494384765625,797.8021850585938,794.1758422851562
1375,806.6666870117188,790.1465454101562,798.2051391601562,792.967041015625
1376,800.6226806640625,791.7582397460938,795.3846435546875,791.7582397460938
1377,796.996337890625,796.996337890625,797.8021850585938,786.923095703125
1378,799.010986328125,805.054931640625,799.8168334960938,787.3259887695312
1379,796.996337890625,801.4285888671875,799.010986328125,790.5494384765625
1380,803.4432373046875,796.996337890625,800.2197875976562,796.1904907226562
1381,802.2344360351562,796.996337890625,797.3992919921875,801.8314819335938
1382,794.981689453125,794.1758422851562,796.1904907226562,803.8461303710938
1383,800.6226806640625,797.3992919921875,792.1611938476562,807.87548828125
1384,801.025634765625,798.2051391601562,795.3846435546875,807.87548828125
1385,801.025634765625,801.8314819335938,799.8168334960938,795.3846435546875
1386,809.084228515625,806.2637329101562,799.8168334960938,792.1611938476562
1387,804.2490844726562,793.7728881835938,803.8461303710938,794.5787353515625
1388,796.5933837890625,789.3406372070312,803.4432373046875,788.5347900390625
1389,798.2051391601562,804.2490844726562,803.040283203125,787.3259887695312
1390,794.5787353515625,804.6520385742188,805.054931640625,792.1611938476562
1391,791.7582397460938,801.4285888671875,799.8168334960938,795.3846435546875
1392,788.937744140625,803.4432373046875,796.1904907226562,793.3699340820312
1393,788.937744140625,788.937744140625,801.4285888671875,790.1465454101562
1394,796.5933837890625,786.923095703125,801.4285888671875,796.996337890625
1395,796.5933837890625,791.7582397460938,796.5933837890625,806.2637329101562
1396,792.1611938476562,789.7435913085938,801.025634765625,801.8314819335938
1397,792.1611938476562,787.7289428710938,801.025634765625,795.7875366210938
1398,793.3699340820312,790.1465454101562,794.981689453125,789.3406372070312
1399,792.967041015625,790.5494384765625,797.8021850585938,787.7289428710938
1400,790.1465454101562,792.1611938476562,798.6080322265625,790.5494384765625
1401,785.7142944335938,793.3699340820312,793.7728881835938,788.937744140625
1402,790.952392578125,792.5640869140625,792.967041015625,790.1465454101562
1403,795.3846435546875,797.3992919921875,798.6080322265625,793.3699340820312
1404,790.952392578125,792.5640869140625,798.2051391601562,790.5494384765625
1405,792.1611938476562,790.5494384765625,796.1904907226562,787.3259887695312
1406,798.6080322265625,794.981689453125,798.2051391601562,790.5494384765625
1407,801.4285888671875,798.6080322265625,795.3846435546875,795.7875366210938
1408,792.5640869140625,801.8314819335938,792.5640869140625,788.5347900390625
1409,788.937744140625,800.6226806640625,794.5787353515625,782.893798828125
1410,787.3259887695312,796.5933837890625,793.3699340820312,785.3113403320312
1411,786.923095703125,794.981689453125,792.5640869140625,786.923095703125
1412,785.3113403320312,792.967041015625,796.5933837890625,796.996337890625
1413,787.7289428710938,791.3552856445312,795.7875366210938,801.4285888671875
1414,789.7435913085938,787.7289428710938,792.5640869140625,791.7582397460938
1415,787.3259887695312,790.1465454101562,793.3699340820312,784.1025390625
1416,790.952392578125,792.5640869140625,792.5640869140625,783.6996459960938
1417,798.2051391601562,794.981689453125,791.3552856445312,790.5494384765625
1418,803.8461303710938,799.4139404296875,794.981689453125,797.8021850585938
1419,803.4432373046875,794.981689453125,794.5787353515625,794.5787353515625
1420,797.8021850585938,788.1318969726562,794.5787353515625,791.3552856445312
1421,799.8168334960938,791.7582397460938,796.996337890625,796.996337890625
1422,802.6373901367188,793.3699340820312,796.996337890625,797.8021850585938
1423,799.4139404296875,793.7728881835938,797.8021850585938,795.3846435546875
1424,795.7875366210938,792.967041015625,790.1465454101562,796.5933837890625
1425,789.3406372070312,791.3552856445312,788.1318969726562,792.1611938476562
1426,793.3699340820312,796.5933837890625,792.5640869140625,790.5494384765625
1427,795.3846435546875,801.4285888671875,794.1758422851562,788.937744140625
1428,788.5347900390625,803.8461303710938,793.3699340820312,782.4908447265625
1429,790.5494384765625,802.2344360351562,792.967041015625,783.6996459960938
1430,791.7582397460938,796.5933837890625,791.7582397460938,778.8644409179688
1431,792.967041015625,795.3846435546875,790.952392578125,780.879150390625
1432,791.3552856445312,791.3552856445312,792.5640869140625,783.2966918945312
1433,783.2966918945312,788.1318969726562,792.1611938476562,777.6557006835938
1434,779.2673950195312,783.2966918945312,792.1611938476562,776.4468994140625
1435,780.0732421875,784.5054931640625,794.981689453125,779.2673950195312
1436,779.6703491210938,792.967041015625,790.1465454101562,783.6996459960938
1437,779.6703491210938,796.1904907226562,790.1465454101562,787.7289428710938
1438,786.923095703125,787.7289428710938,796.1904907226562,794.5787353515625
1439,785.7142944335938,781.6849975585938,794.5787353515625,791.3552856445312
1440,785.3113403320312,788.1318969726562,794.1758422851562,792.5640869140625
1441,786.923095703125,789.7435913085938,794.981689453125,788.937744140625
1442,788.937744140625,790.5494384765625,794.1758422851562,786.5201416015625
1443,787.7289428710938,791.7582397460938,794.5787353515625,788.5347900390625
1444,785.3113403320312,790.5494384765625,788.5347900390625,788.937744140625
1445,795.3846435546875,788.1318969726562,789.3406372070312,799.010986328125
1446,791.3552856445312,786.5201416015625,796.5933837890625,795.7875366210938
1447,786.923095703125,783.6996459960938,800.2197875976562,790.1465454101562
1448,791.7582397460938,783.2966918945312,798.6080322265625,794.981689453125
1449,789.7435913085938,787.7289428710938,792.967041015625,791.3552856445312
1450,790.1465454101562,793.7728881835938,792.1611938476562,787.3259887695312
1451,794.1758422851562,792.967041015625,793.3699340820312,786.5201416015625
1452,792.967041015625,792.5640869140625,794.1758422851562,784.908447265625
1453,792.5640869140625,797.3992919921875,793.7728881835938,782.087890625
1454,785.3113403320312,797.3992919921875,794.1758422851562,780.0732421875
1455,784.1025390625,792.5640869140625,796.996337890625,784.5054931640625
1456,792.1611938476562,790.1465454101562,797.3992919921875,785.7142944335938
1457,788.5347900390625,793.7728881835938,798.2051391601562,780.879150390625
1458,785.7142944335938,795.7875366210938,796.1904907226562,786.923095703125
1459,784.5054931640625,795.3846435546875,789.3406372070312,790.1465454101562
1460,778.8644409179688,792.5640869140625,784.1025390625,787.7289428710938
1461,774.4322509765625,790.5494384765625,786.923095703125,786.1171875
1462,777.2527465820312,794.1758422851562,788.1318969726562,783.2966918945312
1463,785.7142944335938,801.4285888671875,785.3113403320312,784.1025390625
1464,788.937744140625,798.6080322265625,782.893798828125,792.967041015625
1465,793.7728881835938,789.3406372070312,786.923095703125,794.1758422851562
1466,799.4139404296875,790.1465454101562,790.5494384765625,787.3259887695312
1467,799.4139404296875,799.4139404296875,792.967041015625,791.7582397460938
1468,795.3846435546875,799.4139404296875,790.5494384765625,799.8168334960938
1469,788.5347900390625,797.8021850585938,792.5640869140625,795.3846435546875
1470,786.5201416015625,796.5933837890625,792.967041015625,791.3552856445312
1471,786.923095703125,788.1318969726562,788.1318969726562,787.3259887695312
1472,794.1758422851562,787.3259887695312,790.5494384765625,785.3113403320312
1473,797.3992919921875,790.1465454101562,792.967041015625,788.937744140625
1474,792.1611938476562,790.952392578125,795.3846435546875,793.3699340820312
1475,791.3552856445312,788.1318969726562,793.3699340820312,795.3846435546875
1476,796.1904907226562,793.3699340820312,789.3406372070312,794.5787353515625
1477,798.6080322265625,799.4139404296875,794.981689453125,789.3406372070312
1478,794.1758422851562,797.3992919921875,796.5933837890625,787.7289428710938
1479,792.967041015625,798.2051391601562,795.3846435546875,785.7142944335938
1480,792.1611938476562,797.8021850585938,797.3992919921875,790.952392578125
1481,787.3259887695312,799.4139404296875,798.2051391601562,786.923095703125
1482,793.3699340820312,799.8168334960938,798.2051391601562,785.7142944335938
1483,797.3992919921875,795.3846435546875,799.8168334960938,790.952392578125
1484,791.3552856445312,792.967041015625,799.8168334960938,788.937744140625
1485,791.7582397460938,798.2051391601562,797.3992919921875,788.937744140625
1486,797.8021850585938,796.1904907226562,796.996337890625,790.5494384765625
1487,798.6080322265625,794.981689453125,797.3992919921875,796.996337890625
1488,796.5933837890625,795.7875366210938,801.4285888671875,799.4139404296875
1489,793.3699340820312,792.1611938476562,801.4285888671875,795.7875366210938
1490,790.5494384765625,802.6373901367188,799.010986328125,795.3846435546875
1491,795.3846435546875,806.2637329101562,794.1758422851562,801.025634765625
1492,802.2344360351562,798.2051391601562,795.3846435546875,803.8461303710938
1493,807.4725341796875,796.1904907226562,801.4285888671875,798.2051391601562
1494,805.8607788085938,795.3846435546875,798.2051391601562,798.6080322265625
1495,799.4139404296875,799.4139404296875,796.5933837890625,798.2051391601562
1496,799.4139404296875,800.6226806640625,797.8021850585938,799.8168334960938
1497,801.8314819335938,796.1904907226562,799.010986328125,802.2344360351562
1498,797.3992919921875,794.981689453125,799.4139404296875,796.996337890625
1499,793.3699340820312,791.7582397460938,794.5787353515625,800.6226806640625
1500,793.3699340820312,789.3406372070312,796.5933837890625,809.89013671875
1501,796.996337890625,790.952392578125,805.054931640625,814.7252807617188
1502,799.8168334960938,786.1171875,802.6373901367188,815.1282348632812
1503,799.8168334960938,791.3552856445312,799.4139404296875,805.4578857421875
1504,794.1758422851562,793.3699340820312,798.2051391601562,790.952392578125
1505,789.3406372070312,789.3406372070312,798.2051391601562,780.4761962890625
1506,792.5640869140625,789.7435913085938,797.3992919921875,782.4908447265625
1507,792.5640869140625,789.7435913085938,797.8021850585938,792.5640869140625
1508,790.952392578125,790.5494384765625,800.2197875976562,783.6996459960938
1509,793.7728881835938,793.7728881835938,801.4285888671875,784.5054931640625
1510,794.5787353515625,795.3846435546875,801.4285888671875,793.7728881835938
1511,791.7582397460938,793.7728881835938,798.6080322265625,792.5640869140625
1512,790.5494384765625,794.5787353515625,797.3992919921875,792.5640869140625
1513,792.1611938476562,790.952392578125,794.981689453125,793.7728881835938
1514,794.5787353515625,788.937744140625,794.5787353515625,792.5640869140625
1515,793.7728881835938,788.1318969726562,796.1904907226562,792.1611938476562
1516,787.7289428710938,785.7142944335938,796.1904907226562,796.5933837890625
1517,789.3406372070312,792.967041015625,795.7875366210938,796.1904907226562
1518,797.3992919921875,796.5933837890625,798.2051391601562,796.996337890625
1519,796.5933837890625,796.1904907226562,800.2197875976562,798.6080322265625
1520,792.5640869140625,797.3992919921875,796.1904907226562,796.996337890625
1521,793.7728881835938,795.7875366210938,792.1611938476562,794.1758422851562
1522,799.4139404296875,792.967041015625,792.967041015625,793.3699340820312
1523,799.4139404296875,790.952392578125,794.981689453125,795.7875366210938
1524,797.8021850585938,793.7728881835938,796.996337890625,796.5933837890625
1525,792.967041015625,789.3406372070312,796.996337890625,793.7728881835938
1526,786.923095703125,790.5494384765625,799.4139404296875,800.6226806640625
1527,790.1465454101562,797.3992919921875,803.040283203125,805.8607788085938
1528,789.3406372070312,790.1465454101562,800.2197875976562,799.8168334960938
1529,784.908447265625,789.3406372070312,796.1904907226562,800.2197875976562
1530,777.2527465820312,791.7582397460938,792.967041015625,793.7728881835938
1531,777.6557006835938,789.7435913085938,791.7582397460938,784.908447265625
1532,784.908447265625,794.1758422851562,792.1611938476562,786.1171875
1533,791.7582397460938,794.1758422851562,792.967041015625,788.5347900390625
1534,794.1758422851562,794.1758422851562,788.1318969726562,787.3259887695312
1535,787.7289428710938,794.1758422851562,784.908447265625,783.6996459960938
1536,789.3406372070312,790.952392578125,788.5347900390625,789.3406372070312
1537,796.5933837890625,790.1465454101562,786.1171875,804.6520385742188
1538,800.6226806640625,796.5933837890625,785.3113403320312,807.87548828125
1539,800.6226806640625,796.1904907226562,790.952392578125,796.1904907226562
1540,796.5933837890625,790.5494384765625,791.3552856445312,788.5347900390625
1541,794.981689453125,792.1611938476562,787.7289428710938,787.7289428710938
1542,793.3699340820312,792.5640869140625,789.7435913085938,782.087890625
1543,791.7582397460938,789.7435913085938,792.5640869140625,780.879150390625
1544,793.7728881835938,789.7435913085938,790.5494384765625,784.5054931640625
1545,793.7728881835938,793.7728881835938,791.3552856445312,786.5201416015625
1546,791.3552856445312,792.1611938476562,798.2051391601562,786.923095703125
1547,796.1904907226562,790.5494384765625,799.8168334960938,785.7142944335938
1548,799.010986328125,788.1318969726562,800.2197875976562,796.1904907226562
1549,793.3699340820312,781.6849975585938,799.8168334960938,797.8021850585938
1550,795.3846435546875,783.2966918945312,797.3992919921875,794.5787353515625
1551,795.3846435546875,788.1318969726562,798.6080322265625,796.996337890625
1552,794.5787353515625,788.937744140625,797.3992919921875,801.4285888671875
1553,794.981689453125,784.1025390625,796.5933837890625,805.8607788085938
1554,787.7289428710938,786.5201416015625,796.5933837890625,796.5933837890625
1555,784.5054931640625,796.5933837890625,790.1465454101562,791.3552856445312
1556,786.1171875,791.3552856445312,786.923095703125,791.3552856445312
1557,793.7728881835938,783.2966918945312,790.1465454101562,791.7582397460938
1558,795.7875366210938,791.7582397460938,793.3699340820312,794.981689453125
1559,794.981689453125,801.4285888671875,796.1904907226562,796.996337890625
1560,797.3992919921875,800.2197875976562,796.5933837890625,795.3846435546875
1561,789.3406372070312,792.5640869140625,794.5787353515625,783.6996459960938
1562,786.1171875,790.5494384765625,793.3699340820312,773.6264038085938
1563,790.5494384765625,796.5933837890625,794.1758422851562,775.6410522460938
1564,789.3406372070312,796.1904907226562,792.1611938476562,782.893798828125
1565,782.087890625,794.981689453125,790.952392578125,780.879150390625
1566,783.2966918945312,792.1611938476562,790.952392578125,784.908447265625
1567,788.1318969726562,795.3846435546875,793.7728881835938,796.1904907226562
1568,786.923095703125,797.8021850585938,794.1758422851562,796.996337890625
1569,787.7289428710938,790.5494384765625,789.7435913085938,790.1465454101562
1570,795.3846435546875,792.967041015625,793.3699340820312,792.967041015625
1571,795.3846435546875,793.3699340820312,799.4139404296875,801.4285888671875
1572,790.1465454101562,785.7142944335938,793.3699340820312,802.2344360351562
1573,788.5347900390625,787.7289428710938,792.1611938476562,802.2344360351562
1574,782.893798828125,793.7728881835938,795.7875366210938,796.5933837890625
1575,786.1171875,794.1758422851562,795.7875366210938,797.3992919921875
1576,790.1465454101562,793.3699340820312,792.5640869140625,805.8607788085938
1577,781.6849975585938,789.7435913085938,791.3552856445312,796.1904907226562
