timestamp,RAW_TP9,RAW_AF7,RAW_AF8,RAW_TP10
1,789.3406372070312,792.5640869140625,795.7875366210938,796.996337890625
2,790.5494384765625,792.967041015625,792.1611938476562,792.5640869140625
3,796.5933837890625,794.981689453125,792.967041015625,788.5347900390625
4,797.3992919921875,788.937744140625,792.1611938476562,790.1465454101562
5,795.3846435546875,786.5201416015625,790.1465454101562,793.7728881835938
6,802.2344360351562,793.3699340820312,795.7875366210938,801.4285888671875
7,801.025634765625,793.3699340820312,797.3992919921875,801.4285888671875
8,789.7435913085938,788.1318969726562,789.7435913085938,787.7289428710938
9,790.952392578125,785.7142944335938,788.5347900390625,787.3259887695312
10,794.981689453125,786.1171875,790.5494384765625,794.981689453125
11,794.981689453125,785.7142944335938,788.1318969726562,794.981689453125
12,795.3846435546875,785.7142944335938,790.1465454101562,795.3846435546875
13,786.923095703125,784.908447265625,790.952392578125,794.1758422851562
14,782.087890625,779.2673950195312,789.3406372070312,788.1318969726562
15,781.2820434570312,776.8497924804688,787.3259887695312,780.4761962890625
16,782.087890625,775.2380981445312,785.7142944335938,783.2966918945312
17,777.6557006835938,774.4322509765625,785.7142944335938,780.879150390625
18,777.6557006835938,778.4615478515625,788.1318969726562,776.4468994140625
19,782.4908447265625,783.6996459960938,789.7435913085938,778.8644409179688
20,787.3259887695312,788.1318969726562,792.1611938476562,785.7142944335938
21,793.3699340820312,790.1465454101562,794.981689453125,792.5640869140625
22,786.5201416015625,791.7582397460938,797.8021850585938,789.3406372070312
23,780.879150390625,792.967041015625,797.3992919921875,784.908447265625
24,784.1025390625,790.952392578125,794.1758422851562,780.0732421875
25,786.1171875,790.1465454101562,792.1611938476562,773.6264038085938
26,786.5201416015625,790.952392578125,792.1611938476562,777.6557006835938
27,788.1318969726562,790.5494384765625,789.3406372070312,784.1025390625
28,788.1318969726562,790.952392578125,786.1171875,780.879150390625
29,788.5347900390625,790.5494384765625,782.893798828125,776.8497924804688
30,790.952392578125,791.7582397460938,783.6996459960938,780.879150390625
31,792.5640869140625,794.1758422851562,789.3406372070312,790.5494384765625
32,794.1758422851562,790.952392578125,792.967041015625,794.981689453125
33,790.952392578125,791.7582397460938,793.7728881835938,792.1611938476562
34,787.7289428710938,789.7435913085938,792.5640869140625,784.1025390625
35,788.5347900390625,782.087890625,792.1611938476562,789.3406372070312
36,794.981689453125,786.1171875,792.1611938476562,796.1904907226562
37,796.996337890625,791.3552856445312,792.5640869140625,787.7289428710938
38,792.5640869140625,792.5640869140625,796.1904907226562,782.087890625
39,788.5347900390625,793.3699340820312,798.2051391601562,786.5201416015625
40,783.2966918945312,791.3552856445312,798.2051391601562,788.937744140625
41,781.2820434570312,784.908447265625,795.3846435546875,783.6996459960938
42,786.1171875,786.5201416015625,794.1758422851562,783.6996459960938
43,787.7289428710938,794.981689453125,795.3846435546875,791.7582397460938
44,784.1025390625,795.3846435546875,793.7728881835938,790.5494384765625
45,784.1025390625,787.3259887695312,796.5933837890625,782.893798828125
46,789.3406372070312,786.923095703125,802.6373901367188,781.2820434570312
47,792.5640869140625,790.1465454101562,798.2051391601562,780.0732421875
48,792.1611938476562,785.3113403320312,793.7728881835938,782.087890625
49,791.7582397460938,786.1171875,800.2197875976562,783.6996459960938
50,790.952392578125,785.3113403320312,794.1758422851562,780.4761962890625
51,795.7875366210938,787.3259887695312,792.1611938476562,783.6996459960938
52,803.4432373046875,795.3846435546875,794.5787353515625,788.937744140625
53,801.025634765625,793.3699340820312,792.1611938476562,783.2966918945312
54,791.3552856445312,787.7289428710938,790.5494384765625,779.6703491210938
55,788.5347900390625,786.5201416015625,787.7289428710938,782.087890625
56,789.7435913085938,790.1465454101562,790.1465454101562,779.6703491210938
57,783.2966918945312,791.7582397460938,792.5640869140625,783.2966918945312
58,783.6996459960938,789.3406372070312,791.3552856445312,785.3113403320312
59,790.5494384765625,790.952392578125,798.2051391601562,784.908447265625
60,786.5201416015625,792.1611938476562,800.2197875976562,785.7142944335938
61,786.1171875,785.7142944335938,799.010986328125,785.3113403320312
62,791.7582397460938,782.087890625,795.7875366210938,780.4761962890625
63,796.1904907226562,782.893798828125,790.952392578125,776.8497924804688
64,792.5640869140625,783.6996459960938,790.952392578125,780.879150390625
65,788.1318969726562,785.7142944335938,794.5787353515625,779.2673950195312
66,789.7435913085938,787.7289428710938,796.996337890625,787.3259887695312
67,787.3259887695312,787.7289428710938,796.996337890625,803.040283203125
68,782.087890625,790.5494384765625,796.1904907226562,794.5787353515625
69,779.6703491210938,790.952392578125,795.3846435546875,782.4908447265625
70,778.8644409179688,788.1318969726562,793.3699340820312,780.0732421875
71,782.4908447265625,788.1318969726562,790.5494384765625,779.2673950195312
72,784.908447265625,787.3259887695312,790.952392578125,778.4615478515625
73,790.1465454101562,790.1465454101562,792.1611938476562,785.3113403320312
74,790.952392578125,794.1758422851562,791.7582397460938,793.7728881835938
75,784.908447265625,796.5933837890625,795.3846435546875,794.1758422851562
76,786.5201416015625,799.8168334960938,794.5787353515625,791.3552856445312
77,792.5640869140625,795.7875366210938,792.1611938476562,793.3699340820312
78,790.1465454101562,793.7728881835938,789.7435913085938,794.981689453125
79,788.1318969726562,796.996337890625,787.3259887695312,788.5347900390625
80,786.5201416015625,792.1611938476562,786.923095703125,788.1318969726562
81,790.1465454101562,788.5347900390625,789.3406372070312,794.1758422851562
82,791.3552856445312,790.952392578125,790.952392578125,793.3699340820312
83,792.1611938476562,792.1611938476562,786.923095703125,782.087890625
84,793.3699340820312,796.1904907226562,783.6996459960938,775.2380981445312
85,781.2820434570312,797.3992919921875,782.087890625,777.6557006835938
86,774.029296875,794.1758422851562,781.2820434570312,778.4615478515625
87,773.6264038085938,794.1758422851562,785.7142944335938,776.4468994140625
88,778.05859375,792.1611938476562,787.3259887695312,774.4322509765625
89,785.7142944335938,788.937744140625,785.7142944335938,780.0732421875
90,782.4908447265625,789.7435913085938,787.3259887695312,785.7142944335938
91,774.8351440429688,791.7582397460938,791.7582397460938,784.1025390625
92,778.4615478515625,788.5347900390625,791.7582397460938,781.2820434570312
93,780.4761962890625,784.908447265625,792.967041015625,784.5054931640625
94,782.4908447265625,780.0732421875,803.4432373046875,793.7728881835938
95,788.5347900390625,784.908447265625,799.8168334960938,797.3992919921875
96,783.6996459960938,798.2051391601562,791.3552856445312,784.1025390625
97,769.1941528320312,798.6080322265625,789.3406372070312,767.9853515625
98,770.8058471679688,804.2490844726562,789.3406372070312,770.8058471679688
99,779.6703491210938,814.3223266601562,790.952392578125,772.8204956054688
100,774.4322509765625,813.5164794921875,781.6849975585938,764.7619018554688
101,767.5823974609375,820.7692260742188,780.0732421875,757.5091552734375
102,766.7765502929688,826.4102783203125,783.2966918945312,753.076904296875
103,772.0146484375,829.2307739257812,774.4322509765625,753.8828125
104,768.7911987304688,832.8571166992188,771.6116943359375,752.2710571289062
105,755.4945068359375,837.6923217773438,775.6410522460938,747.4359130859375
106,751.062255859375,856.6300659179688,777.2527465820312,739.3773193359375
107,738.1685180664062,858.6447143554688,774.029296875,718.4249267578125
108,732.930419921875,855.4212646484375,769.5970458984375,715.6043701171875
109,729.7069702148438,862.6740112304688,769.1941528320312,714.3956298828125
110,715.2014770507812,872.3442993164062,767.5823974609375,696.2637329101562
111,710.3662719726562,876.3735961914062,762.7472534179688,686.5933837890625
112,711.5750732421875,869.5238037109375,757.912109375,684.5787353515625
113,717.2161254882812,870.7326049804688,756.7033081054688,691.025634765625
114,716.00732421875,879.5970458984375,754.6886596679688,694.2490844726562
115,708.3516235351562,883.6264038085938,749.8534545898438,683.3699340820312
116,704.3223266601562,881.6116943359375,749.4505615234375,684.1758422851562
117,709.5604248046875,885.2380981445312,751.8681030273438,693.8461303710938
118,715.2014770507812,888.05859375,751.4652099609375,693.4432373046875
119,728.09521484375,882.0146484375,745.4212646484375,701.90478515625
120,733.3333129882812,879.1941528320312,737.7655639648438,705.5311279296875
121,735.3479614257812,878.3883056640625,737.7655639648438,712.7838745117188
122,751.062255859375,879.5970458984375,740.989013671875,730.915771484375
123,761.1355590820312,882.4176025390625,742.6007080078125,732.12451171875
124,771.2088012695312,879.1941528320312,745.8241577148438,738.974365234375
125,768.7911987304688,872.7472534179688,747.8388061523438,748.6447143554688
126,776.4468994140625,871.94140625,745.8241577148438,757.5091552734375
127,797.8021850585938,865.091552734375,741.3919677734375,768.7911987304688
128,801.025634765625,852.1978149414062,742.6007080078125,788.5347900390625
129,796.1904907226562,847.3626098632812,749.4505615234375,796.1904907226562
130,791.3552856445312,841.7216186523438,755.8974609375,781.2820434570312
131,804.6520385742188,834.4688720703125,755.4945068359375,794.1758422851562
132,823.99267578125,833.2600708007812,752.6740112304688,809.084228515625
133,826.8131713867188,831.6483764648438,754.2857055664062,813.113525390625
134,825.6043701171875,824.7985229492188,754.6886596679688,820.7692260742188
135,831.2454223632812,821.1721801757812,749.8534545898438,828.02197265625
136,834.06591796875,814.3223266601562,752.2710571289062,827.6190185546875
137,837.6923217773438,810.2930297851562,750.6593627929688,821.1721801757812
138,843.7362670898438,807.87548828125,748.2417602539062,823.99267578125
139,850.5860595703125,805.054931640625,751.062255859375,831.2454223632812
140,852.6007080078125,807.4725341796875,751.8681030273438,838.4981689453125
141,853.8095092773438,805.8607788085938,754.6886596679688,838.901123046875
142,854.2124633789062,803.040283203125,754.2857055664062,836.4835205078125
143,851.3919677734375,800.6226806640625,756.3003540039062,836.4835205078125
144,857.4359130859375,799.010986328125,758.7179565429688,839.3040161132812
145,859.047607421875,797.3992919921875,755.4945068359375,841.7216186523438
146,861.8681030273438,795.7875366210938,755.8974609375,853.003662109375
147,859.8534545898438,790.5494384765625,756.3003540039062,851.3919677734375
148,859.4505615234375,786.1171875,758.7179565429688,850.1831665039062
149,863.8828125,785.3113403320312,757.5091552734375,855.018310546875
150,869.9267578125,786.923095703125,757.106201171875,851.3919677734375
151,877.9853515625,786.1171875,765.1648559570312,849.3773193359375
152,873.9560546875,780.879150390625,765.970703125,853.8095092773438
153,865.8974609375,780.0732421875,763.1502075195312,860.6593627929688
154,870.3296508789062,778.4615478515625,766.7765502929688,863.076904296875
155,867.912109375,781.6849975585938,767.1795043945312,860.2564086914062
156,858.2417602539062,786.923095703125,765.970703125,855.018310546875
157,851.7948608398438,781.2820434570312,765.5677490234375,845.7509155273438
158,846.1538696289062,780.879150390625,766.3735961914062,842.930419921875
159,850.5860595703125,784.908447265625,767.1795043945312,850.1831665039062
160,846.5567626953125,785.7142944335938,765.970703125,847.7655639648438
161,840.915771484375,788.5347900390625,769.1941528320312,837.2893676757812
162,844.5421142578125,790.952392578125,770.0,838.4981689453125
163,842.5274658203125,787.3259887695312,765.970703125,840.10986328125
164,842.5274658203125,788.1318969726562,768.7911987304688,835.6776733398438
165,842.5274658203125,788.937744140625,770.8058471679688,838.901123046875
166,841.3186645507812,786.1171875,769.1941528320312,840.915771484375
167,841.3186645507812,784.1025390625,771.6116943359375,833.6630249023438
168,837.2893676757812,778.05859375,772.4176025390625,823.5897216796875
169,832.8571166992188,771.6116943359375,771.6116943359375,819.96337890625
170,830.8424682617188,768.7911987304688,771.2088012695312,817.94873046875
171,826.00732421875,770.0,770.4029541015625,817.94873046875
172,824.3956298828125,776.0439453125,769.5970458984375,817.5457763671875
173,826.00732421875,778.4615478515625,771.2088012695312,815.93408203125
174,830.03662109375,776.4468994140625,772.0146484375,819.5604248046875
175,831.2454223632812,781.2820434570312,773.6264038085938,819.96337890625
176,834.06591796875,784.908447265625,777.6557006835938,813.5164794921875
177,833.6630249023438,782.893798828125,778.8644409179688,806.6666870117188
178,819.5604248046875,779.6703491210938,777.6557006835938,806.6666870117188
179,812.7106323242188,779.6703491210938,780.4761962890625,809.89013671875
180,814.7252807617188,782.087890625,782.893798828125,815.1282348632812
181,813.113525390625,782.087890625,780.4761962890625,812.3076782226562
182,811.098876953125,783.2966918945312,778.8644409179688,810.6959838867188
183,808.6813354492188,782.893798828125,778.8644409179688,808.2783813476562
184,811.098876953125,786.5201416015625,776.0439453125,802.2344360351562
185,811.90478515625,792.5640869140625,776.0439453125,802.2344360351562
186,814.3223266601562,791.7582397460938,782.087890625,801.025634765625
187,813.91943359375,788.1318969726562,784.5054931640625,796.5933837890625
188,805.4578857421875,786.1171875,779.6703491210938,794.5787353515625
189,805.4578857421875,781.6849975585938,776.4468994140625,801.4285888671875
190,807.4725341796875,778.8644409179688,782.4908447265625,810.6959838867188
191,809.4871826171875,785.7142944335938,780.879150390625,809.89013671875
192,811.098876953125,788.1318969726562,780.0732421875,807.069580078125
193,809.084228515625,786.1171875,786.1171875,807.87548828125
194,811.098876953125,788.5347900390625,784.5054931640625,808.2783813476562
195,816.3369750976562,787.7289428710938,783.2966918945312,810.6959838867188
196,819.96337890625,786.923095703125,786.1171875,812.7106323242188
197,820.7692260742188,786.923095703125,786.923095703125,810.6959838867188
198,818.7545776367188,785.3113403320312,782.4908447265625,810.2930297851562
199,816.7399291992188,783.6996459960938,780.0732421875,811.5018310546875
200,817.1428833007812,780.4761962890625,786.923095703125,811.098876953125
201,815.5311279296875,775.6410522460938,786.923095703125,813.5164794921875
202,814.7252807617188,777.6557006835938,786.5201416015625,812.3076782226562
203,811.90478515625,776.8497924804688,788.1318969726562,805.8607788085938
204,810.2930297851562,780.879150390625,784.5054931640625,808.2783813476562
205,811.098876953125,786.5201416015625,780.879150390625,805.4578857421875
206,805.8607788085938,783.6996459960938,781.2820434570312,802.6373901367188
207,801.4285888671875,786.5201416015625,782.087890625,807.87548828125
208,793.3699340820312,790.1465454101562,784.1025390625,804.2490844726562
209,788.5347900390625,787.7289428710938,778.8644409179688,795.3846435546875
210,794.981689453125,791.3552856445312,772.4176025390625,790.5494384765625
211,803.8461303710938,791.3552856445312,773.6264038085938,791.3552856445312
212,805.8607788085938,790.1465454101562,773.6264038085938,792.1611938476562
213,792.5640869140625,788.1318969726562,770.0,788.5347900390625
214,786.5201416015625,779.6703491210938,770.8058471679688,786.923095703125
215,791.3552856445312,774.4322509765625,776.4468994140625,789.7435913085938
216,795.7875366210938,782.4908447265625,774.8351440429688,788.5347900390625
217,788.937744140625,786.5201416015625,774.029296875,785.7142944335938
218,775.6410522460938,782.893798828125,774.029296875,785.7142944335938
219,777.2527465820312,780.4761962890625,772.8204956054688,788.5347900390625
220,788.5347900390625,775.6410522460938,776.8497924804688,795.3846435546875
221,793.3699340820312,778.8644409179688,781.6849975585938,792.5640869140625
222,799.4139404296875,785.3113403320312,783.6996459960938,790.5494384765625
223,800.2197875976562,784.1025390625,785.7142944335938,790.5494384765625
224,791.3552856445312,782.087890625,785.7142944335938,791.7582397460938
225,794.1758422851562,780.4761962890625,784.908447265625,797.3992919921875
226,801.8314819335938,782.087890625,785.7142944335938,794.5787353515625
227,795.7875366210938,778.4615478515625,779.6703491210938,788.5347900390625
228,790.952392578125,775.2380981445312,776.0439453125,778.8644409179688
229,797.8021850585938,778.4615478515625,782.4908447265625,780.0732421875
230,803.4432373046875,779.6703491210938,783.2966918945312,786.1171875
231,801.8314819335938,782.4908447265625,783.6996459960938,784.1025390625
232,803.8461303710938,786.1171875,781.2820434570312,783.6996459960938
233,812.3076782226562,785.3113403320312,776.4468994140625,782.4908447265625
234,810.6959838867188,784.1025390625,778.8644409179688,782.087890625
235,802.2344360351562,779.2673950195312,776.4468994140625,787.7289428710938
236,799.4139404296875,775.2380981445312,776.0439453125,795.3846435546875
237,793.3699340820312,778.05859375,780.879150390625,789.7435913085938
238,789.7435913085938,778.8644409179688,782.4908447265625,779.6703491210938
239,785.3113403320312,775.2380981445312,780.879150390625,772.8204956054688
240,776.8497924804688,774.029296875,780.879150390625,774.029296875
241,777.2527465820312,785.7142944335938,782.087890625,781.2820434570312
242,774.4322509765625,788.1318969726562,782.087890625,784.908447265625
243,773.6264038085938,776.0439453125,782.893798828125,796.1904907226562
244,779.2673950195312,775.2380981445312,784.5054931640625,802.2344360351562
245,776.8497924804688,783.2966918945312,788.1318969726562,796.1904907226562
246,774.8351440429688,786.1171875,788.937744140625,796.996337890625
247,782.4908447265625,786.923095703125,784.5054931640625,803.4432373046875
248,788.5347900390625,792.967041015625,782.4908447265625,807.4725341796875
249,785.3113403320312,789.7435913085938,780.0732421875,802.6373901367188
250,779.2673950195312,789.3406372070312,775.2380981445312,797.8021850585938
251,782.4908447265625,794.5787353515625,772.8204956054688,799.8168334960938
252,789.7435913085938,788.5347900390625,774.029296875,796.5933837890625
253,794.981689453125,781.6849975585938,774.8351440429688,788.1318969726562
254,790.952392578125,787.7289428710938,774.029296875,783.6996459960938
255,796.1904907226562,791.7582397460938,774.8351440429688,780.879150390625
256,808.2783813476562,790.5494384765625,776.0439453125,785.3113403320312
257,806.6666870117188,783.6996459960938,773.2234497070312,787.7289428710938
258,795.3846435546875,776.4468994140625,770.8058471679688,786.923095703125
259,794.981689453125,782.4908447265625,771.2088012695312,786.923095703125
260,804.2490844726562,788.1318969726562,775.6410522460938,783.2966918945312
261,807.87548828125,786.923095703125,772.4176025390625,784.1025390625
262,807.87548828125,789.3406372070312,770.8058471679688,785.3113403320312
263,806.6666870117188,794.981689453125,778.05859375,785.3113403320312
264,800.6226806640625,795.3846435546875,778.8644409179688,782.893798828125
265,795.7875366210938,792.5640869140625,776.4468994140625,781.6849975585938
266,786.1171875,789.7435913085938,773.2234497070312,786.1171875
267,783.2966918945312,786.923095703125,773.2234497070312,791.3552856445312
268,787.3259887695312,785.3113403320312,777.2527465820312,797.3992919921875
269,787.3259887695312,786.5201416015625,778.4615478515625,799.010986328125
270,783.6996459960938,787.3259887695312,782.4908447265625,798.2051391601562
271,784.1025390625,791.3552856445312,785.3113403320312,799.4139404296875
272,786.5201416015625,792.967041015625,787.7289428710938,796.1904907226562
273,788.937744140625,788.937744140625,784.5054931640625,799.010986328125
274,791.7582397460938,786.5201416015625,785.3113403320312,799.8168334960938
275,790.952392578125,789.7435913085938,787.3259887695312,788.1318969726562
276,791.3552856445312,787.7289428710938,782.893798828125,783.2966918945312
277,795.7875366210938,785.3113403320312,782.087890625,788.1318969726562
278,800.2197875976562,792.967041015625,781.2820434570312,793.7728881835938
279,802.2344360351562,794.981689453125,782.893798828125,796.996337890625
280,811.90478515625,796.996337890625,786.923095703125,801.8314819335938
281,811.098876953125,797.3992919921875,783.6996459960938,801.8314819335938
282,803.4432373046875,787.7289428710938,775.2380981445312,794.5787353515625
283,805.4578857421875,790.952392578125,776.0439453125,788.5347900390625
284,805.4578857421875,803.4432373046875,775.6410522460938,785.7142944335938
285,800.6226806640625,802.6373901367188,774.029296875,789.3406372070312
286,790.1465454101562,803.040283203125,772.8204956054688,784.908447265625
287,784.908447265625,797.3992919921875,770.8058471679688,779.6703491210938
288,784.5054931640625,792.1611938476562,772.4176025390625,784.5054931640625
289,784.1025390625,790.5494384765625,767.9853515625,780.879150390625
290,783.6996459960938,790.1465454101562,767.5823974609375,782.893798828125
291,782.087890625,789.3406372070312,774.029296875,790.1465454101562
292,780.0732421875,784.5054931640625,772.4176025390625,792.5640869140625
293,781.2820434570312,784.908447265625,773.2234497070312,798.6080322265625
294,781.2820434570312,790.1465454101562,778.8644409179688,798.2051391601562
295,784.908447265625,790.1465454101562,780.4761962890625,794.1758422851562
296,794.5787353515625,784.1025390625,779.2673950195312,791.7582397460938
297,805.054931640625,787.3259887695312,779.2673950195312,795.3846435546875
298,808.6813354492188,794.5787353515625,778.4615478515625,800.2197875976562
299,802.6373901367188,792.1611938476562,781.2820434570312,800.2197875976562
300,801.8314819335938,792.967041015625,783.2966918945312,800.6226806640625
301,809.084228515625,796.1904907226562,780.4761962890625,795.7875366210938
302,810.6959838867188,791.3552856445312,782.087890625,795.7875366210938
303,803.4432373046875,792.967041015625,782.893798828125,799.4139404296875
304,796.1904907226562,791.7582397460938,779.6703491210938,796.5933837890625
305,790.952392578125,790.5494384765625,777.6557006835938,797.8021850585938
306,789.3406372070312,794.981689453125,780.4761962890625,797.3992919921875
307,792.1611938476562,790.952392578125,778.8644409179688,795.3846435546875
308,794.1758422851562,782.893798828125,775.6410522460938,794.981689453125
309,791.3552856445312,786.923095703125,776.4468994140625,789.3406372070312
310,790.1465454101562,792.1611938476562,780.4761962890625,783.2966918945312
311,789.7435913085938,791.3552856445312,779.2673950195312,783.2966918945312
312,788.5347900390625,793.7728881835938,772.8204956054688,785.3113403320312
313,790.952392578125,793.7728881835938,774.4322509765625,793.7728881835938
314,790.5494384765625,788.5347900390625,778.05859375,790.5494384765625
315,787.7289428710938,785.3113403320312,777.6557006835938,785.7142944335938
316,785.7142944335938,789.3406372070312,774.4322509765625,788.937744140625
317,784.908447265625,787.3259887695312,775.2380981445312,784.5054931640625
318,785.7142944335938,782.087890625,775.2380981445312,780.0732421875
319,788.1318969726562,784.5054931640625,772.4176025390625,778.8644409179688
320,792.1611938476562,785.3113403320312,773.2234497070312,783.2966918945312
321,796.5933837890625,786.5201416015625,773.6264038085938,784.1025390625
322,795.3846435546875,787.3259887695312,774.029296875,781.6849975585938
323,795.3846435546875,786.1171875,776.4468994140625,787.7289428710938
324,783.6996459960938,785.7142944335938,773.6264038085938,788.1318969726562
325,775.2380981445312,785.3113403320312,774.4322509765625,788.5347900390625
326,773.6264038085938,786.5201416015625,777.6557006835938,790.5494384765625
327,772.0146484375,784.908447265625,776.4468994140625,790.952392578125
328,780.0732421875,792.967041015625,777.6557006835938,796.5933837890625
329,786.1171875,795.7875366210938,780.0732421875,797.8021850585938
330,782.4908447265625,792.1611938476562,779.6703491210938,788.937744140625
331,783.2966918945312,793.3699340820312,778.4615478515625,788.5347900390625
332,789.7435913085938,791.3552856445312,778.4615478515625,786.923095703125
333,790.5494384765625,792.967041015625,772.8204956054688,786.5201416015625
334,784.908447265625,795.3846435546875,772.4176025390625,793.3699340820312
335,784.5054931640625,792.5640869140625,775.6410522460938,789.7435913085938
336,788.5347900390625,791.7582397460938,777.2527465820312,782.893798828125
337,791.7582397460938,794.5787353515625,778.4615478515625,784.1025390625
338,793.7728881835938,793.3699340820312,782.4908447265625,790.5494384765625
339,798.6080322265625,794.981689453125,786.923095703125,801.4285888671875
340,802.6373901367188,798.6080322265625,783.6996459960938,799.8168334960938
341,803.040283203125,792.967041015625,784.1025390625,786.1171875
342,798.2051391601562,790.1465454101562,779.2673950195312,783.6996459960938
343,796.1904907226562,789.3406372070312,778.4615478515625,791.3552856445312
344,800.2197875976562,788.937744140625,784.5054931640625,794.1758422851562
345,793.7728881835938,787.3259887695312,784.5054931640625,787.7289428710938
346,790.1465454101562,786.923095703125,784.1025390625,786.1171875
347,790.5494384765625,793.3699340820312,785.7142944335938,791.3552856445312
348,787.7289428710938,790.952392578125,784.1025390625,792.967041015625
349,778.4615478515625,786.1171875,782.893798828125,788.937744140625
350,780.0732421875,789.3406372070312,782.4908447265625,793.7728881835938
351,790.952392578125,791.7582397460938,782.4908447265625,799.4139404296875
352,791.3552856445312,794.5787353515625,785.3113403320312,793.3699340820312
353,792.1611938476562,795.3846435546875,789.3406372070312,790.5494384765625
354,785.7142944335938,789.7435913085938,784.1025390625,792.5640869140625
355,788.1318969726562,790.1465454101562,781.2820434570312,794.981689453125
356,792.1611938476562,787.7289428710938,783.2966918945312,784.908447265625
357,783.6996459960938,788.1318969726562,782.087890625,777.6557006835938
358,784.5054931640625,787.7289428710938,785.3113403320312,779.6703491210938
359,788.1318969726562,784.908447265625,786.5201416015625,780.879150390625
360,794.1758422851562,785.3113403320312,786.923095703125,786.923095703125
361,796.1904907226562,782.087890625,788.937744140625,787.3259887695312
362,792.1611938476562,786.5201416015625,790.1465454101562,789.7435913085938
363,794.5787353515625,792.1611938476562,788.5347900390625,796.996337890625
364,796.996337890625,788.1318969726562,784.1025390625,786.5201416015625
365,796.1904907226562,786.923095703125,779.2673950195312,782.087890625
366,792.5640869140625,788.937744140625,777.2527465820312,790.1465454101562
367,782.4908447265625,781.2820434570312,777.6557006835938,788.1318969726562
368,777.6557006835938,778.05859375,783.6996459960938,779.6703491210938
369,785.7142944335938,783.6996459960938,787.3259887695312,779.2673950195312
370,792.967041015625,786.923095703125,784.908447265625,785.7142944335938
371,796.996337890625,785.7142944335938,781.6849975585938,791.3552856445312
372,797.8021850585938,785.7142944335938,779.2673950195312,793.3699340820312
373,799.010986328125,789.7435913085938,777.6557006835938,794.5787353515625
374,797.8021850585938,790.5494384765625,776.0439453125,797.8021850585938
375,792.5640869140625,785.7142944335938,777.2527465820312,798.6080322265625
376,790.1465454101562,788.937744140625,779.2673950195312,792.1611938476562
377,788.1318969726562,791.3552856445312,782.893798828125,794.1758422851562
378,786.5201416015625,790.5494384765625,782.087890625,798.2051391601562
379,791.3552856445312,787.7289428710938,785.7142944335938,796.1904907226562
380,793.7728881835938,788.1318969726562,788.1318969726562,800.2197875976562
381,797.3992919921875,794.5787353515625,783.2966918945312,801.4285888671875
382,794.5787353515625,790.952392578125,782.4908447265625,794.5787353515625
383,784.5054931640625,777.6557006835938,782.4908447265625,784.908447265625
384,786.5201416015625,779.2673950195312,782.087890625,790.952392578125
385,792.1611938476562,788.937744140625,780.0732421875,791.7582397460938
386,789.7435913085938,791.3552856445312,778.8644409179688,784.908447265625
387,781.2820434570312,789.7435913085938,778.8644409179688,784.908447265625
388,782.4908447265625,791.3552856445312,778.4615478515625,788.1318969726562
389,796.1904907226562,794.5787353515625,782.087890625,794.981689453125
390,799.010986328125,790.952392578125,782.4908447265625,796.5933837890625
391,799.8168334960938,785.7142944335938,780.4761962890625,796.1904907226562
392,802.6373901367188,788.937744140625,782.893798828125,798.2051391601562
393,794.981689453125,790.5494384765625,785.3113403320312,796.996337890625
394,795.7875366210938,787.3259887695312,789.7435913085938,799.8168334960938
395,799.4139404296875,788.937744140625,787.7289428710938,803.040283203125
396,789.7435913085938,795.7875366210938,785.7142944335938,797.8021850585938
397,785.7142944335938,798.6080322265625,787.7289428710938,796.996337890625
398,786.1171875,797.8021850585938,788.5347900390625,794.5787353515625
399,789.3406372070312,797.3992919921875,789.3406372070312,792.5640869140625
400,799.010986328125,799.8168334960938,788.937744140625,801.4285888671875
401,803.040283203125,799.4139404296875,786.5201416015625,806.6666870117188
402,796.5933837890625,794.1758422851562,782.4908447265625,802.2344360351562
403,792.1611938476562,793.3699340820312,779.2673950195312,793.3699340820312
404,800.2197875976562,794.1758422851562,780.4761962890625,794.981689453125
405,803.040283203125,797.3992919921875,779.6703491210938,801.4285888671875
406,792.967041015625,797.8021850585938,773.6264038085938,787.3259887695312
407,788.937744140625,797.8021850585938,777.2527465820312,778.8644409179688
408,786.5201416015625,792.5640869140625,780.4761962890625,780.0732421875
409,780.879150390625,786.1171875,780.0732421875,780.879150390625
410,782.893798828125,788.1318969726562,784.1025390625,791.3552856445312
411,786.5201416015625,791.7582397460938,784.1025390625,787.3259887695312
412,787.7289428710938,791.7582397460938,781.2820434570312,778.05859375
413,792.967041015625,792.5640869140625,781.2820434570312,780.4761962890625
414,798.2051391601562,791.7582397460938,784.1025390625,780.879150390625
415,799.010986328125,792.1611938476562,781.6849975585938,777.6557006835938
416,803.040283203125,790.952392578125,783.6996459960938,785.7142944335938
417,793.7728881835938,789.7435913085938,788.1318969726562,782.4908447265625
418,777.6557006835938,790.5494384765625,784.5054931640625,774.8351440429688
419,784.1025390625,785.3113403320312,788.937744140625,785.3113403320312
420,790.5494384765625,786.923095703125,792.5640869140625,793.7728881835938
421,788.1318969726562,786.5201416015625,790.1465454101562,788.1318969726562
422,790.1465454101562,782.893798828125,785.3113403320312,783.6996459960938
423,791.3552856445312,788.937744140625,785.3113403320312,787.7289428710938
424,790.952392578125,790.1465454101562,786.923095703125,788.1318969726562
425,792.967041015625,787.3259887695312,785.7142944335938,789.3406372070312
426,799.010986328125,789.3406372070312,785.7142944335938,790.952392578125
427,800.6226806640625,788.937744140625,784.908447265625,791.7582397460938
428,796.996337890625,789.7435913085938,786.923095703125,794.1758422851562
429,795.3846435546875,788.1318969726562,788.1318969726562,792.5640869140625
430,793.7728881835938,786.923095703125,784.908447265625,790.1465454101562
431,794.981689453125,792.967041015625,784.908447265625,786.1171875
432,796.1904907226562,792.5640869140625,781.6849975585938,785.7142944335938
433,789.3406372070312,787.3259887695312,778.05859375,786.923095703125
434,789.7435913085938,789.3406372070312,782.087890625,786.923095703125
435,796.1904907226562,792.5640869140625,785.3113403320312,792.1611938476562
436,795.7875366210938,791.7582397460938,786.5201416015625,794.981689453125
437,793.3699340820312,793.7728881835938,786.923095703125,795.7875366210938
438,792.5640869140625,798.2051391601562,791.3552856445312,802.2344360351562
439,791.7582397460938,796.996337890625,793.3699340820312,806.2637329101562
440,789.7435913085938,797.8021850585938,788.1318969726562,801.025634765625
441,788.937744140625,796.5933837890625,786.923095703125,794.1758422851562
442,791.3552856445312,794.981689453125,784.908447265625,787.3259887695312
443,798.6080322265625,797.8021850585938,784.908447265625,789.7435913085938
444,799.010986328125,793.7728881835938,781.6849975585938,790.1465454101562
445,795.3846435546875,791.3552856445312,777.6557006835938,790.1465454101562
446,800.2197875976562,791.3552856445312,778.05859375,796.1904907226562
447,807.069580078125,792.1611938476562,777.6557006835938,795.7875366210938
448,806.6666870117188,790.5494384765625,786.923095703125,800.6226806640625
449,797.8021850585938,792.1611938476562,791.7582397460938,803.4432373046875
450,791.7582397460938,794.1758422851562,788.1318969726562,799.8168334960938
451,792.967041015625,794.5787353515625,784.5054931640625,806.6666870117188
452,792.5640869140625,794.5787353515625,784.1025390625,804.2490844726562
453,791.3552856445312,793.7728881835938,789.3406372070312,797.3992919921875
454,786.923095703125,792.967041015625,790.1465454101562,794.981689453125
455,784.908447265625,789.7435913085938,788.1318969726562,796.5933837890625
456,792.967041015625,790.1465454101562,785.3113403320312,797.3992919921875
457,795.7875366210938,791.7582397460938,782.893798828125,792.1611938476562
458,791.7582397460938,786.923095703125,783.6996459960938,791.3552856445312
459,788.5347900390625,784.908447265625,788.1318969726562,790.1465454101562
460,788.937744140625,789.3406372070312,788.937744140625,784.5054931640625
461,793.7728881835938,786.923095703125,785.7142944335938,780.0732421875
462,795.3846435546875,787.7289428710938,785.3113403320312,785.7142944335938
463,790.952392578125,790.5494384765625,785.3113403320312,786.5201416015625
464,788.1318969726562,788.937744140625,784.5054931640625,780.0732421875
465,792.5640869140625,778.8644409179688,781.2820434570312,780.0732421875
466,796.996337890625,778.05859375,786.1171875,788.1318969726562
467,797.3992919921875,785.3113403320312,793.7728881835938,789.7435913085938
468,796.996337890625,782.893798828125,790.1465454101562,781.2820434570312
469,794.1758422851562,777.6557006835938,784.5054931640625,780.4761962890625
470,789.7435913085938,780.0732421875,786.5201416015625,782.4908447265625
471,784.5054931640625,788.1318969726562,791.3552856445312,786.5201416015625
472,780.0732421875,790.952392578125,793.7728881835938,790.952392578125
473,781.6849975585938,788.937744140625,788.937744140625,792.1611938476562
474,785.3113403320312,789.7435913085938,784.5054931640625,786.5201416015625
475,782.4908447265625,790.5494384765625,787.3259887695312,778.8644409179688
476,782.893798828125,792.5640869140625,785.3113403320312,780.879150390625
477,782.4908447265625,794.5787353515625,778.05859375,788.5347900390625
478,780.4761962890625,791.3552856445312,776.0439453125,793.3699340820312
479,781.6849975585938,789.3406372070312,780.4761962890625,791.7582397460938
480,779.6703491210938,786.923095703125,782.087890625,786.5201416015625
481,783.2966918945312,787.7289428710938,777.2527465820312,782.4908447265625
482,789.3406372070312,790.952392578125,778.05859375,780.0732421875
483,793.3699340820312,788.5347900390625,783.2966918945312,784.5054931640625
484,791.7582397460938,787.7289428710938,780.879150390625,784.1025390625
485,786.923095703125,790.5494384765625,775.6410522460938,781.6849975585938
486,794.5787353515625,795.3846435546875,782.087890625,788.937744140625
487,801.8314819335938,794.981689453125,786.5201416015625,789.7435913085938
488,800.6226806640625,793.7728881835938,785.7142944335938,782.893798828125
489,803.8461303710938,795.3846435546875,785.7142944335938,784.1025390625
490,799.010986328125,792.5640869140625,786.923095703125,782.893798828125
491,792.5640869140625,787.7289428710938,785.3113403320312,781.2820434570312
492,797.3992919921875,783.6996459960938,782.893798828125,789.7435913085938
493,797.8021850585938,785.3113403320312,786.1171875,792.5640869140625
494,797.3992919921875,793.3699340820312,789.3406372070312,789.7435913085938
495,795.7875366210938,794.1758422851562,786.5201416015625,788.5347900390625
496,790.952392578125,784.5054931640625,786.923095703125,789.3406372070312
497,791.7582397460938,788.1318969726562,790.1465454101562,791.3552856445312
498,786.5201416015625,789.7435913085938,789.7435913085938,785.7142944335938
499,777.2527465820312,787.3259887695312,790.5494384765625,783.6996459960938
500,783.6996459960938,786.923095703125,791.7582397460938,792.5640869140625
501,788.937744140625,790.5494384765625,794.1758422851562,793.7728881835938
502,801.025634765625,794.981689453125,799.010986328125,792.1611938476562
503,807.87548828125,795.3846435546875,797.8021850585938,796.996337890625
504,804.6520385742188,799.8168334960938,793.7728881835938,800.2197875976562
505,809.89013671875,801.8314819335938,795.7875366210938,804.2490844726562
506,801.8314819335938,798.6080322265625,793.3699340820312,801.4285888671875
507,793.7728881835938,792.967041015625,792.5640869140625,796.5933837890625
508,794.1758422851562,789.3406372070312,791.7582397460938,790.5494384765625
509,797.3992919921875,791.7582397460938,790.952392578125,792.5640869140625
510,795.3846435546875,796.1904907226562,795.7875366210938,797.8021850585938
511,795.3846435546875,796.996337890625,794.5787353515625,798.2051391601562
512,801.4285888671875,796.5933837890625,791.7582397460938,801.8314819335938
513,795.3846435546875,793.7728881835938,789.7435913085938,798.2051391601562
514,803.040283203125,794.981689453125,792.1611938476562,798.6080322265625
515,805.4578857421875,794.5787353515625,794.5787353515625,801.8314819335938
516,799.8168334960938,788.5347900390625,795.7875366210938,800.6226806640625
517,805.4578857421875,790.952392578125,799.4139404296875,799.8168334960938
518,806.6666870117188,794.1758422851562,799.8168334960938,793.7728881835938
519,804.6520385742188,794.1758422851562,795.7875366210938,794.1758422851562
520,803.4432373046875,796.996337890625,795.7875366210938,796.1904907226562
521,801.025634765625,797.3992919921875,798.6080322265625,792.5640869140625
522,795.7875366210938,794.981689453125,796.5933837890625,790.5494384765625
523,786.1171875,792.1611938476562,789.7435913085938,789.7435913085938
524,783.6996459960938,788.5347900390625,789.7435913085938,792.967041015625
525,781.6849975585938,789.7435913085938,790.5494384765625,787.7289428710938
526,780.4761962890625,791.3552856445312,790.952392578125,789.3406372070312
527,781.2820434570312,790.5494384765625,792.5640869140625,792.967041015625
528,783.6996459960938,790.5494384765625,793.7728881835938,794.5787353515625
529,787.3259887695312,790.5494384765625,794.5787353515625,797.3992919921875
530,790.952392578125,789.3406372070312,795.7875366210938,786.5201416015625
531,794.1758422851562,787.3259887695312,800.2197875976562,780.4761962890625
532,797.8021850585938,786.5201416015625,802.6373901367188,786.923095703125
533,798.6080322265625,789.7435913085938,801.025634765625,789.7435913085938
534,794.1758422851562,794.981689453125,796.1904907226562,789.3406372070312
535,792.1611938476562,794.5787353515625,792.967041015625,799.8168334960938
536,789.3406372070312,795.7875366210938,796.5933837890625,804.2490844726562
537,794.1758422851562,797.3992919921875,796.996337890625,792.967041015625
538,801.4285888671875,794.5787353515625,792.967041015625,788.937744140625
539,806.2637329101562,791.3552856445312,794.5787353515625,788.5347900390625
540,805.8607788085938,793.7728881835938,791.3552856445312,784.5054931640625
541,797.8021850585938,792.5640869140625,794.981689453125,787.7289428710938
542,793.7728881835938,788.5347900390625,799.010986328125,791.3552856445312
543,793.7728881835938,785.7142944335938,799.8168334960938,788.937744140625
544,797.3992919921875,789.7435913085938,801.025634765625,796.5933837890625
545,794.1758422851562,789.7435913085938,796.5933837890625,791.7582397460938
546,794.981689453125,788.1318969726562,796.1904907226562,793.3699340820312
547,796.1904907226562,790.5494384765625,797.3992919921875,797.8021850585938
548,790.1465454101562,792.5640869140625,799.8168334960938,786.923095703125
549,790.1465454101562,792.5640869140625,796.1904907226562,786.5201416015625
550,787.3259887695312,792.5640869140625,790.5494384765625,782.893798828125
551,792.5640869140625,791.7582397460938,794.1758422851562,783.2966918945312
552,790.952392578125,787.3259887695312,796.1904907226562,788.5347900390625
553,786.923095703125,793.7728881835938,794.5787353515625,795.3846435546875
554,794.5787353515625,797.3992919921875,792.5640869140625,800.6226806640625
555,788.937744140625,794.981689453125,790.1465454101562,789.7435913085938
556,786.923095703125,793.3699340820312,793.3699340820312,784.908447265625
557,792.5640869140625,789.3406372070312,790.952392578125,788.937744140625
558,795.3846435546875,791.7582397460938,792.1611938476562,794.5787353515625
559,801.4285888671875,790.952392578125,794.981689453125,799.010986328125
560,799.4139404296875,792.5640869140625,792.5640869140625,795.7875366210938
561,795.7875366210938,788.937744140625,791.3552856445312,791.3552856445312
562,799.010986328125,784.1025390625,787.3259887695312,797.8021850585938
563,798.2051391601562,790.5494384765625,787.3259887695312,802.2344360351562
564,803.040283203125,790.1465454101562,790.1465454101562,794.981689453125
565,802.6373901367188,787.7289428710938,788.5347900390625,787.3259887695312
566,792.1611938476562,792.5640869140625,786.1171875,782.4908447265625
567,788.937744140625,791.7582397460938,788.5347900390625,782.087890625
568,790.952392578125,786.923095703125,789.7435913085938,782.893798828125
569,794.5787353515625,786.923095703125,790.1465454101562,788.5347900390625
570,797.3992919921875,788.937744140625,794.981689453125,791.7582397460938
571,799.8168334960938,788.937744140625,795.3846435546875,786.1171875
572,795.3846435546875,788.937744140625,793.3699340820312,786.923095703125
573,795.7875366210938,796.1904907226562,791.3552856445312,790.1465454101562
574,796.996337890625,794.981689453125,787.7289428710938,785.7142944335938
575,790.5494384765625,787.7289428710938,784.908447265625,778.8644409179688
576,790.952392578125,792.1611938476562,789.3406372070312,782.4908447265625
577,792.5640869140625,796.1904907226562,794.1758422851562,790.1465454101562
578,787.3259887695312,792.5640869140625,792.967041015625,791.3552856445312
579,789.3406372070312,792.1611938476562,792.5640869140625,789.3406372070312
580,792.967041015625,789.3406372070312,797.3992919921875,792.967041015625
581,790.1465454101562,786.1171875,797.3992919921875,792.5640869140625
582,790.5494384765625,792.5640869140625,792.967041015625,787.7289428710938
583,797.8021850585938,791.7582397460938,792.5640869140625,791.7582397460938
584,803.040283203125,789.7435913085938,790.5494384765625,796.996337890625
585,796.5933837890625,790.952392578125,790.952392578125,801.4285888671875
586,785.3113403320312,792.1611938476562,788.937744140625,799.8168334960938
587,781.6849975585938,788.5347900390625,784.5054931640625,790.5494384765625
588,781.2820434570312,786.5201416015625,782.087890625,786.5201416015625
589,789.7435913085938,791.3552856445312,784.5054931640625,786.923095703125
590,798.6080322265625,791.3552856445312,790.5494384765625,785.7142944335938
591,787.7289428710938,785.7142944335938,793.3699340820312,782.087890625
592,787.3259887695312,789.3406372070312,794.5787353515625,789.7435913085938
593,792.967041015625,800.2197875976562,798.2051391601562,796.996337890625
594,789.3406372070312,797.3992919921875,797.8021850585938,791.3552856445312
595,790.5494384765625,790.952392578125,799.010986328125,792.967041015625
596,790.1465454101562,794.981689453125,801.4285888671875,795.7875366210938
597,789.3406372070312,795.3846435546875,800.6226806640625,795.7875366210938
598,793.3699340820312,788.937744140625,795.7875366210938,782.4908447265625
599,794.1758422851562,788.937744140625,796.1904907226562,777.2527465820312
600,789.7435913085938,788.937744140625,791.3552856445312,784.5054931640625
601,792.5640869140625,790.952392578125,789.3406372070312,782.893798828125
602,794.981689453125,791.3552856445312,797.8021850585938,786.5201416015625
603,791.7582397460938,789.3406372070312,797.8021850585938,790.1465454101562
604,793.7728881835938,792.1611938476562,797.8021850585938,790.952392578125
605,796.1904907226562,789.7435913085938,794.981689453125,792.967041015625
606,796.5933837890625,789.3406372070312,790.5494384765625,790.952392578125
607,796.5933837890625,791.3552856445312,791.7582397460938,789.7435913085938
608,796.996337890625,785.7142944335938,794.5787353515625,797.3992919921875
609,791.7582397460938,780.0732421875,794.5787353515625,796.5933837890625
610,784.908447265625,783.2966918945312,793.7728881835938,791.7582397460938
611,785.3113403320312,789.7435913085938,796.5933837890625,792.1611938476562
612,780.4761962890625,792.1611938476562,796.5933837890625,786.923095703125
613,780.0732421875,791.3552856445312,794.981689453125,789.7435913085938
614,792.967041015625,792.5640869140625,792.1611938476562,787.7289428710938
615,793.3699340820312,795.3846435546875,790.952392578125,781.6849975585938
616,788.937744140625,796.996337890625,794.1758422851562,784.5054931640625
617,790.5494384765625,799.8168334960938,796.5933837890625,783.6996459960938
618,789.3406372070312,795.7875366210938,796.996337890625,782.087890625
619,788.937744140625,788.5347900390625,795.3846435546875,786.1171875
620,790.5494384765625,789.7435913085938,796.996337890625,794.5787353515625
621,790.952392578125,792.1611938476562,799.8168334960938,795.7875366210938
622,790.5494384765625,790.5494384765625,798.6080322265625,792.967041015625
623,788.5347900390625,786.5201416015625,795.3846435546875,786.5201416015625
624,794.1758422851562,787.3259887695312,794.1758422851562,788.937744140625
625,796.5933837890625,791.3552856445312,792.5640869140625,794.5787353515625
626,802.6373901367188,793.7728881835938,792.1611938476562,794.1758422851562
627,808.2783813476562,788.5347900390625,795.7875366210938,794.5787353515625
628,803.4432373046875,790.1465454101562,796.5933837890625,793.3699340820312
629,807.4725341796875,796.996337890625,795.7875366210938,793.3699340820312
630,811.5018310546875,796.1904907226562,794.981689453125,792.1611938476562
631,801.025634765625,791.7582397460938,793.3699340820312,796.1904907226562
632,793.7728881835938,795.7875366210938,790.5494384765625,796.1904907226562
633,791.7582397460938,798.6080322265625,792.5640869140625,791.3552856445312
634,790.5494384765625,793.7728881835938,794.981689453125,794.981689453125
635,789.7435913085938,793.3699340820312,790.5494384765625,797.8021850585938
636,790.952392578125,790.952392578125,787.3259887695312,795.3846435546875
637,794.1758422851562,791.7582397460938,789.3406372070312,793.3699340820312
638,790.5494384765625,789.7435913085938,785.3113403320312,791.3552856445312
639,789.3406372070312,790.1465454101562,784.5054931640625,792.5640869140625
640,796.996337890625,794.981689453125,787.7289428710938,792.967041015625
641,796.5933837890625,792.1611938476562,788.1318969726562,788.1318969726562
642,788.937744140625,790.5494384765625,786.923095703125,785.3113403320312
643,785.3113403320312,788.937744140625,786.923095703125,783.6996459960938
644,780.0732421875,786.1171875,786.923095703125,775.6410522460938
645,783.6996459960938,786.923095703125,787.7289428710938,781.6849975585938
646,786.1171875,782.087890625,792.5640869140625,792.967041015625
647,783.2966918945312,785.3113403320312,792.967041015625,789.7435913085938
648,786.1171875,784.908447265625,790.1465454101562,785.7142944335938
649,780.879150390625,780.0732421875,786.923095703125,782.893798828125
650,780.0732421875,788.5347900390625,786.923095703125,779.6703491210938
651,782.893798828125,792.1611938476562,787.7289428710938,781.6849975585938
652,783.6996459960938,792.967041015625,785.7142944335938,784.5054931640625
653,786.923095703125,795.3846435546875,788.937744140625,791.7582397460938
654,789.3406372070312,793.7728881835938,790.5494384765625,804.2490844726562
655,798.2051391601562,791.7582397460938,795.7875366210938,801.4285888671875
656,802.2344360351562,791.3552856445312,799.010986328125,790.952392578125
657,800.2197875976562,793.7728881835938,798.2051391601562,796.5933837890625
658,799.010986328125,792.967041015625,800.2197875976562,798.2051391601562
659,793.7728881835938,794.1758422851562,798.2051391601562,793.3699340820312
660,790.1465454101562,798.6080322265625,794.1758422851562,798.6080322265625
661,791.7582397460938,793.7728881835938,793.7728881835938,801.025634765625
662,793.7728881835938,788.5347900390625,797.8021850585938,798.6080322265625
663,787.7289428710938,792.5640869140625,801.4285888671875,789.7435913085938
664,784.5054931640625,796.996337890625,802.2344360351562,787.3259887695312
665,785.7142944335938,796.996337890625,801.4285888671875,791.3552856445312
666,784.5054931640625,791.7582397460938,796.996337890625,789.7435913085938
667,789.3406372070312,792.5640869140625,794.981689453125,788.1318969726562
668,795.7875366210938,796.996337890625,800.6226806640625,788.937744140625
669,789.3406372070312,795.3846435546875,797.3992919921875,788.1318969726562
670,786.5201416015625,792.5640869140625,795.7875366210938,788.1318969726562
671,794.1758422851562,794.1758422851562,794.1758422851562,789.7435913085938
672,795.3846435546875,792.1611938476562,791.7582397460938,791.7582397460938
673,793.3699340820312,789.7435913085938,791.7582397460938,791.7582397460938
674,795.7875366210938,788.5347900390625,792.967041015625,790.1465454101562
675,790.5494384765625,790.5494384765625,794.1758422851562,788.1318969726562
676,791.3552856445312,785.7142944335938,788.937744140625,792.5640869140625
677,800.2197875976562,788.1318969726562,793.3699340820312,803.4432373046875
678,799.8168334960938,797.3992919921875,795.7875366210938,799.8168334960938
679,793.7728881835938,794.1758422851562,794.5787353515625,794.5787353515625
680,790.952392578125,790.5494384765625,797.3992919921875,798.6080322265625
681,794.1758422851562,790.1465454101562,796.5933837890625,796.5933837890625
682,794.981689453125,787.7289428710938,796.5933837890625,794.981689453125
683,797.8021850585938,784.5054931640625,795.3846435546875,795.3846435546875
684,798.2051391601562,786.1171875,793.3699340820312,793.7728881835938
685,799.010986328125,791.7582397460938,796.1904907226562,794.5787353515625
686,804.2490844726562,796.5933837890625,803.4432373046875,801.025634765625
687,796.996337890625,792.5640869140625,803.040283203125,799.010986328125
688,786.923095703125,789.3406372070312,798.6080322265625,794.5787353515625
689,782.893798828125,788.937744140625,796.5933837890625,796.1904907226562
690,782.893798828125,788.5347900390625,790.5494384765625,792.5640869140625
691,782.893798828125,787.3259887695312,790.952392578125,787.7289428710938
692,781.6849975585938,784.908447265625,790.952392578125,790.5494384765625
693,776.8497924804688,787.3259887695312,785.7142944335938,788.5347900390625
694,773.6264038085938,787.3259887695312,792.5640869140625,780.0732421875
695,778.05859375,783.2966918945312,794.981689453125,781.6849975585938
696,779.2673950195312,788.937744140625,796.1904907226562,782.4908447265625
697,784.1025390625,795.3846435546875,797.3992919921875,782.893798828125
698,791.3552856445312,798.6080322265625,794.5787353515625,786.923095703125
699,781.6849975585938,795.7875366210938,796.5933837890625,787.3259887695312
700,774.4322509765625,790.952392578125,795.7875366210938,787.7289428710938
701,785.7142944335938,788.5347900390625,794.1758422851562,794.981689453125
702,794.981689453125,792.5640869140625,793.3699340820312,801.4285888671875
703,792.967041015625,791.3552856445312,789.7435913085938,792.967041015625
704,790.952392578125,788.1318969726562,790.5494384765625,786.923095703125
705,794.1758422851562,791.7582397460938,793.3699340820312,790.1465454101562
706,796.1904907226562,792.1611938476562,794.1758422851562,790.952392578125
707,799.4139404296875,791.3552856445312,797.3992919921875,789.3406372070312
708,804.2490844726562,796.996337890625,794.5787353515625,790.1465454101562
709,801.8314819335938,799.4139404296875,792.967041015625,791.3552856445312
710,794.5787353515625,797.8021850585938,799.010986328125,788.937744140625
711,792.967041015625,794.981689453125,802.6373901367188,787.3259887695312
712,797.8021850585938,790.5494384765625,806.6666870117188,798.2051391601562
713,801.8314819335938,790.5494384765625,803.4432373046875,799.010986328125
714,801.8314819335938,795.3846435546875,803.8461303710938,790.5494384765625
715,796.5933837890625,795.7875366210938,803.8461303710938,792.5640869140625
716,794.5787353515625,789.3406372070312,804.2490844726562,805.4578857421875
717,792.967041015625,790.5494384765625,807.069580078125,805.8607788085938
718,790.952392578125,796.1904907226562,803.8461303710938,796.996337890625
719,793.7728881835938,795.3846435546875,801.025634765625,802.6373901367188
720,796.1904907226562,791.3552856445312,800.6226806640625,806.6666870117188
721,799.4139404296875,790.5494384765625,804.6520385742188,800.2197875976562
722,798.6080322265625,791.3552856445312,801.8314819335938,794.5787353515625
723,796.996337890625,787.7289428710938,801.4285888671875,796.5933837890625
724,799.8168334960938,785.7142944335938,801.4285888671875,797.8021850585938
725,795.3846435546875,785.3113403320312,796.5933837890625,793.3699340820312
726,794.5787353515625,789.7435913085938,798.6080322265625,794.1758422851562
727,799.4139404296875,794.1758422851562,801.8314819335938,803.8461303710938
728,797.3992919921875,794.5787353515625,798.6080322265625,796.996337890625
729,796.996337890625,796.1904907226562,798.2051391601562,790.5494384765625
730,796.5933837890625,795.7875366210938,799.4139404296875,795.3846435546875
731,794.981689453125,793.7728881835938,799.010986328125,786.923095703125
732,799.4139404296875,792.967041015625,797.8021850585938,784.5054931640625
733,803.4432373046875,793.7728881835938,796.996337890625,787.7289428710938
734,802.2344360351562,794.5787353515625,795.7875366210938,790.1465454101562
735,792.5640869140625,797.3992919921875,797.8021850585938,791.3552856445312
736,783.2966918945312,794.5787353515625,799.4139404296875,786.1171875
737,784.5054931640625,790.5494384765625,796.996337890625,787.3259887695312
738,790.5494384765625,792.5640869140625,799.010986328125,797.3992919921875
739,794.5787353515625,795.7875366210938,798.2051391601562,801.4285888671875
740,790.952392578125,792.5640869140625,796.996337890625,788.5347900390625
741,792.1611938476562,790.952392578125,799.4139404296875,787.3259887695312
742,797.8021850585938,794.1758422851562,802.6373901367188,792.1611938476562
743,801.8314819335938,796.1904907226562,804.2490844726562,799.8168334960938
744,803.040283203125,798.2051391601562,800.6226806640625,806.2637329101562
745,801.025634765625,796.5933837890625,795.7875366210938,800.2197875976562
746,801.4285888671875,798.2051391601562,792.5640869140625,799.8168334960938
747,801.4285888671875,795.7875366210938,786.923095703125,795.7875366210938
748,794.981689453125,787.7289428710938,788.937744140625,784.908447265625
749,790.1465454101562,786.1171875,792.5640869140625,787.3259887695312
750,791.7582397460938,791.3552856445312,791.7582397460938,793.3699340820312
751,789.7435913085938,794.981689453125,794.5787353515625,792.1611938476562
752,782.4908447265625,793.3699340820312,794.1758422851562,786.5201416015625
753,783.2966918945312,795.7875366210938,793.3699340820312,789.7435913085938
754,788.1318969726562,795.3846435546875,795.3846435546875,793.7728881835938
755,789.3406372070312,795.3846435546875,797.8021850585938,790.5494384765625
756,790.1465454101562,794.981689453125,794.981689453125,786.5201416015625
757,793.7728881835938,792.1611938476562,789.7435913085938,790.1465454101562
758,799.010986328125,794.5787353515625,788.5347900390625,789.3406372070312
759,791.3552856445312,789.7435913085938,780.4761962890625,781.6849975585938
760,781.6849975585938,782.4908447265625,778.05859375,776.8497924804688
761,779.2673950195312,781.2820434570312,780.879150390625,776.0439453125
762,781.6849975585938,783.2966918945312,782.893798828125,782.893798828125
763,786.1171875,783.6996459960938,785.3113403320312,783.2966918945312
764,787.3259887695312,782.087890625,784.908447265625,775.6410522460938
765,792.5640869140625,787.3259887695312,787.7289428710938,776.8497924804688
766,787.3259887695312,789.3406372070312,786.923095703125,778.8644409179688
767,784.1025390625,788.1318969726562,786.923095703125,778.05859375
768,788.5347900390625,790.952392578125,789.7435913085938,780.879150390625
769,788.5347900390625,792.5640869140625,788.5347900390625,776.8497924804688
770,786.923095703125,787.7289428710938,788.5347900390625,774.4322509765625
771,782.087890625,788.937744140625,790.952392578125,778.4615478515625
772,783.6996459960938,791.3552856445312,789.3406372070312,783.2966918945312
773,798.2051391601562,789.3406372070312,789.7435913085938,796.5933837890625
774,798.6080322265625,792.5640869140625,794.981689453125,798.2051391601562
775,785.7142944335938,797.3992919921875,795.3846435546875,785.7142944335938
776,784.1025390625,803.040283203125,796.1904907226562,783.6996459960938
777,787.7289428710938,798.6080322265625,796.5933837890625,789.3406372070312
778,786.1171875,794.5787353515625,793.3699340820312,786.5201416015625
779,792.1611938476562,794.1758422851562,792.5640869140625,784.1025390625
780,790.5494384765625,791.7582397460938,790.952392578125,783.2966918945312
781,789.3406372070312,791.3552856445312,792.5640869140625,782.893798828125
782,788.5347900390625,793.3699340820312,796.996337890625,786.1171875
783,787.3259887695312,793.3699340820312,794.1758422851562,781.2820434570312
784,795.7875366210938,792.5640869140625,794.981689453125,784.5054931640625
785,799.8168334960938,796.996337890625,794.981689453125,789.3406372070312
786,795.7875366210938,794.981689453125,790.952392578125,782.893798828125
787,789.7435913085938,789.7435913085938,790.1465454101562,777.6557006835938
788,786.5201416015625,786.923095703125,787.7289428710938,784.5054931640625
789,788.937744140625,788.1318969726562,787.3259887695312,792.5640869140625
790,789.7435913085938,786.1171875,786.1171875,781.2820434570312
791,786.923095703125,781.2820434570312,786.1171875,773.6264038085938
792,780.0732421875,781.6849975585938,790.1465454101562,775.2380981445312
793,778.05859375,783.6996459960938,789.7435913085938,770.4029541015625
794,780.0732421875,788.1318969726562,792.1611938476562,773.2234497070312
795,778.4615478515625,786.923095703125,796.1904907226562,778.05859375
796,776.4468994140625,784.1025390625,790.1465454101562,775.6410522460938
797,773.2234497070312,787.7289428710938,786.5201416015625,778.8644409179688
798,769.5970458984375,785.7142944335938,790.952392578125,780.879150390625
799,772.4176025390625,780.4761962890625,794.981689453125,778.05859375
800,783.6996459960938,784.1025390625,797.3992919921875,788.5347900390625
801,786.1171875,792.1611938476562,798.2051391601562,789.7435913085938
802,784.5054931640625,793.7728881835938,796.1904907226562,781.2820434570312
803,788.937744140625,794.5787353515625,794.5787353515625,791.7582397460938
804,796.5933837890625,795.3846435546875,799.010986328125,803.8461303710938
805,802.6373901367188,795.7875366210938,799.8168334960938,797.8021850585938
806,801.4285888671875,794.1758422851562,790.5494384765625,788.5347900390625
807,796.5933837890625,788.937744140625,782.4908447265625,788.937744140625
808,794.981689453125,784.1025390625,782.893798828125,789.3406372070312
809,801.025634765625,782.087890625,784.908447265625,788.937744140625
810,798.6080322265625,782.4908447265625,788.5347900390625,780.0732421875
811,798.2051391601562,785.3113403320312,790.1465454101562,785.3113403320312
812,796.996337890625,789.7435913085938,785.3113403320312,793.7728881835938
813,794.5787353515625,780.879150390625,786.923095703125,783.6996459960938
814,800.6226806640625,782.4908447265625,789.7435913085938,785.7142944335938
815,791.7582397460938,791.7582397460938,790.1465454101562,792.967041015625
816,781.6849975585938,794.1758422851562,791.7582397460938,789.7435913085938
817,776.8497924804688,791.3552856445312,794.981689453125,780.0732421875
818,777.6557006835938,790.952392578125,795.7875366210938,783.2966918945312
819,780.0732421875,792.5640869140625,792.1611938476562,789.7435913085938
820,784.908447265625,789.7435913085938,794.1758422851562,790.1465454101562
821,791.7582397460938,790.1465454101562,796.5933837890625,790.952392578125
822,788.1318969726562,787.7289428710938,796.5933837890625,788.5347900390625
823,787.7289428710938,790.952392578125,797.8021850585938,790.952392578125
824,788.1318969726562,794.1758422851562,796.1904907226562,789.7435913085938
825,781.2820434570312,791.7582397460938,794.1758422851562,781.6849975585938
826,780.4761962890625,790.1465454101562,794.5787353515625,783.6996459960938
827,782.893798828125,785.3113403320312,795.3846435546875,792.1611938476562
828,778.4615478515625,783.6996459960938,791.3552856445312,791.7582397460938
829,782.4908447265625,792.1611938476562,792.5640869140625,787.3259887695312
830,786.1171875,794.1758422851562,795.7875366210938,792.967041015625
831,780.879150390625,790.1465454101562,795.3846435546875,786.1171875
832,783.6996459960938,790.1465454101562,795.3846435546875,773.6264038085938
833,792.967041015625,793.7728881835938,799.010986328125,783.6996459960938
834,793.3699340820312,794.981689453125,797.3992919921875,786.923095703125
835,790.952392578125,794.1758422851562,794.1758422851562,785.3113403320312
836,786.1171875,794.981689453125,796.1904907226562,781.2820434570312
837,778.8644409179688,790.5494384765625,795.7875366210938,780.4761962890625
838,776.8497924804688,784.1025390625,796.1904907226562,784.5054931640625
839,782.4908447265625,790.1465454101562,799.4139404296875,783.6996459960938
840,790.1465454101562,796.996337890625,797.3992919921875,787.3259887695312
841,788.5347900390625,789.7435913085938,795.3846435546875,787.3259887695312
842,792.967041015625,785.7142944335938,792.1611938476562,784.1025390625
843,791.7582397460938,783.6996459960938,793.7728881835938,782.4908447265625
844,783.2966918945312,786.5201416015625,796.996337890625,784.5054931640625
845,787.3259887695312,792.967041015625,794.5787353515625,785.7142944335938
846,797.8021850585938,789.3406372070312,794.5787353515625,791.7582397460938
847,794.981689453125,782.087890625,799.010986328125,795.7875366210938
848,786.5201416015625,785.3113403320312,801.025634765625,787.7289428710938
849,785.3113403320312,794.1758422851562,801.4285888671875,789.7435913085938
850,784.908447265625,794.1758422851562,801.4285888671875,795.3846435546875
851,785.3113403320312,791.7582397460938,801.025634765625,796.996337890625
852,783.6996459960938,786.923095703125,794.981689453125,792.967041015625
853,786.5201416015625,784.908447265625,794.1758422851562,790.1465454101562
854,793.7728881835938,791.7582397460938,801.025634765625,789.7435913085938
855,801.4285888671875,797.3992919921875,804.6520385742188,791.3552856445312
856,799.010986328125,796.1904907226562,804.6520385742188,795.7875366210938
857,796.1904907226562,792.5640869140625,796.996337890625,796.1904907226562
858,805.4578857421875,793.3699340820312,795.3846435546875,796.996337890625
859,803.4432373046875,792.1611938476562,798.2051391601562,794.981689453125
860,795.7875366210938,791.3552856445312,796.5933837890625,788.937744140625
861,796.996337890625,794.981689453125,794.5787353515625,793.3699340820312
862,792.5640869140625,794.1758422851562,795.7875366210938,792.967041015625
863,785.7142944335938,794.1758422851562,794.981689453125,784.5054931640625
864,788.5347900390625,792.1611938476562,794.5787353515625,786.923095703125
865,789.7435913085938,788.5347900390625,794.1758422851562,784.908447265625
866,785.7142944335938,784.1025390625,793.3699340820312,781.2820434570312
867,786.1171875,786.1171875,792.5640869140625,783.6996459960938
868,783.6996459960938,787.7289428710938,790.5494384765625,785.3113403320312
869,779.6703491210938,784.908447265625,793.3699340820312,783.2966918945312
870,782.4908447265625,784.5054931640625,794.5787353515625,781.2820434570312
871,781.6849975585938,786.5201416015625,794.981689453125,785.3113403320312
872,781.2820434570312,793.3699340820312,793.7728881835938,794.5787353515625
873,784.5054931640625,796.5933837890625,791.3552856445312,796.5933837890625
874,782.4908447265625,793.7728881835938,790.952392578125,789.3406372070312
875,782.4908447265625,790.1465454101562,786.5201416015625,787.3259887695312
876,790.1465454101562,794.5787353515625,790.1465454101562,793.3699340820312
877,797.8021850585938,800.6226806640625,797.8021850585938,798.6080322265625
878,799.8168334960938,801.4285888671875,795.7875366210938,794.981689453125
879,799.4139404296875,801.025634765625,791.3552856445312,786.923095703125
880,805.8607788085938,798.6080322265625,790.1465454101562,788.937744140625
881,809.084228515625,799.8168334960938,792.1611938476562,796.1904907226562
882,809.084228515625,802.2344360351562,795.7875366210938,796.5933837890625
883,806.6666870117188,802.2344360351562,792.5640869140625,788.937744140625
884,803.8461303710938,798.2051391601562,790.5494384765625,788.937744140625
885,802.2344360351562,794.981689453125,797.3992919921875,792.5640869140625
886,803.4432373046875,796.1904907226562,794.5787353515625,790.1465454101562
887,806.2637329101562,796.1904907226562,792.1611938476562,794.981689453125
888,800.6226806640625,795.7875366210938,795.7875366210938,797.3992919921875
889,795.3846435546875,794.981689453125,792.5640869140625,793.7728881835938
890,792.5640869140625,795.7875366210938,790.952392578125,792.5640869140625
891,789.7435913085938,793.7728881835938,793.3699340820312,791.3552856445312
892,798.2051391601562,789.7435913085938,792.1611938476562,796.1904907226562
893,795.7875366210938,790.5494384765625,790.5494384765625,792.967041015625
894,786.1171875,794.5787353515625,791.7582397460938,781.2820434570312
895,790.5494384765625,795.3846435546875,796.5933837890625,786.923095703125
896,793.3699340820312,800.6226806640625,799.010986328125,793.7728881835938
897,793.3699340820312,802.6373901367188,797.3992919921875,792.1611938476562
898,797.3992919921875,799.8168334960938,801.025634765625,795.3846435546875
899,796.1904907226562,799.4139404296875,802.6373901367188,790.1465454101562
900,794.1758422851562,795.3846435546875,800.6226806640625,785.3113403320312
901,798.6080322265625,792.1611938476562,798.2051391601562,789.7435913085938
902,807.069580078125,793.7728881835938,796.996337890625,788.1318969726562
903,817.5457763671875,794.1758422851562,795.3846435546875,790.952392578125
904,815.93408203125,790.1465454101562,794.5787353515625,796.996337890625
905,797.8021850585938,788.937744140625,796.1904907226562,793.3699340820312
906,791.3552856445312,786.923095703125,791.3552856445312,790.1465454101562
907,795.7875366210938,787.7289428710938,788.5347900390625,798.6080322265625
908,785.7142944335938,783.2966918945312,787.7289428710938,802.2344360351562
909,784.908447265625,785.7142944335938,784.5054931640625,796.5933837890625
910,789.7435913085938,792.5640869140625,786.923095703125,796.996337890625
911,788.5347900390625,789.7435913085938,784.908447265625,794.1758422851562
912,793.7728881835938,788.1318969726562,788.1318969726562,794.981689453125
913,791.3552856445312,783.6996459960938,788.937744140625,793.7728881835938
914,781.6849975585938,780.4761962890625,786.1171875,792.1611938476562
915,780.879150390625,782.893798828125,792.5640869140625,786.5201416015625
916,784.908447265625,787.7289428710938,796.5933837890625,780.0732421875
917,781.6849975585938,785.3113403320312,788.1318969726562,783.6996459960938
918,778.05859375,785.7142944335938,787.7289428710938,780.879150390625
919,778.4615478515625,787.7289428710938,792.1611938476562,784.1025390625
920,782.087890625,787.7289428710938,790.1465454101562,785.7142944335938
921,788.1318969726562,788.1318969726562,792.5640869140625,777.2527465820312
922,792.967041015625,783.2966918945312,793.3699340820312,781.6849975585938
923,795.7875366210938,781.6849975585938,792.5640869140625,781.6849975585938
924,791.7582397460938,787.7289428710938,790.5494384765625,780.4761962890625
925,786.5201416015625,782.4908447265625,789.3406372070312,774.4322509765625
926,791.7582397460938,783.6996459960938,792.1611938476562,771.6116943359375
927,792.967041015625,785.7142944335938,790.952392578125,783.6996459960938
928,789.3406372070312,784.1025390625,787.3259887695312,789.7435913085938
929,790.952392578125,792.967041015625,791.7582397460938,784.908447265625
930,790.5494384765625,793.7728881835938,793.3699340820312,782.4908447265625
931,792.1611938476562,790.952392578125,790.952392578125,788.1318969726562
932,799.8168334960938,796.1904907226562,788.937744140625,792.5640869140625
933,803.8461303710938,796.5933837890625,788.1318969726562,789.3406372070312
934,795.7875366210938,792.967041015625,789.3406372070312,793.7728881835938
935,790.1465454101562,793.7728881835938,790.952392578125,797.8021850585938
936,793.3699340820312,790.952392578125,794.1758422851562,789.3406372070312
937,794.5787353515625,790.952392578125,790.5494384765625,790.1465454101562
938,793.7728881835938,795.3846435546875,789.7435913085938,796.5933837890625
939,790.5494384765625,790.952392578125,796.5933837890625,797.8021850585938
940,787.3259887695312,791.3552856445312,798.2051391601562,801.8314819335938
941,783.6996459960938,794.1758422851562,790.1465454101562,792.967041015625
942,791.7582397460938,794.1758422851562,789.3406372070312,790.952392578125
943,797.3992919921875,792.1611938476562,793.3699340820312,798.2051391601562
944,786.5201416015625,788.937744140625,793.7728881835938,788.1318969726562
945,779.6703491210938,788.937744140625,796.996337890625,786.1171875
946,784.5054931640625,793.7728881835938,794.5787353515625,790.1465454101562
947,788.5347900390625,794.5787353515625,795.3846435546875,784.908447265625
948,788.5347900390625,792.967041015625,800.6226806640625,788.5347900390625
949,789.3406372070312,791.3552856445312,801.025634765625,793.7728881835938
950,790.952392578125,788.937744140625,794.981689453125,790.1465454101562
951,792.5640869140625,786.5201416015625,793.3699340820312,785.7142944335938
952,794.5787353515625,786.1171875,794.981689453125,787.7289428710938
953,797.3992919921875,792.5640869140625,795.7875366210938,795.7875366210938
954,792.5640869140625,796.5933837890625,801.4285888671875,795.7875366210938
955,789.3406372070312,794.5787353515625,798.6080322265625,789.7435913085938
956,794.1758422851562,794.981689453125,796.5933837890625,789.7435913085938
957,799.4139404296875,794.1758422851562,800.2197875976562,799.010986328125
958,804.6520385742188,794.1758422851562,798.6080322265625,807.069580078125
959,803.040283203125,799.010986328125,797.8021850585938,795.7875366210938
960,796.5933837890625,798.6080322265625,796.5933837890625,787.7289428710938
961,796.5933837890625,795.3846435546875,794.981689453125,795.3846435546875
962,794.5787353515625,794.981689453125,793.3699340820312,796.1904907226562
963,796.5933837890625,792.967041015625,792.967041015625,791.3552856445312
964,800.6226806640625,791.7582397460938,792.967041015625,791.3552856445312
965,794.1758422851562,787.3259887695312,788.937744140625,786.923095703125
966,790.5494384765625,783.6996459960938,786.1171875,783.6996459960938
967,788.1318969726562,787.3259887695312,785.7142944335938,782.4908447265625
968,792.967041015625,791.7582397460938,787.3259887695312,792.1611938476562
969,797.3992919921875,793.7728881835938,791.3552856445312,804.2490844726562
970,787.3259887695312,800.2197875976562,792.967041015625,800.6226806640625
971,780.4761962890625,803.040283203125,791.7582397460938,796.996337890625
972,782.087890625,797.8021850585938,792.1611938476562,803.040283203125
973,785.3113403320312,793.3699340820312,788.937744140625,802.2344360351562
974,786.923095703125,790.5494384765625,788.5347900390625,796.996337890625
975,792.5640869140625,790.952392578125,793.3699340820312,793.7728881835938
976,792.967041015625,791.7582397460938,796.1904907226562,792.967041015625
977,790.952392578125,790.1465454101562,800.6226806640625,798.2051391601562
978,795.3846435546875,792.5640869140625,803.4432373046875,795.3846435546875
979,796.996337890625,800.6226806640625,806.2637329101562,790.1465454101562
980,798.2051391601562,798.6080322265625,806.2637329101562,793.7728881835938
981,791.7582397460938,790.5494384765625,803.4432373046875,794.981689453125
982,788.1318969726562,793.3699340820312,804.2490844726562,790.952392578125
983,791.3552856445312,796.5933837890625,800.2197875976562,790.5494384765625
984,790.952392578125,790.952392578125,798.6080322265625,790.5494384765625
985,791.7582397460938,791.7582397460938,800.6226806640625,791.3552856445312
986,792.5640869140625,795.7875366210938,799.8168334960938,788.937744140625
987,796.1904907226562,792.1611938476562,801.025634765625,788.5347900390625
988,791.3552856445312,786.1171875,806.2637329101562,794.981689453125
989,784.1025390625,790.5494384765625,808.6813354492188,798.2051391601562
990,782.087890625,795.3846435546875,803.8461303710938,796.5933837890625
991,784.5054931640625,796.1904907226562,801.025634765625,796.1904907226562
992,789.7435913085938,797.8021850585938,796.5933837890625,799.4139404296875
993,794.5787353515625,797.8021850585938,795.3846435546875,797.3992919921875
994,795.3846435546875,798.2051391601562,793.3699340820312,792.1611938476562
995,794.5787353515625,797.8021850585938,790.952392578125,793.3699340820312
996,785.3113403320312,795.7875366210938,788.937744140625,782.893798828125
997,781.2820434570312,792.967041015625,791.3552856445312,776.8497924804688
998,794.5787353515625,801.4285888671875,794.981689453125,783.6996459960938
999,794.981689453125,804.6520385742188,796.996337890625,786.5201416015625
1000,786.923095703125,799.4139404296875,794.1758422851562,787.3259887695312
1001,790.952392578125,801.025634765625,792.1611938476562,784.5054931640625
1002,788.1318969726562,798.6080322265625,795.3846435546875,782.893798828125
1003,788.1318969726562,796.5933837890625,794.5787353515625,788.5347900390625
1004,797.8021850585938,793.7728881835938,796.1904907226562,796.1904907226562
1005,795.7875366210938,790.5494384765625,798.2051391601562,788.937744140625
1006,798.6080322265625,801.4285888671875,803.4432373046875,790.952392578125
1007,798.6080322265625,804.6520385742188,807.87548828125,800.6226806640625
1008,792.1611938476562,799.4139404296875,804.2490844726562,794.1758422851562
1009,795.3846435546875,796.5933837890625,801.8314819335938,791.3552856445312
1010,793.3699340820312,793.3699340820312,802.2344360351562,790.5494384765625
1011,791.3552856445312,793.7728881835938,803.4432373046875,790.952392578125
1012,792.967041015625,797.8021850585938,803.4432373046875,796.996337890625
1013,792.1611938476562,798.2051391601562,800.2197875976562,795.7875366210938
1014,791.7582397460938,797.3992919921875,799.010986328125,796.1904907226562
1015,794.1758422851562,792.967041015625,798.2051391601562,802.2344360351562
1016,799.010986328125,793.3699340820312,797.8021850585938,799.8168334960938
1017,791.7582397460938,792.5640869140625,793.7728881835938,793.7728881835938
1018,781.6849975585938,784.5054931640625,790.5494384765625,787.7289428710938
1019,786.1171875,785.7142944335938,792.1611938476562,786.1171875
1020,790.1465454101562,788.5347900390625,790.1465454101562,788.5347900390625
1021,788.937744140625,785.3113403320312,788.1318969726562,787.3259887695312
1022,789.3406372070312,782.4908447265625,795.7875366210938,794.981689453125
1023,790.1465454101562,780.4761962890625,799.4139404296875,794.981689453125
1024,791.3552856445312,785.3113403320312,794.1758422851562,788.937744140625
1025,787.7289428710938,794.5787353515625,791.3552856445312,790.1465454101562
1026,787.3259887695312,794.5787353515625,791.7582397460938,793.3699340820312
1027,792.967041015625,792.967041015625,792.1611938476562,791.7582397460938
1028,788.937744140625,787.7289428710938,788.937744140625,782.087890625
1029,791.7582397460938,784.908447265625,787.7289428710938,782.4908447265625
1030,800.2197875976562,789.3406372070312,790.952392578125,786.923095703125
1031,803.4432373046875,788.1318969726562,791.3552856445312,787.3259887695312
1032,796.1904907226562,788.937744140625,793.3699340820312,787.3259887695312
1033,784.1025390625,794.981689453125,792.5640869140625,783.6996459960938
1034,787.3259887695312,797.3992919921875,790.952392578125,779.6703491210938
1035,784.1025390625,793.7728881835938,791.3552856445312,782.893798828125
1036,783.2966918945312,791.7582397460938,793.3699340820312,786.5201416015625
1037,787.3259887695312,789.7435913085938,798.2051391601562,785.7142944335938
1038,786.923095703125,784.908447265625,800.6226806640625,790.952392578125
1039,794.5787353515625,787.3259887695312,799.010986328125,793.7728881835938
1040,794.5787353515625,791.7582397460938,796.1904907226562,788.5347900390625
1041,785.7142944335938,790.5494384765625,792.967041015625,786.1171875
1042,778.05859375,780.879150390625,789.3406372070312,784.5054931640625
1043,777.2527465820312,783.2966918945312,786.1171875,787.7289428710938
1044,788.937744140625,795.3846435546875,787.3259887695312,792.967041015625
1045,795.3846435546875,794.5787353515625,792.5640869140625,800.6226806640625
1046,794.981689453125,794.981689453125,801.4285888671875,806.6666870117188
1047,792.967041015625,793.3699340820312,803.4432373046875,798.6080322265625
1048,785.7142944335938,789.3406372070312,795.3846435546875,791.7582397460938
1049,784.1025390625,790.1465454101562,794.5787353515625,795.3846435546875
1050,784.5054931640625,789.7435913085938,794.1758422851562,794.5787353515625
1051,786.5201416015625,791.3552856445312,794.1758422851562,788.1318969726562
1052,782.893798828125,792.967041015625,794.1758422851562,781.6849975585938
1053,781.6849975585938,794.5787353515625,794.1758422851562,781.6849975585938
1054,781.2820434570312,798.2051391601562,794.1758422851562,783.6996459960938
1055,781.6849975585938,799.010986328125,794.981689453125,784.1025390625
1056,789.7435913085938,791.7582397460938,792.1611938476562,788.5347900390625
1057,792.1611938476562,788.937744140625,789.7435913085938,789.7435913085938
1058,789.7435913085938,784.1025390625,793.7728881835938,791.3552856445312
1059,788.5347900390625,778.8644409179688,792.1611938476562,795.3846435546875
1060,788.5347900390625,790.952392578125,789.7435913085938,786.5201416015625
1061,790.952392578125,795.3846435546875,794.1758422851562,785.3113403320312
1062,790.5494384765625,793.3699340820312,794.981689453125,792.5640869140625
1063,789.7435913085938,794.981689453125,793.7728881835938,787.7289428710938
1064,796.1904907226562,794.981689453125,793.7728881835938,787.3259887695312
1065,798.6080322265625,792.5640869140625,794.5787353515625,792.5640869140625
1066,795.7875366210938,792.1611938476562,791.7582397460938,789.7435913085938
1067,800.2197875976562,803.040283203125,788.1318969726562,788.1318969726562
1068,799.010986328125,807.4725341796875,789.7435913085938,792.5640869140625
1069,794.1758422851562,803.4432373046875,791.7582397460938,790.1465454101562
1070,789.3406372070312,801.4285888671875,789.7435913085938,790.1465454101562
1071,787.7289428710938,795.3846435546875,793.7728881835938,786.923095703125
1072,792.967041015625,797.3992919921875,798.2051391601562,780.0732421875
1073,792.1611938476562,800.2197875976562,797.3992919921875,783.2966918945312
1074,789.3406372070312,798.6080322265625,797.8021850585938,782.4908447265625
1075,792.5640869140625,792.1611938476562,798.2051391601562,782.893798828125
1076,794.5787353515625,784.908447265625,794.1758422851562,786.5201416015625
1077,790.5494384765625,786.5201416015625,790.952392578125,788.937744140625
1078,788.1318969726562,791.3552856445312,790.952392578125,783.6996459960938
1079,790.1465454101562,789.7435913085938,792.5640869140625,782.087890625
1080,794.5787353515625,788.1318969726562,797.3992919921875,786.1171875
1081,799.8168334960938,792.1611938476562,800.6226806640625,794.1758422851562
1082,798.2051391601562,793.3699340820312,799.4139404296875,795.3846435546875
1083,802.6373901367188,798.2051391601562,799.4139404296875,793.7728881835938
1084,805.8607788085938,802.6373901367188,799.8168334960938,795.3846435546875
1085,805.4578857421875,799.010986328125,800.2197875976562,798.2051391601562
1086,809.89013671875,793.7728881835938,801.4285888671875,796.5933837890625
1087,810.6959838867188,797.8021850585938,799.010986328125,792.1611938476562
1088,807.4725341796875,802.6373901367188,798.2051391601562,794.1758422851562
1089,795.7875366210938,801.025634765625,795.7875366210938,791.7582397460938
1090,785.3113403320312,797.3992919921875,794.1758422851562,789.7435913085938
1091,789.7435913085938,794.5787353515625,798.2051391601562,791.7582397460938
1092,792.1611938476562,794.5787353515625,801.025634765625,790.1465454101562
1093,790.952392578125,794.1758422851562,796.1904907226562,790.1465454101562
1094,793.7728881835938,791.3552856445312,791.3552856445312,788.5347900390625
1095,800.2197875976562,791.3552856445312,794.5787353515625,791.7582397460938
1096,803.040283203125,788.1318969726562,796.996337890625,801.8314819335938
1097,802.6373901367188,789.3406372070312,794.981689453125,796.996337890625
1098,801.4285888671875,795.7875366210938,792.967041015625,789.3406372070312
1099,790.952392578125,794.981689453125,789.3406372070312,785.3113403320312
1100,793.3699340820312,794.5787353515625,790.1465454101562,792.5640869140625
1101,803.040283203125,803.040283203125,795.7875366210938,796.5933837890625
1102,803.040283203125,803.8461303710938,796.5933837890625,793.7728881835938
1103,799.010986328125,798.6080322265625,793.3699340820312,789.7435913085938
1104,798.2051391601562,801.025634765625,792.967041015625,788.5347900390625
1105,801.4285888671875,801.025634765625,795.7875366210938,793.7728881835938
1106,801.8314819335938,798.2051391601562,792.967041015625,791.3552856445312
1107,806.2637329101562,796.5933837890625,795.3846435546875,793.3699340820312
1108,802.2344360351562,793.3699340820312,799.4139404296875,795.3846435546875
1109,785.3113403320312,796.5933837890625,802.6373901367188,796.5933837890625
1110,782.087890625,800.6226806640625,803.040283203125,800.6226806640625
1111,783.2966918945312,792.967041015625,794.1758422851562,801.8314819335938
1112,779.6703491210938,784.5054931640625,790.952392578125,790.1465454101562
1113,778.05859375,791.3552856445312,794.1758422851562,777.2527465820312
1114,779.2673950195312,794.1758422851562,792.1611938476562,776.0439453125
1115,784.1025390625,790.952392578125,793.7728881835938,778.4615478515625
1116,780.0732421875,793.3699340820312,799.8168334960938,785.7142944335938
1117,780.879150390625,796.1904907226562,802.2344360351562,794.1758422851562
1118,788.1318969726562,798.2051391601562,805.8607788085938,799.010986328125
1119,788.1318969726562,799.4139404296875,800.2197875976562,799.4139404296875
1120,792.967041015625,798.2051391601562,794.1758422851562,796.1904907226562
1121,795.3846435546875,792.5640869140625,794.5787353515625,788.937744140625
1122,792.5640869140625,787.3259887695312,796.1904907226562,789.7435913085938
1123,793.7728881835938,790.1465454101562,796.1904907226562,793.7728881835938
1124,794.1758422851562,792.1611938476562,800.6226806640625,792.967041015625
1125,794.981689453125,791.7582397460938,798.6080322265625,794.981689453125
1126,796.1904907226562,791.7582397460938,791.7582397460938,791.3552856445312
1127,796.1904907226562,785.7142944335938,790.5494384765625,790.5494384765625
1128,797.3992919921875,786.923095703125,788.5347900390625,798.2051391601562
1129,795.7875366210938,790.1465454101562,786.1171875,796.996337890625
1130,796.5933837890625,789.7435913085938,783.2966918945312,801.4285888671875
1131,804.2490844726562,793.7728881835938,786.923095703125,805.8607788085938
1132,807.87548828125,794.981689453125,788.1318969726562,803.8461303710938
1133,807.87548828125,794.5787353515625,790.5494384765625,811.098876953125
1134,802.2344360351562,792.5640869140625,794.5787353515625,812.7106323242188
1135,800.2197875976562,795.3846435546875,799.010986328125,809.084228515625
1136,799.8168334960938,794.1758422851562,801.8314819335938,802.6373901367188
1137,798.6080322265625,789.3406372070312,804.6520385742188,802.2344360351562
1138,798.2051391601562,785.3113403320312,804.2490844726562,804.6520385742188
1139,785.7142944335938,781.2820434570312,800.6226806640625,791.3552856445312
1140,782.4908447265625,779.2673950195312,797.8021850585938,790.1465454101562
1141,787.3259887695312,782.893798828125,799.010986328125,796.1904907226562
1142,786.5201416015625,788.1318969726562,799.8168334960938,795.7875366210938
1143,785.7142944335938,788.1318969726562,803.8461303710938,796.1904907226562
1144,789.3406372070312,789.7435913085938,808.2783813476562,791.3552856445312
1145,786.5201416015625,791.3552856445312,805.054931640625,784.908447265625
1146,779.6703491210938,789.7435913085938,804.2490844726562,787.3259887695312
1147,785.3113403320312,794.5787353515625,806.6666870117188,787.7289428710938
1148,788.937744140625,792.967041015625,804.2490844726562,788.5347900390625
1149,780.879150390625,792.5640869140625,799.4139404296875,794.1758422851562
1150,778.05859375,796.5933837890625,798.2051391601562,794.5787353515625
1151,785.7142944335938,794.1758422851562,798.2051391601562,790.952392578125
1152,790.952392578125,789.3406372070312,796.5933837890625,791.3552856445312
1153,789.3406372070312,793.7728881835938,794.981689453125,795.3846435546875
1154,791.7582397460938,802.2344360351562,790.1465454101562,791.7582397460938
1155,801.025634765625,803.8461303710938,788.937744140625,790.1465454101562
1156,801.8314819335938,803.8461303710938,792.967041015625,795.3846435546875
1157,800.6226806640625,796.996337890625,790.5494384765625,794.5787353515625
1158,803.8461303710938,795.3846435546875,788.1318969726562,793.3699340820312
1159,803.8461303710938,801.4285888671875,789.3406372070312,789.3406372070312
1160,802.6373901367188,802.6373901367188,787.7289428710938,784.908447265625
1161,799.4139404296875,803.4432373046875,786.923095703125,788.5347900390625
1162,803.4432373046875,805.8607788085938,789.3406372070312,790.952392578125
1163,813.113525390625,802.6373901367188,791.3552856445312,785.7142944335938
1164,811.90478515625,795.7875366210938,786.1171875,782.893798828125
1165,803.040283203125,791.7582397460938,786.1171875,784.1025390625
1166,793.3699340820312,787.3259887695312,787.3259887695312,778.4615478515625
1167,791.3552856445312,783.2966918945312,791.3552856445312,778.4615478515625
1168,788.937744140625,782.893798828125,797.3992919921875,784.1025390625
1169,788.937744140625,790.1465454101562,797.8021850585938,789.3406372070312
1170,787.3259887695312,790.5494384765625,800.6226806640625,790.5494384765625
1171,780.0732421875,787.7289428710938,805.4578857421875,787.7289428710938
1172,778.4615478515625,787.3259887695312,808.6813354492188,792.1611938476562
1173,781.2820434570312,786.5201416015625,810.2930297851562,799.010986328125
1174,788.1318969726562,788.937744140625,808.6813354492188,797.8021850585938
1175,794.5787353515625,789.7435913085938,808.2783813476562,797.8021850585938
1176,794.5787353515625,792.1611938476562,809.084228515625,799.010986328125
1177,795.3846435546875,792.5640869140625,808.6813354492188,799.8168334960938
1178,798.6080322265625,791.3552856445312,807.069580078125,797.3992919921875
1179,804.2490844726562,793.7728881835938,801.4285888671875,794.981689453125
1180,802.6373901367188,799.8168334960938,799.010986328125,792.967041015625
1181,796.996337890625,798.6080322265625,797.8021850585938,786.923095703125
1182,799.8168334960938,794.5787353515625,797.3992919921875,781.2820434570312
1183,800.2197875976562,796.5933837890625,796.1904907226562,780.4761962890625
1184,804.2490844726562,797.3992919921875,797.8021850585938,788.1318969726562
1185,807.4725341796875,799.4139404296875,796.996337890625,789.3406372070312
1186,804.2490844726562,805.4578857421875,792.5640869140625,779.6703491210938
1187,796.1904907226562,798.2051391601562,794.981689453125,779.6703491210938
1188,788.937744140625,793.7728881835938,797.8021850585938,784.908447265625
1189,786.923095703125,794.1758422851562,799.4139404296875,781.2820434570312
1190,785.7142944335938,794.5787353515625,803.8461303710938,780.0732421875
1191,784.908447265625,793.3699340820312,804.6520385742188,783.6996459960938
1192,780.4761962890625,790.952392578125,799.010986328125,782.087890625
1193,779.6703491210938,786.5201416015625,799.010986328125,781.6849975585938
1194,783.6996459960938,785.3113403320312,803.8461303710938,792.5640869140625
1195,780.4761962890625,784.908447265625,805.4578857421875,797.3992919921875
1196,771.6116943359375,777.2527465820312,807.069580078125,799.8168334960938
1197,766.7765502929688,779.6703491210938,808.2783813476562,799.4139404296875
1198,766.7765502929688,781.2820434570312,802.6373901367188,801.4285888671875
1199,770.8058471679688,772.8204956054688,801.025634765625,803.040283203125
1200,774.029296875,773.2234497070312,801.8314819335938,794.1758422851562
1201,779.2673950195312,780.4761962890625,798.6080322265625,790.5494384765625
1202,789.7435913085938,786.923095703125,797.3992919921875,791.7582397460938
1203,794.5787353515625,788.937744140625,799.4139404296875,790.1465454101562
1204,792.5640869140625,786.1171875,800.2197875976562,792.5640869140625
1205,793.3699340820312,787.3259887695312,798.6080322265625,788.1318969726562
1206,796.996337890625,785.3113403320312,798.6080322265625,778.8644409179688
1207,792.967041015625,786.923095703125,796.5933837890625,780.879150390625
1208,790.952392578125,791.7582397460938,792.1611938476562,783.2966918945312
1209,799.4139404296875,798.6080322265625,790.1465454101562,778.4615478515625
1210,804.2490844726562,800.6226806640625,790.1465454101562,776.8497924804688
1211,804.6520385742188,799.4139404296875,791.3552856445312,779.6703491210938
1212,800.6226806640625,799.010986328125,790.5494384765625,782.4908447265625
1213,798.2051391601562,799.010986328125,793.3699340820312,777.6557006835938
1214,807.069580078125,803.4432373046875,790.5494384765625,778.8644409179688
1215,808.2783813476562,798.6080322265625,789.7435913085938,781.2820434570312
1216,792.1611938476562,798.2051391601562,787.7289428710938,776.8497924804688
1217,782.4908447265625,797.8021850585938,788.5347900390625,780.0732421875
1218,782.4908447265625,795.3846435546875,787.3259887695312,783.2966918945312
1219,785.3113403320312,792.967041015625,786.1171875,778.8644409179688
1220,786.5201416015625,792.967041015625,792.5640869140625,774.4322509765625
1221,777.6557006835938,789.7435913085938,791.7582397460938,767.1795043945312
1222,773.2234497070312,783.6996459960938,790.5494384765625,772.0146484375
1223,777.6557006835938,786.923095703125,793.7728881835938,782.087890625
1224,784.5054931640625,791.3552856445312,796.5933837890625,783.2966918945312
1225,791.3552856445312,790.952392578125,792.1611938476562,788.1318969726562
1226,795.3846435546875,786.923095703125,790.5494384765625,791.3552856445312
1227,795.7875366210938,784.908447265625,795.7875366210938,791.3552856445312
1228,790.1465454101562,782.4908447265625,794.981689453125,789.7435913085938
1229,790.1465454101562,777.2527465820312,790.952392578125,791.7582397460938
1230,787.7289428710938,785.3113403320312,790.952392578125,793.3699340820312
1231,785.3113403320312,786.1171875,789.3406372070312,786.5201416015625
1232,787.3259887695312,783.2966918945312,795.7875366210938,785.3113403320312
1233,786.1171875,786.923095703125,794.5787353515625,788.1318969726562
1234,794.1758422851562,787.7289428710938,792.1611938476562,791.3552856445312
1235,799.010986328125,788.1318969726562,795.3846435546875,788.937744140625
1236,796.5933837890625,787.3259887695312,795.3846435546875,791.3552856445312
1237,792.5640869140625,790.1465454101562,794.981689453125,795.7875366210938
1238,794.981689453125,790.952392578125,797.3992919921875,792.1611938476562
1239,800.2197875976562,791.3552856445312,796.1904907226562,789.7435913085938
1240,796.5933837890625,797.3992919921875,795.7875366210938,791.7582397460938
1241,790.5494384765625,803.8461303710938,798.2051391601562,800.2197875976562
1242,782.087890625,801.8314819335938,792.967041015625,796.5933837890625
1243,778.8644409179688,794.981689453125,789.3406372070312,784.908447265625
1244,790.1465454101562,797.8021850585938,791.7582397460938,782.893798828125
1245,794.981689453125,796.5933837890625,796.1904907226562,788.1318969726562
1246,791.7582397460938,794.981689453125,796.5933837890625,792.967041015625
1247,787.3259887695312,793.3699340820312,792.5640869140625,781.2820434570312
1248,782.4908447265625,786.923095703125,794.1758422851562,779.2673950195312
1249,778.8644409179688,788.1318969726562,797.3992919921875,784.1025390625
1250,775.2380981445312,792.5640869140625,795.3846435546875,782.087890625
1251,775.2380981445312,793.3699340820312,793.3699340820312,782.087890625
1252,771.6116943359375,789.3406372070312,795.3846435546875,776.4468994140625
1253,772.8204956054688,789.3406372070312,792.5640869140625,778.4615478515625
1254,774.4322509765625,792.967041015625,790.5494384765625,784.908447265625
1255,784.1025390625,794.1758422851562,794.1758422851562,788.5347900390625
1256,784.908447265625,791.3552856445312,788.937744140625,784.908447265625
1257,775.2380981445312,784.908447265625,788.1318969726562,788.937744140625
1258,777.2527465820312,787.3259887695312,788.937744140625,791.3552856445312
1259,782.893798828125,792.967041015625,786.5201416015625,788.5347900390625
1260,786.5201416015625,795.7875366210938,788.937744140625,794.981689453125
1261,786.5201416015625,792.5640869140625,792.1611938476562,796.5933837890625
1262,788.937744140625,792.967041015625,795.7875366210938,799.4139404296875
1263,794.5787353515625,793.7728881835938,794.5787353515625,801.025634765625
1264,802.6373901367188,788.1318969726562,798.2051391601562,804.2490844726562
1265,806.2637329101562,793.7728881835938,798.2051391601562,803.4432373046875
1266,803.4432373046875,799.8168334960938,793.3699340820312,795.3846435546875
1267,801.4285888671875,800.6226806640625,794.5787353515625,794.1758422851562
1268,799.8168334960938,798.2051391601562,793.7728881835938,796.5933837890625
1269,794.5787353515625,797.3992919921875,788.937744140625,796.5933837890625
1270,799.010986328125,801.4285888671875,790.5494384765625,800.2197875976562
1271,803.040283203125,799.8168334960938,794.1758422851562,800.2197875976562
1272,795.7875366210938,796.1904907226562,786.5201416015625,789.3406372070312
1273,793.3699340820312,796.996337890625,782.893798828125,787.3259887695312
1274,795.7875366210938,799.8168334960938,792.1611938476562,794.5787353515625
1275,792.5640869140625,800.6226806640625,792.5640869140625,796.1904907226562
1276,791.3552856445312,799.4139404296875,792.5640869140625,799.8168334960938
1277,793.7728881835938,799.8168334960938,793.7728881835938,803.8461303710938
1278,792.1611938476562,800.6226806640625,788.5347900390625,793.7728881835938
1279,794.5787353515625,799.010986328125,788.1318969726562,783.2966918945312
1280,804.6520385742188,792.967041015625,788.937744140625,790.1465454101562
1281,806.2637329101562,791.7582397460938,789.3406372070312,793.7728881835938
1282,801.025634765625,805.4578857421875,792.5640869140625,790.1465454101562
1283,805.054931640625,811.098876953125,791.3552856445312,792.5640869140625
1284,804.2490844726562,805.054931640625,786.5201416015625,789.3406372070312
1285,797.3992919921875,803.8461303710938,788.5347900390625,796.1904907226562
1286,798.2051391601562,802.6373901367188,791.3552856445312,800.6226806640625
1287,803.8461303710938,798.6080322265625,790.952392578125,792.1611938476562
1288,798.2051391601562,800.2197875976562,793.3699340820312,786.5201416015625
1289,794.981689453125,797.8021850585938,790.1465454101562,783.6996459960938
1290,801.4285888671875,794.981689453125,788.5347900390625,789.3406372070312
1291,798.6080322265625,792.5640869140625,789.3406372070312,794.981689453125
1292,794.1758422851562,791.3552856445312,785.3113403320312,794.1758422851562
1293,784.908447265625,792.967041015625,782.4908447265625,788.1318969726562
1294,781.2820434570312,788.1318969726562,781.6849975585938,788.5347900390625
1295,786.923095703125,790.1465454101562,782.893798828125,784.1025390625
1296,786.1171875,785.7142944335938,782.4908447265625,777.6557006835938
1297,788.5347900390625,781.6849975585938,780.4761962890625,780.879150390625
1298,792.5640869140625,790.952392578125,783.6996459960938,780.0732421875
1299,799.4139404296875,793.3699340820312,785.3113403320312,780.0732421875
1300,809.4871826171875,794.981689453125,784.908447265625,780.0732421875
1301,810.2930297851562,799.010986328125,784.1025390625,780.4761962890625
1302,803.4432373046875,799.8168334960938,780.879150390625,776.0439453125
1303,796.1904907226562,796.5933837890625,780.0732421875,780.0732421875
1304,788.5347900390625,795.7875366210938,781.6849975585938,784.5054931640625
1305,787.3259887695312,796.996337890625,782.893798828125,775.6410522460938
1306,789.7435913085938,795.7875366210938,788.1318969726562,782.087890625
1307,793.7728881835938,796.996337890625,795.7875366210938,784.908447265625
1308,796.1904907226562,798.6080322265625,795.3846435546875,776.0439453125
1309,790.5494384765625,800.6226806640625,799.010986328125,775.6410522460938
1310,792.5640869140625,797.8021850585938,801.8314819335938,778.4615478515625
1311,796.5933837890625,793.7728881835938,795.3846435546875,780.879150390625
1312,794.981689453125,797.8021850585938,796.996337890625,783.2966918945312
1313,797.8021850585938,797.3992919921875,798.6080322265625,781.2820434570312
1314,794.5787353515625,796.1904907226562,795.7875366210938,783.6996459960938
1315,793.3699340820312,797.8021850585938,795.7875366210938,789.7435913085938
1316,801.8314819335938,797.8021850585938,793.7728881835938,788.1318969726562
1317,794.981689453125,794.1758422851562,798.6080322265625,788.5347900390625
1318,790.5494384765625,797.3992919921875,802.2344360351562,793.3699340820312
1319,799.010986328125,797.8021850585938,804.6520385742188,796.996337890625
1320,794.1758422851562,795.3846435546875,809.084228515625,796.1904907226562
1321,788.1318969726562,796.5933837890625,805.4578857421875,795.3846435546875
1322,790.952392578125,790.952392578125,801.4285888671875,799.010986328125
1323,796.1904907226562,789.3406372070312,798.2051391601562,796.996337890625
1324,794.5787353515625,790.5494384765625,798.2051391601562,793.3699340820312
1325,788.5347900390625,794.981689453125,796.5933837890625,792.5640869140625
1326,785.7142944335938,792.967041015625,792.1611938476562,795.3846435546875
1327,780.0732421875,788.1318969726562,791.7582397460938,792.967041015625
1328,774.4322509765625,788.1318969726562,789.7435913085938,781.6849975585938
1329,767.5823974609375,786.5201416015625,787.7289428710938,769.5970458984375
1330,769.1941528320312,786.5201416015625,790.1465454101562,769.5970458984375
1331,774.029296875,787.3259887695312,793.3699340820312,770.8058471679688
1332,772.0146484375,787.7289428710938,787.7289428710938,767.5823974609375
1333,774.029296875,785.3113403320312,788.5347900390625,768.7911987304688
1334,778.05859375,785.3113403320312,789.7435913085938,767.9853515625
1335,779.2673950195312,787.3259887695312,789.7435913085938,773.6264038085938
1336,786.923095703125,792.1611938476562,794.981689453125,780.879150390625
1337,787.7289428710938,794.1758422851562,796.1904907226562,782.4908447265625
1338,774.4322509765625,791.3552856445312,791.7582397460938,782.893798828125
1339,772.8204956054688,789.3406372070312,792.5640869140625,784.908447265625
1340,774.4322509765625,784.908447265625,795.3846435546875,784.5054931640625
1341,778.4615478515625,790.5494384765625,795.3846435546875,794.1758422851562
1342,787.7289428710938,796.5933837890625,797.8021850585938,801.4285888671875
1343,786.1171875,792.5640869140625,795.7875366210938,792.1611938476562
1344,784.1025390625,786.1171875,793.3699340820312,790.952392578125
1345,791.3552856445312,790.952392578125,795.3846435546875,789.7435913085938
1346,797.3992919921875,795.3846435546875,795.7875366210938,788.937744140625
1347,794.5787353515625,788.937744140625,797.8021850585938,790.1465454101562
1348,788.937744140625,786.923095703125,797.8021850585938,784.5054931640625
1349,789.7435913085938,787.7289428710938,792.5640869140625,787.7289428710938
1350,796.1904907226562,792.1611938476562,788.5347900390625,789.7435913085938
1351,802.2344360351562,793.7728881835938,785.7142944335938,782.4908447265625
1352,801.025634765625,786.5201416015625,784.1025390625,783.2966918945312
1353,794.5787353515625,784.1025390625,786.5201416015625,792.967041015625
1354,791.3552856445312,790.1465454101562,793.3699340820312,793.7728881835938
1355,793.3699340820312,789.3406372070312,796.5933837890625,790.1465454101562
1356,801.025634765625,787.7289428710938,796.1904907226562,795.3846435546875
1357,799.4139404296875,785.3113403320312,795.3846435546875,795.7875366210938
1358,794.981689453125,785.7142944335938,796.996337890625,788.937744140625
1359,789.7435913085938,794.981689453125,790.1465454101562,782.4908447265625
1360,782.4908447265625,791.3552856445312,791.3552856445312,786.1171875
1361,783.2966918945312,786.5201416015625,794.5787353515625,795.3846435546875
1362,788.5347900390625,794.1758422851562,794.1758422851562,796.996337890625
1363,791.7582397460938,795.7875366210938,803.8461303710938,794.981689453125
1364,793.3699340820312,791.3552856445312,809.4871826171875,796.996337890625
1365,793.7728881835938,791.7582397460938,805.8607788085938,798.6080322265625
1366,790.952392578125,786.1171875,798.6080322265625,786.5201416015625
1367,795.7875366210938,784.908447265625,797.8021850585938,786.923095703125
1368,796.1904907226562,791.7582397460938,799.4139404296875,785.7142944335938
1369,793.3699340820312,794.5787353515625,794.5787353515625,786.5201416015625
1370,789.7435913085938,788.5347900390625,790.5494384765625,789.7435913085938
1371,781.6849975585938,786.1171875,791.3552856445312,787.7289428710938
1372,784.908447265625,789.7435913085938,791.7582397460938,795.3846435546875
1373,788.937744140625,790.5494384765625,790.1465454101562,793.7728881835938
1374,782.893798828125,792.1611938476562,790.1465454101562,787.3259887695312
1375,784.908447265625,788.1318969726562,792.967041015625,790.1465454101562
1376,786.5201416015625,786.923095703125,794.981689453125,797.8021850585938
1377,788.1318969726562,789.7435913085938,795.7875366210938,797.8021850585938
1378,799.4139404296875,794.1758422851562,794.981689453125,796.996337890625
1379,798.2051391601562,793.3699340820312,787.7289428710938,792.5640869140625
1380,796.1904907226562,790.952392578125,788.1318969726562,788.1318969726562
1381,793.7728881835938,792.1611938476562,790.952392578125,790.5494384765625
1382,790.5494384765625,791.3552856445312,790.952392578125,789.3406372070312
1383,796.996337890625,786.1171875,792.5640869140625,790.5494384765625
1384,800.2197875976562,784.1025390625,794.1758422851562,788.5347900390625
1385,799.8168334960938,789.7435913085938,799.4139404296875,788.937744140625
1386,800.6226806640625,791.3552856445312,805.4578857421875,795.7875366210938
1387,805.8607788085938,793.7728881835938,809.084228515625,803.8461303710938
1388,811.5018310546875,797.8021850585938,806.6666870117188,808.6813354492188
1389,802.6373901367188,791.7582397460938,800.2197875976562,801.025634765625
1390,797.8021850585938,790.1465454101562,794.5787353515625,799.4139404296875
1391,801.025634765625,798.2051391601562,800.6226806640625,801.4285888671875
1392,797.3992919921875,796.5933837890625,801.8314819335938,797.3992919921875
1393,797.3992919921875,795.3846435546875,800.6226806640625,797.8021850585938
1394,799.010986328125,795.7875366210938,799.4139404296875,795.7875366210938
1395,792.5640869140625,792.1611938476562,793.3699340820312,790.1465454101562
1396,789.7435913085938,792.1611938476562,796.996337890625,790.952392578125
1397,791.3552856445312,797.8021850585938,799.8168334960938,796.1904907226562
1398,793.3699340820312,796.5933837890625,805.4578857421875,795.3846435546875
1399,789.7435913085938,792.967041015625,806.6666870117188,797.3992919921875
1400,782.4908447265625,794.981689453125,800.2197875976562,796.996337890625
1401,781.6849975585938,793.7728881835938,796.5933837890625,786.1171875
1402,781.2820434570312,791.3552856445312,791.7582397460938,784.1025390625
1403,782.4908447265625,789.3406372070312,789.7435913085938,788.1318969726562
1404,785.7142944335938,788.937744140625,790.952392578125,792.1611938476562
1405,784.1025390625,788.937744140625,791.7582397460938,789.3406372070312
1406,781.2820434570312,783.6996459960938,793.3699340820312,784.1025390625
1407,784.5054931640625,783.6996459960938,794.5787353515625,788.5347900390625
1408,786.5201416015625,792.1611938476562,790.952392578125,784.908447265625
1409,792.1611938476562,789.7435913085938,788.1318969726562,774.029296875
1410,794.1758422851562,789.3406372070312,791.3552856445312,776.0439453125
1411,784.1025390625,792.5640869140625,790.952392578125,779.2673950195312
1412,787.3259887695312,795.3846435546875,790.952392578125,782.4908447265625
1413,800.6226806640625,795.7875366210938,794.981689453125,787.3259887695312
1414,800.2197875976562,795.7875366210938,795.7875366210938,784.908447265625
1415,788.1318969726562,794.981689453125,794.1758422851562,783.6996459960938
1416,788.1318969726562,794.5787353515625,791.3552856445312,780.0732421875
1417,792.5640869140625,797.3992919921875,786.1171875,779.2673950195312
1418,792.1611938476562,793.3699340820312,786.5201416015625,783.6996459960938
1419,784.908447265625,786.923095703125,786.923095703125,781.6849975585938
1420,781.2820434570312,787.3259887695312,784.5054931640625,785.3113403320312
1421,784.908447265625,791.3552856445312,790.5494384765625,795.7875366210938
1422,784.5054931640625,790.952392578125,790.952392578125,802.2344360351562
1423,780.879150390625,788.937744140625,788.1318969726562,797.8021850585938
1424,786.923095703125,791.3552856445312,790.1465454101562,791.7582397460938
1425,794.1758422851562,792.967041015625,789.7435913085938,792.1611938476562
1426,791.3552856445312,792.1611938476562,790.1465454101562,790.1465454101562
1427,788.937744140625,795.7875366210938,792.967041015625,789.3406372070312
1428,789.3406372070312,795.3846435546875,790.1465454101562,789.3406372070312
1429,798.2051391601562,790.952392578125,791.7582397460938,798.6080322265625
1430,801.4285888671875,788.937744140625,788.937744140625,801.025634765625
1431,791.3552856445312,789.3406372070312,784.1025390625,795.3846435546875
1432,790.952392578125,790.5494384765625,785.3113403320312,793.3699340820312
1433,799.010986328125,793.7728881835938,786.923095703125,795.3846435546875
1434,804.6520385742188,796.1904907226562,791.7582397460938,801.4285888671875
1435,800.6226806640625,798.2051391601562,794.981689453125,798.2051391601562
1436,793.3699340820312,792.967041015625,795.3846435546875,792.1611938476562
1437,787.7289428710938,786.5201416015625,794.5787353515625,793.7728881835938
1438,797.3992919921875,788.1318969726562,795.3846435546875,796.5933837890625
1439,800.6226806640625,792.5640869140625,792.5640869140625,791.7582397460938
1440,793.3699340820312,792.5640869140625,786.5201416015625,791.3552856445312
1441,790.1465454101562,790.5494384765625,786.5201416015625,788.1318969726562
1442,784.1025390625,793.7728881835938,788.5347900390625,785.7142944335938
1443,786.1171875,791.3552856445312,794.981689453125,787.7289428710938
1444,794.981689453125,787.7289428710938,799.010986328125,793.7728881835938
1445,791.7582397460938,792.967041015625,800.6226806640625,791.3552856445312
1446,784.1025390625,790.1465454101562,801.025634765625,782.087890625
1447,776.0439453125,786.5201416015625,798.2051391601562,781.6849975585938
1448,772.0146484375,785.3113403320312,795.7875366210938,780.879150390625
1449,781.6849975585938,784.5054931640625,794.981689453125,794.1758422851562
1450,780.879150390625,785.3113403320312,795.3846435546875,797.8021850585938
1451,774.8351440429688,788.1318969726562,793.3699340820312,785.3113403320312
1452,777.2527465820312,785.3113403320312,791.7582397460938,787.3259887695312
1453,781.6849975585938,784.5054931640625,792.5640869140625,788.5347900390625
1454,788.937744140625,784.908447265625,793.3699340820312,792.967041015625
1455,794.5787353515625,788.1318969726562,796.1904907226562,799.8168334960938
1456,792.1611938476562,794.1758422851562,798.2051391601562,796.5933837890625
1457,791.3552856445312,788.937744140625,796.1904907226562,799.4139404296875
1458,789.7435913085938,787.3259887695312,792.967041015625,799.8168334960938
1459,786.5201416015625,791.3552856445312,799.4139404296875,795.3846435546875
1460,792.1611938476562,790.952392578125,799.010986328125,795.7875366210938
1461,790.952392578125,786.923095703125,796.5933837890625,791.3552856445312
1462,783.2966918945312,783.6996459960938,798.6080322265625,782.893798828125
1463,788.1318969726562,782.893798828125,797.8021850585938,788.1318969726562
1464,792.967041015625,785.7142944335938,798.6080322265625,793.7728881835938
1465,798.2051391601562,789.7435913085938,802.6373901367188,797.8021850585938
1466,803.4432373046875,793.3699340820312,808.2783813476562,798.2051391601562
1467,796.996337890625,794.1758422851562,805.4578857421875,792.1611938476562
1468,794.5787353515625,790.952392578125,800.2197875976562,788.1318969726562
1469,795.3846435546875,791.3552856445312,802.2344360351562,792.967041015625
1470,783.6996459960938,797.8021850585938,800.2197875976562,797.8021850585938
1471,774.4322509765625,797.8021850585938,805.054931640625,799.010986328125
1472,776.0439453125,799.010986328125,807.069580078125,794.5787353515625
1473,778.05859375,803.8461303710938,800.6226806640625,789.3406372070312
1474,779.6703491210938,803.040283203125,801.8314819335938,786.923095703125
1475,790.952392578125,800.6226806640625,803.4432373046875,790.5494384765625
1476,792.5640869140625,800.6226806640625,798.2051391601562,790.1465454101562
1477,783.6996459960938,798.6080322265625,795.3846435546875,783.6996459960938
1478,787.3259887695312,792.1611938476562,791.3552856445312,784.5054931640625
1479,794.1758422851562,788.1318969726562,794.981689453125,792.967041015625
1480,799.010986328125,792.5640869140625,799.010986328125,803.4432373046875
1481,801.8314819335938,797.8021850585938,795.7875366210938,805.4578857421875
1482,795.7875366210938,799.8168334960938,796.5933837890625,790.952392578125
1483,795.7875366210938,798.6080322265625,798.6080322265625,786.1171875
1484,801.4285888671875,795.7875366210938,799.010986328125,800.6226806640625
1485,803.8461303710938,797.8021850585938,795.7875366210938,798.6080322265625
1486,806.6666870117188,799.8168334960938,791.7582397460938,792.5640869140625
1487,801.025634765625,794.981689453125,792.967041015625,789.3406372070312
1488,794.5787353515625,794.1758422851562,790.952392578125,784.908447265625
1489,791.3552856445312,792.967041015625,790.5494384765625,781.6849975585938
1490,790.5494384765625,790.5494384765625,794.981689453125,783.6996459960938
1491,795.3846435546875,792.5640869140625,797.8021850585938,786.1171875
1492,803.4432373046875,795.7875366210938,797.8021850585938,786.923095703125
1493,800.6226806640625,794.5787353515625,794.1758422851562,783.2966918945312
1494,796.996337890625,792.5640869140625,794.1758422851562,779.2673950195312
1495,802.6373901367188,796.996337890625,799.010986328125,791.3552856445312
1496,795.7875366210938,801.4285888671875,796.996337890625,793.7728881835938
1497,791.3552856445312,802.2344360351562,794.1758422851562,785.3113403320312
1498,796.5933837890625,796.5933837890625,795.7875366210938,788.5347900390625
1499,797.8021850585938,794.1758422851562,796.5933837890625,791.3552856445312
1500,802.2344360351562,799.010986328125,794.981689453125,793.3699340820312
1501,807.87548828125,799.4139404296875,795.3846435546875,794.981689453125
1502,801.4285888671875,797.3992919921875,796.1904907226562,790.1465454101562
1503,791.7582397460938,792.1611938476562,793.7728881835938,781.2820434570312
1504,793.7728881835938,791.7582397460938,794.981689453125,785.7142944335938
1505,797.8021850585938,791.3552856445312,795.3846435546875,793.3699340820312
1506,799.4139404296875,792.5640869140625,794.1758422851562,797.3992919921875
1507,798.6080322265625,795.3846435546875,793.3699340820312,801.8314819335938
1508,789.7435913085938,793.7728881835938,796.996337890625,792.5640869140625
1509,790.1465454101562,793.3699340820312,800.2197875976562,791.7582397460938
1510,794.981689453125,795.7875366210938,800.2197875976562,796.996337890625
1511,797.3992919921875,797.8021850585938,797.3992919921875,794.1758422851562
1512,799.4139404296875,794.1758422851562,796.1904907226562,790.5494384765625
1513,792.5640869140625,785.7142944335938,794.5787353515625,786.5201416015625
1514,795.7875366210938,788.937744140625,794.1758422851562,794.1758422851562
1515,793.7728881835938,796.5933837890625,790.952392578125,794.1758422851562
1516,789.7435913085938,797.8021850585938,789.3406372070312,787.7289428710938
1517,792.1611938476562,796.1904907226562,789.3406372070312,783.6996459960938
1518,789.3406372070312,794.5787353515625,788.1318969726562,784.908447265625
1519,788.5347900390625,794.5787353515625,791.7582397460938,787.3259887695312
1520,789.7435913085938,792.967041015625,790.952392578125,779.2673950195312
1521,793.7728881835938,793.3699340820312,792.1611938476562,781.2820434570312
1522,797.8021850585938,794.5787353515625,796.1904907226562,785.7142944335938
1523,792.5640869140625,793.7728881835938,798.6080322265625,787.3259887695312
1524,780.4761962890625,796.996337890625,798.2051391601562,787.7289428710938
1525,779.2673950195312,799.4139404296875,799.4139404296875,792.5640869140625
1526,790.952392578125,797.8021850585938,799.010986328125,793.3699340820312
1527,787.7289428710938,795.7875366210938,797.8021850585938,786.923095703125
1528,777.6557006835938,794.5787353515625,799.010986328125,784.908447265625
1529,774.029296875,788.1318969726562,795.3846435546875,786.1171875
1530,774.4322509765625,781.2820434570312,792.967041015625,790.952392578125
1531,782.087890625,788.937744140625,794.981689453125,781.6849975585938
1532,784.5054931640625,791.7582397460938,796.996337890625,776.8497924804688
1533,779.2673950195312,792.967041015625,796.996337890625,787.7289428710938
1534,777.6557006835938,797.8021850585938,799.8168334960938,790.5494384765625
1535,785.7142944335938,794.5787353515625,801.8314819335938,786.1171875
1536,793.3699340820312,792.5640869140625,805.4578857421875,788.5347900390625
1537,790.5494384765625,798.2051391601562,803.8461303710938,789.3406372070312
1538,788.5347900390625,799.4139404296875,796.1904907226562,787.7289428710938
1539,789.3406372070312,797.8021850585938,795.7875366210938,789.7435913085938
1540,786.923095703125,795.7875366210938,795.7875366210938,785.3113403320312
1541,786.923095703125,796.1904907226562,792.967041015625,789.3406372070312
1542,790.952392578125,797.3992919921875,793.7728881835938,792.967041015625
1543,790.952392578125,792.5640869140625,792.967041015625,785.3113403320312
1544,792.5640869140625,794.5787353515625,791.3552856445312,786.1171875
1545,789.3406372070312,795.7875366210938,793.3699340820312,788.1318969726562
1546,786.5201416015625,790.5494384765625,794.981689453125,788.937744140625
1547,789.7435913085938,793.7728881835938,797.3992919921875,788.5347900390625
1548,789.3406372070312,795.7875366210938,798.6080322265625,787.7289428710938
1549,785.3113403320312,795.3846435546875,792.967041015625,785.3113403320312
1550,778.8644409179688,793.7728881835938,789.3406372070312,787.3259887695312
1551,781.2820434570312,791.3552856445312,788.1318969726562,787.7289428710938
1552,792.967041015625,792.5640869140625,789.7435913085938,789.7435913085938
1553,794.981689453125,794.1758422851562,790.5494384765625,794.981689453125
1554,796.1904907226562,794.5787353515625,790.5494384765625,790.952392578125
1555,791.3552856445312,792.967041015625,792.1611938476562,787.7289428710938
1556,788.937744140625,790.952392578125,790.5494384765625,794.981689453125
1557,795.7875366210938,794.981689453125,788.5347900390625,804.6520385742188
1558,793.3699340820312,797.3992919921875,789.3406372070312,800.2197875976562
1559,793.3699340820312,794.1758422851562,794.1758422851562,791.3552856445312
1560,794.981689453125,787.7289428710938,792.967041015625,784.5054931640625
1561,800.6226806640625,785.7142944335938,792.5640869140625,783.2966918945312
1562,803.040283203125,790.1465454101562,796.1904907226562,787.3259887695312
1563,796.1904907226562,792.5640869140625,797.3992919921875,790.5494384765625
1564,793.7728881835938,797.3992919921875,798.2051391601562,788.5347900390625
1565,798.6080322265625,802.2344360351562,798.6080322265625,785.7142944335938
1566,804.2490844726562,802.2344360351562,799.4139404296875,792.967041015625
1567,795.3846435546875,795.7875366210938,800.2197875976562,791.3552856445312
1568,782.4908447265625,795.7875366210938,799.010986328125,793.3699340820312
1569,777.2527465820312,796.5933837890625,796.1904907226562,792.5640869140625
1570,776.0439453125,791.3552856445312,794.981689453125,780.0732421875
1571,776.4468994140625,787.3259887695312,792.5640869140625,774.4322509765625
1572,778.4615478515625,787.3259887695312,792.1611938476562,770.0
1573,784.908447265625,788.937744140625,792.967041015625,771.6116943359375
1574,784.908447265625,783.6996459960938,791.3552856445312,773.2234497070312
1575,781.6849975585938,789.3406372070312,789.3406372070312,772.4176025390625
1576,791.7582397460938,796.5933837890625,792.1611938476562,779.2673950195312
1577,792.5640869140625,787.7289428710938,792.1611938476562,780.879150390625
1578,790.952392578125,785.3113403320312,793.3699340820312,779.2673950195312
1579,785.7142944335938,788.937744140625,795.3846435546875,778.8644409179688
1580,779.2673950195312,788.1318969726562,798.2051391601562,786.1171875
1581,784.908447265625,792.967041015625,800.6226806640625,789.3406372070312
1582,788.1318969726562,795.3846435546875,798.2051391601562,790.1465454101562
1583,791.7582397460938,794.981689453125,798.6080322265625,791.7582397460938
1584,800.6226806640625,799.4139404296875,801.8314819335938,794.5787353515625
1585,801.025634765625,798.6080322265625,796.996337890625,794.1758422851562
1586,798.2051391601562,796.996337890625,793.7728881835938,790.952392578125
