timestamp,RAW_TP9,RAW_AF7,RAW_AF8,RAW_TP10
1,787.3259887695312,793.7728881835938,792.5640869140625,776.4468994140625
2,786.5201416015625,794.5787353515625,786.923095703125,772.4176025390625
3,783.6996459960938,792.967041015625,787.3259887695312,771.2088012695312
4,785.3113403320312,793.7728881835938,788.937744140625,775.6410522460938
5,789.3406372070312,793.7728881835938,788.1318969726562,787.7289428710938
6,786.5201416015625,793.7728881835938,788.1318969726562,785.3113403320312
7,780.879150390625,794.5787353515625,790.952392578125,780.0732421875
8,785.7142944335938,791.3552856445312,791.7582397460938,790.5494384765625
9,784.5054931640625,786.1171875,790.952392578125,797.3992919921875
10,774.4322509765625,783.6996459960938,790.952392578125,794.5787353515625
11,777.6557006835938,784.1025390625,792.5640869140625,788.5347900390625
12,782.893798828125,785.3113403320312,796.996337890625,790.5494384765625
13,780.879150390625,788.1318969726562,796.996337890625,794.5787353515625
14,783.2966918945312,788.5347900390625,795.3846435546875,787.7289428710938
15,798.6080322265625,792.1611938476562,794.981689453125,787.7289428710938
16,800.6226806640625,795.3846435546875,796.996337890625,795.7875366210938
17,789.3406372070312,788.5347900390625,799.8168334960938,797.3992919921875
18,791.3552856445312,790.952392578125,799.8168334960938,797.8021850585938
19,795.7875366210938,803.4432373046875,805.4578857421875,795.7875366210938
20,797.8021850585938,803.8461303710938,802.2344360351562,794.1758422851562
21,780.0732421875,801.025634765625,792.967041015625,786.1171875
22,777.6557006835938,811.098876953125,799.4139404296875,778.05859375
23,792.1611938476562,818.3516235351562,796.996337890625,779.6703491210938
24,776.8497924804688,811.90478515625,785.3113403320312,765.5677490234375
25,757.912109375,816.7399291992188,784.1025390625,746.6300659179688
26,757.912109375,833.2600708007812,784.908447265625,740.1831665039062
27,760.3296508789062,850.5860595703125,787.7289428710938,740.5860595703125
28,739.3773193359375,853.003662109375,781.2820434570312,733.3333129882812
29,723.6630249023438,853.8095092773438,778.05859375,724.06591796875
30,726.4835205078125,864.6886596679688,779.6703491210938,725.2747192382812
31,713.5897216796875,869.9267578125,774.4322509765625,714.3956298828125
32,709.5604248046875,876.7765502929688,773.6264038085938,711.5750732421875
33,711.5750732421875,882.4176025390625,771.6116943359375,705.1282348632812
34,698.6813354492188,880.8058471679688,777.6557006835938,686.996337890625
35,703.113525390625,878.3883056640625,779.6703491210938,692.2344360351562
36,700.6959838867188,880.8058471679688,778.4615478515625,697.4725341796875
37,697.069580078125,881.6116943359375,781.6849975585938,690.2197875976562
38,699.4871826171875,874.7619018554688,778.4615478515625,691.8314819335938
39,694.2490844726562,871.1355590820312,778.8644409179688,695.054931640625
40,697.069580078125,869.5238037109375,783.6996459960938,700.6959838867188
41,706.3369750976562,864.2857055664062,783.6996459960938,711.97802734375
42,718.02197265625,863.4798583984375,783.6996459960938,707.94873046875
43,724.06591796875,862.2710571289062,784.908447265625,711.97802734375
44,730.915771484375,860.6593627929688,782.4908447265625,730.5128173828125
45,731.7216186523438,852.1978149414062,780.0732421875,742.1978149414062
46,732.930419921875,842.930419921875,782.893798828125,739.3773193359375
47,738.5714111328125,834.4688720703125,786.923095703125,742.6007080078125
48,742.6007080078125,830.03662109375,785.3113403320312,746.6300659179688
49,756.7033081054688,826.00732421875,782.4908447265625,755.8974609375
50,770.8058471679688,817.94873046875,786.1171875,763.9560546875
51,773.2234497070312,811.098876953125,791.3552856445312,767.5823974609375
52,774.4322509765625,803.040283203125,788.5347900390625,774.8351440429688
53,780.0732421875,790.952392578125,789.3406372070312,784.5054931640625
54,788.937744140625,786.1171875,787.7289428710938,799.010986328125
55,790.1465454101562,784.908447265625,789.3406372070312,810.6959838867188
56,786.5201416015625,778.4615478515625,795.7875366210938,806.6666870117188
57,798.6080322265625,774.8351440429688,793.3699340820312,805.4578857421875
58,813.113525390625,772.0146484375,794.5787353515625,824.7985229492188
59,805.4578857421875,769.5970458984375,793.7728881835938,826.00732421875
60,808.2783813476562,766.7765502929688,790.952392578125,822.3809814453125
61,817.5457763671875,763.1502075195312,788.5347900390625,826.8131713867188
62,816.3369750976562,757.106201171875,788.1318969726562,826.8131713867188
63,821.1721801757812,759.9267578125,790.952392578125,829.2307739257812
64,827.2161254882812,766.7765502929688,795.3846435546875,831.6483764648438
65,832.4542236328125,763.5531005859375,797.3992919921875,833.2600708007812
66,832.05126953125,759.5238037109375,794.1758422851562,829.6337280273438
67,830.03662109375,760.7326049804688,798.2051391601562,831.6483764648438
68,834.8717651367188,759.5238037109375,801.4285888671875,832.4542236328125
69,839.3040161132812,758.3150024414062,793.3699340820312,831.6483764648438
70,838.09521484375,759.9267578125,794.5787353515625,843.3333129882812
71,836.4835205078125,759.120849609375,802.6373901367188,846.1538696289062
72,843.3333129882812,758.3150024414062,803.040283203125,838.09521484375
73,853.4066162109375,761.5384521484375,803.4432373046875,838.901123046875
74,847.7655639648438,764.7619018554688,808.6813354492188,844.945068359375
75,834.06591796875,768.3883056640625,811.098876953125,843.7362670898438
76,830.4395751953125,768.7911987304688,805.4578857421875,832.05126953125
77,829.2307739257812,759.9267578125,800.2197875976562,823.99267578125
78,818.3516235351562,754.6886596679688,798.6080322265625,824.3956298828125
79,811.5018310546875,760.3296508789062,800.6226806640625,826.00732421875
80,815.5311279296875,764.3589477539062,801.025634765625,820.3662719726562
81,817.5457763671875,766.7765502929688,798.6080322265625,817.5457763671875
82,821.97802734375,771.2088012695312,801.8314819335938,825.6043701171875
83,825.6043701171875,773.6264038085938,800.2197875976562,822.7838745117188
84,825.2014770507812,776.0439453125,796.1904907226562,819.96337890625
85,822.7838745117188,779.2673950195312,798.2051391601562,821.5750732421875
86,815.5311279296875,774.8351440429688,795.3846435546875,815.5311279296875
87,816.7399291992188,770.4029541015625,793.7728881835938,810.6959838867188
88,816.7399291992188,772.8204956054688,793.7728881835938,810.6959838867188
89,817.94873046875,776.4468994140625,791.3552856445312,821.1721801757812
90,822.3809814453125,776.0439453125,796.1904907226562,826.00732421875
91,819.96337890625,772.4176025390625,794.1758422851562,809.4871826171875
92,819.5604248046875,772.8204956054688,792.5640869140625,807.87548828125
93,819.5604248046875,776.0439453125,794.1758422851562,819.96337890625
94,815.93408203125,779.2673950195312,789.7435913085938,814.3223266601562
95,816.7399291992188,781.2820434570312,787.7289428710938,806.2637329101562
96,823.99267578125,778.4615478515625,792.1611938476562,807.4725341796875
97,815.1282348632812,775.2380981445312,793.3699340820312,809.4871826171875
98,799.8168334960938,776.0439453125,793.7728881835938,803.040283203125
99,810.6959838867188,778.8644409179688,796.996337890625,800.2197875976562
100,814.7252807617188,779.6703491210938,794.981689453125,803.4432373046875
101,809.4871826171875,776.4468994140625,789.3406372070312,799.4139404296875
102,809.89013671875,772.4176025390625,789.7435913085938,798.2051391601562
103,800.6226806640625,776.8497924804688,792.5640869140625,799.8168334960938
104,796.5933837890625,779.6703491210938,791.3552856445312,799.010986328125
105,800.2197875976562,780.4761962890625,792.967041015625,801.025634765625
106,795.7875366210938,788.5347900390625,794.5787353515625,802.2344360351562
107,788.1318969726562,786.923095703125,796.996337890625,799.8168334960938
108,788.1318969726562,781.6849975585938,797.3992919921875,799.8168334960938
109,795.7875366210938,783.2966918945312,800.2197875976562,803.8461303710938
110,799.8168334960938,785.3113403320312,796.996337890625,796.1904907226562
111,804.6520385742188,785.7142944335938,792.1611938476562,789.7435913085938
112,804.2490844726562,784.5054931640625,795.3846435546875,793.3699340820312
113,801.4285888671875,785.7142944335938,794.981689453125,794.1758422851562
114,813.5164794921875,788.5347900390625,794.5787353515625,793.7728881835938
115,826.4102783203125,788.1318969726562,796.1904907226562,799.010986328125
116,813.113525390625,788.5347900390625,796.5933837890625,803.4432373046875
117,792.967041015625,792.5640869140625,794.5787353515625,795.3846435546875
118,794.5787353515625,794.5787353515625,797.3992919921875,788.937744140625
119,799.010986328125,796.996337890625,798.2051391601562,794.1758422851562
120,798.6080322265625,799.4139404296875,795.7875366210938,796.5933837890625
121,800.6226806640625,801.025634765625,798.6080322265625,797.3992919921875
122,806.2637329101562,799.8168334960938,803.040283203125,801.4285888671875
123,806.2637329101562,794.1758422851562,800.6226806640625,800.6226806640625
124,796.1904907226562,789.3406372070312,795.7875366210938,799.010986328125
125,797.8021850585938,794.1758422851562,796.5933837890625,803.4432373046875
126,800.6226806640625,805.054931640625,798.6080322265625,803.040283203125
127,796.1904907226562,803.040283203125,794.1758422851562,796.996337890625
128,798.6080322265625,795.3846435546875,791.3552856445312,795.3846435546875
129,794.1758422851562,789.7435913085938,789.3406372070312,788.5347900390625
130,788.937744140625,791.3552856445312,784.5054931640625,787.3259887695312
131,787.7289428710938,794.1758422851562,784.908447265625,786.923095703125
132,779.2673950195312,793.3699340820312,786.923095703125,783.2966918945312
133,774.4322509765625,793.3699340820312,788.937744140625,784.1025390625
134,774.8351440429688,790.5494384765625,790.5494384765625,782.893798828125
135,780.0732421875,790.5494384765625,789.3406372070312,785.3113403320312
136,781.6849975585938,788.937744140625,789.7435913085938,788.1318969726562
137,779.2673950195312,787.7289428710938,790.1465454101562,788.937744140625
138,778.05859375,786.923095703125,790.952392578125,786.923095703125
139,781.2820434570312,782.893798828125,791.3552856445312,790.952392578125
140,788.5347900390625,784.908447265625,792.967041015625,792.1611938476562
141,789.7435913085938,791.7582397460938,796.996337890625,788.1318969726562
142,789.3406372070312,794.981689453125,796.1904907226562,785.3113403320312
143,792.5640869140625,794.5787353515625,795.3846435546875,786.1171875
144,792.5640869140625,794.1758422851562,797.3992919921875,789.3406372070312
145,798.2051391601562,796.5933837890625,798.6080322265625,790.1465454101562
146,802.6373901367188,799.4139404296875,796.996337890625,794.981689453125
147,804.2490844726562,799.8168334960938,793.3699340820312,793.7728881835938
148,801.8314819335938,799.4139404296875,794.5787353515625,795.7875366210938
149,799.8168334960938,796.996337890625,794.5787353515625,796.1904907226562
150,803.040283203125,790.952392578125,788.1318969726562,791.3552856445312
151,792.967041015625,792.5640869140625,789.3406372070312,791.3552856445312
152,782.087890625,794.5787353515625,792.967041015625,787.3259887695312
153,784.908447265625,788.5347900390625,790.952392578125,785.7142944335938
154,780.4761962890625,786.5201416015625,786.923095703125,786.1171875
155,785.7142944335938,794.5787353515625,787.3259887695312,790.1465454101562
156,796.5933837890625,798.6080322265625,796.5933837890625,792.5640869140625
157,795.3846435546875,796.5933837890625,798.6080322265625,790.952392578125
158,793.3699340820312,794.1758422851562,795.3846435546875,789.7435913085938
159,798.2051391601562,794.1758422851562,800.6226806640625,790.5494384765625
160,795.3846435546875,798.2051391601562,796.5933837890625,790.952392578125
161,794.5787353515625,798.2051391601562,791.7582397460938,794.1758422851562
162,794.1758422851562,793.7728881835938,790.5494384765625,791.7582397460938
163,787.3259887695312,795.3846435546875,788.937744140625,792.967041015625
164,785.3113403320312,798.6080322265625,792.1611938476562,804.6520385742188
165,790.952392578125,792.967041015625,794.5787353515625,797.3992919921875
166,793.7728881835938,791.7582397460938,794.5787353515625,795.3846435546875
167,786.5201416015625,798.2051391601562,790.1465454101562,797.8021850585938
168,781.6849975585938,795.3846435546875,786.5201416015625,788.5347900390625
169,787.7289428710938,791.7582397460938,791.3552856445312,790.5494384765625
170,794.1758422851562,791.7582397460938,789.7435913085938,794.1758422851562
171,794.981689453125,794.1758422851562,790.952392578125,798.2051391601562
172,795.7875366210938,798.6080322265625,794.981689453125,800.2197875976562
173,796.996337890625,800.2197875976562,792.5640869140625,796.1904907226562
174,794.981689453125,796.5933837890625,796.1904907226562,788.5347900390625
175,790.5494384765625,792.967041015625,794.1758422851562,780.879150390625
176,790.952392578125,790.952392578125,792.1611938476562,784.1025390625
177,794.981689453125,787.3259887695312,795.3846435546875,789.3406372070312
178,794.981689453125,792.5640869140625,799.010986328125,788.937744140625
179,789.3406372070312,802.6373901367188,801.4285888671875,788.937744140625
180,785.7142944335938,800.6226806640625,798.2051391601562,790.1465454101562
181,791.3552856445312,799.4139404296875,798.6080322265625,789.3406372070312
182,789.7435913085938,792.1611938476562,794.1758422851562,791.3552856445312
183,781.6849975585938,786.1171875,787.7289428710938,790.1465454101562
184,780.879150390625,790.952392578125,788.1318969726562,790.952392578125
185,784.1025390625,792.967041015625,793.7728881835938,800.6226806640625
186,782.893798828125,790.5494384765625,792.5640869140625,804.2490844726562
187,783.2966918945312,788.5347900390625,788.5347900390625,799.8168334960938
188,789.7435913085938,792.967041015625,788.937744140625,793.3699340820312
189,791.7582397460938,795.7875366210938,790.5494384765625,792.5640869140625
190,790.952392578125,795.7875366210938,789.7435913085938,790.5494384765625
191,797.3992919921875,793.3699340820312,792.5640869140625,788.937744140625
192,803.4432373046875,796.5933837890625,793.7728881835938,798.2051391601562
193,798.2051391601562,801.4285888671875,792.1611938476562,798.6080322265625
194,797.8021850585938,801.025634765625,796.5933837890625,794.981689453125
195,793.7728881835938,798.6080322265625,793.3699340820312,791.7582397460938
196,789.7435913085938,794.981689453125,790.952392578125,792.5640869140625
197,795.3846435546875,794.981689453125,788.5347900390625,796.5933837890625
198,796.5933837890625,796.996337890625,786.923095703125,796.1904907226562
199,794.981689453125,796.1904907226562,794.981689453125,797.8021850585938
200,794.5787353515625,796.996337890625,796.1904907226562,800.2197875976562
201,791.7582397460938,790.952392578125,792.5640869140625,801.025634765625
202,795.3846435546875,787.7289428710938,787.3259887695312,790.5494384765625
203,792.5640869140625,789.3406372070312,787.7289428710938,786.923095703125
204,778.8644409179688,791.3552856445312,790.952392578125,789.7435913085938
205,776.8497924804688,796.1904907226562,792.1611938476562,787.7289428710938
206,781.6849975585938,798.2051391601562,792.1611938476562,788.1318969726562
207,783.2966918945312,793.3699340820312,789.3406372070312,783.6996459960938
208,784.5054931640625,792.5640869140625,788.937744140625,779.2673950195312
209,780.0732421875,790.1465454101562,786.5201416015625,778.4615478515625
210,773.2234497070312,791.7582397460938,784.908447265625,776.8497924804688
211,779.6703491210938,794.1758422851562,790.1465454101562,782.893798828125
212,790.5494384765625,788.937744140625,788.5347900390625,787.7289428710938
213,798.6080322265625,792.5640869140625,787.3259887695312,785.3113403320312
214,799.4139404296875,790.952392578125,790.1465454101562,781.2820434570312
215,794.981689453125,791.3552856445312,786.1171875,778.8644409179688
216,795.7875366210938,796.1904907226562,787.7289428710938,787.7289428710938
217,795.3846435546875,796.5933837890625,787.3259887695312,791.7582397460938
218,794.1758422851562,796.5933837890625,780.879150390625,786.923095703125
219,791.3552856445312,794.5787353515625,784.1025390625,788.5347900390625
220,787.3259887695312,790.952392578125,788.1318969726562,791.7582397460938
221,782.4908447265625,790.1465454101562,786.923095703125,795.3846435546875
222,782.087890625,792.967041015625,789.7435913085938,794.5787353515625
223,786.923095703125,796.5933837890625,792.1611938476562,797.8021850585938
224,784.1025390625,794.5787353515625,789.3406372070312,798.2051391601562
225,784.908447265625,794.981689453125,786.923095703125,791.3552856445312
226,787.3259887695312,799.010986328125,783.6996459960938,792.1611938476562
227,787.3259887695312,794.981689453125,784.1025390625,796.996337890625
228,790.5494384765625,790.952392578125,784.5054931640625,795.3846435546875
229,791.7582397460938,790.5494384765625,784.1025390625,792.5640869140625
230,788.937744140625,788.937744140625,785.3113403320312,790.5494384765625
231,787.3259887695312,790.1465454101562,786.5201416015625,787.7289428710938
232,792.967041015625,792.1611938476562,785.3113403320312,787.7289428710938
233,788.5347900390625,791.7582397460938,783.2966918945312,785.7142944335938
234,780.879150390625,790.5494384765625,783.6996459960938,782.087890625
235,785.7142944335938,791.3552856445312,784.908447265625,788.5347900390625
236,780.879150390625,793.7728881835938,784.1025390625,790.952392578125
237,774.029296875,791.7582397460938,785.7142944335938,784.1025390625
238,779.2673950195312,791.7582397460938,788.1318969726562,782.087890625
239,783.6996459960938,797.3992919921875,788.5347900390625,782.087890625
240,784.908447265625,803.040283203125,787.3259887695312,783.2966918945312
241,787.7289428710938,800.6226806640625,789.7435913085938,784.1025390625
242,791.7582397460938,797.8021850585938,790.1465454101562,784.908447265625
243,795.3846435546875,800.2197875976562,786.5201416015625,788.937744140625
244,800.2197875976562,797.8021850585938,785.3113403320312,785.3113403320312
245,795.7875366210938,794.1758422851562,785.7142944335938,780.879150390625
246,794.1758422851562,795.3846435546875,786.1171875,786.923095703125
247,794.5787353515625,792.5640869140625,782.087890625,788.1318969726562
248,797.3992919921875,792.1611938476562,782.087890625,790.1465454101562
249,795.3846435546875,794.1758422851562,782.4908447265625,791.7582397460938
250,782.4908447265625,793.7728881835938,778.05859375,792.5640869140625
251,774.8351440429688,790.952392578125,777.2527465820312,790.1465454101562
252,771.6116943359375,791.7582397460938,780.879150390625,785.3113403320312
253,778.05859375,794.1758422851562,786.5201416015625,791.3552856445312
254,786.1171875,793.7728881835938,788.937744140625,796.5933837890625
255,787.3259887695312,793.7728881835938,790.5494384765625,792.5640869140625
256,785.3113403320312,794.981689453125,788.1318969726562,788.937744140625
257,789.7435913085938,795.3846435546875,785.3113403320312,792.1611938476562
258,791.3552856445312,793.3699340820312,786.1171875,790.952392578125
259,785.3113403320312,794.1758422851562,785.7142944335938,791.7582397460938
260,782.4908447265625,789.7435913085938,780.4761962890625,791.3552856445312
261,783.2966918945312,786.923095703125,784.1025390625,787.3259887695312
262,784.1025390625,788.937744140625,788.937744140625,792.5640869140625
263,789.3406372070312,789.7435913085938,785.3113403320312,798.6080322265625
264,798.2051391601562,791.3552856445312,786.923095703125,797.8021850585938
265,792.1611938476562,789.3406372070312,785.7142944335938,794.1758422851562
266,788.937744140625,790.952392578125,783.2966918945312,796.5933837890625
267,790.5494384765625,790.5494384765625,784.1025390625,796.5933837890625
268,795.7875366210938,790.952392578125,782.4908447265625,794.1758422851562
269,807.87548828125,794.5787353515625,780.879150390625,794.981689453125
270,809.4871826171875,790.952392578125,779.6703491210938,792.5640869140625
271,800.6226806640625,789.3406372070312,779.6703491210938,788.937744140625
272,789.7435913085938,787.7289428710938,778.05859375,785.3113403320312
273,787.3259887695312,787.7289428710938,781.2820434570312,795.3846435546875
274,786.923095703125,788.937744140625,784.5054931640625,801.4285888671875
275,778.4615478515625,784.5054931640625,785.3113403320312,789.3406372070312
276,782.893798828125,781.6849975585938,784.1025390625,791.7582397460938
277,788.5347900390625,778.05859375,788.937744140625,797.3992919921875
278,786.5201416015625,781.6849975585938,791.7582397460938,799.8168334960938
279,785.3113403320312,786.923095703125,792.1611938476562,804.6520385742188
280,781.6849975585938,785.3113403320312,790.5494384765625,796.5933837890625
281,782.893798828125,788.5347900390625,787.3259887695312,796.1904907226562
282,784.5054931640625,792.5640869140625,788.5347900390625,794.5787353515625
283,789.7435913085938,792.967041015625,788.937744140625,789.3406372070312
284,795.3846435546875,794.1758422851562,783.6996459960938,790.5494384765625
285,792.967041015625,795.7875366210938,781.6849975585938,796.5933837890625
286,790.5494384765625,799.4139404296875,783.2966918945312,796.1904907226562
287,798.2051391601562,799.4139404296875,780.0732421875,787.7289428710938
288,806.6666870117188,799.8168334960938,780.4761962890625,790.952392578125
289,809.89013671875,803.040283203125,784.908447265625,790.952392578125
290,802.6373901367188,798.6080322265625,786.5201416015625,785.7142944335938
291,802.2344360351562,795.3846435546875,785.7142944335938,783.6996459960938
292,796.5933837890625,800.2197875976562,786.1171875,784.1025390625
293,781.2820434570312,800.6226806640625,786.1171875,787.3259887695312
294,784.5054931640625,799.010986328125,788.937744140625,790.5494384765625
295,786.923095703125,798.2051391601562,792.967041015625,790.1465454101562
296,790.1465454101562,797.8021850585938,793.7728881835938,796.1904907226562
297,788.937744140625,795.7875366210938,791.7582397460938,803.4432373046875
298,788.1318969726562,792.5640869140625,789.7435913085938,796.1904907226562
299,792.5640869140625,791.3552856445312,788.5347900390625,790.952392578125
300,792.1611938476562,790.952392578125,790.1465454101562,794.981689453125
301,789.3406372070312,789.7435913085938,796.1904907226562,794.1758422851562
302,778.8644409179688,792.1611938476562,796.1904907226562,792.967041015625
303,780.879150390625,794.981689453125,794.5787353515625,797.3992919921875
304,790.952392578125,796.5933837890625,793.3699340820312,789.7435913085938
305,800.6226806640625,793.7728881835938,789.3406372070312,790.5494384765625
306,800.6226806640625,794.1758422851562,788.937744140625,798.2051391601562
307,780.4761962890625,797.8021850585938,783.2966918945312,784.908447265625
308,780.4761962890625,797.8021850585938,783.2966918945312,786.1171875
309,797.3992919921875,801.025634765625,788.5347900390625,791.7582397460938
310,793.7728881835938,797.8021850585938,790.1465454101562,784.908447265625
311,786.923095703125,793.3699340820312,789.3406372070312,781.6849975585938
312,793.3699340820312,795.3846435546875,781.2820434570312,782.087890625
313,793.7728881835938,794.981689453125,776.4468994140625,785.7142944335938
314,795.3846435546875,799.4139404296875,780.4761962890625,788.5347900390625
315,807.4725341796875,802.2344360351562,780.4761962890625,791.3552856445312
316,815.5311279296875,797.3992919921875,778.4615478515625,794.5787353515625
317,805.8607788085938,797.8021850585938,779.6703491210938,795.3846435546875
318,795.7875366210938,797.3992919921875,778.8644409179688,795.3846435546875
319,796.996337890625,793.7728881835938,776.4468994140625,803.040283203125
320,798.2051391601562,789.7435913085938,779.2673950195312,810.6959838867188
321,796.996337890625,788.937744140625,778.4615478515625,803.8461303710938
322,792.5640869140625,788.1318969726562,773.2234497070312,796.996337890625
323,790.952392578125,782.893798828125,773.6264038085938,797.8021850585938
324,789.3406372070312,784.1025390625,776.4468994140625,797.8021850585938
325,788.1318969726562,788.1318969726562,778.8644409179688,795.7875366210938
326,792.1611938476562,786.5201416015625,780.0732421875,796.5933837890625
327,791.7582397460938,783.6996459960938,782.4908447265625,796.996337890625
328,794.1758422851562,781.2820434570312,780.879150390625,796.5933837890625
329,801.025634765625,784.1025390625,784.5054931640625,797.8021850585938
330,799.010986328125,787.3259887695312,794.1758422851562,799.8168334960938
331,796.5933837890625,793.3699340820312,797.3992919921875,804.2490844726562
332,799.8168334960938,794.981689453125,795.7875366210938,805.054931640625
333,782.4908447265625,790.5494384765625,792.5640869140625,794.981689453125
334,777.2527465820312,784.5054931640625,787.3259887695312,794.5787353515625
335,784.5054931640625,782.087890625,784.908447265625,792.1611938476562
336,785.3113403320312,789.7435913085938,786.1171875,787.7289428710938
337,786.5201416015625,794.981689453125,782.893798828125,784.908447265625
338,785.3113403320312,791.3552856445312,780.879150390625,786.923095703125
339,782.4908447265625,788.1318969726562,776.4468994140625,786.5201416015625
340,790.952392578125,790.952392578125,775.2380981445312,780.0732421875
341,804.6520385742188,798.2051391601562,776.8497924804688,784.5054931640625
342,795.7875366210938,799.010986328125,776.4468994140625,792.1611938476562
343,793.7728881835938,800.2197875976562,778.05859375,793.7728881835938
344,800.2197875976562,801.4285888671875,776.8497924804688,791.7582397460938
345,796.996337890625,790.952392578125,769.1941528320312,787.7289428710938
346,794.1758422851562,786.5201416015625,766.3735961914062,788.1318969726562
347,786.923095703125,789.7435913085938,767.5823974609375,785.7142944335938
348,783.6996459960938,792.967041015625,767.1795043945312,778.4615478515625
349,790.1465454101562,792.1611938476562,767.1795043945312,775.6410522460938
350,796.1904907226562,796.5933837890625,770.8058471679688,775.6410522460938
351,799.010986328125,804.2490844726562,770.8058471679688,776.0439453125
352,802.6373901367188,803.8461303710938,770.8058471679688,775.2380981445312
353,801.025634765625,797.3992919921875,772.4176025390625,773.6264038085938
354,795.7875366210938,794.1758422851562,774.8351440429688,777.6557006835938
355,794.981689453125,793.3699340820312,777.2527465820312,781.6849975585938
356,794.5787353515625,792.967041015625,777.2527465820312,781.2820434570312
357,793.7728881835938,791.3552856445312,784.908447265625,786.1171875
358,786.923095703125,787.3259887695312,785.3113403320312,786.5201416015625
359,789.3406372070312,789.3406372070312,784.5054931640625,786.5201416015625
360,793.3699340820312,789.3406372070312,786.923095703125,787.7289428710938
361,788.5347900390625,782.4908447265625,787.7289428710938,788.937744140625
362,788.5347900390625,786.5201416015625,788.937744140625,790.1465454101562
363,789.3406372070312,793.3699340820312,788.937744140625,792.5640869140625
364,781.6849975585938,786.923095703125,788.1318969726562,790.5494384765625
365,785.7142944335938,786.923095703125,786.5201416015625,794.981689453125
366,795.3846435546875,790.1465454101562,784.908447265625,801.025634765625
367,798.2051391601562,790.5494384765625,782.893798828125,793.7728881835938
368,800.2197875976562,793.3699340820312,781.6849975585938,784.1025390625
369,800.6226806640625,794.5787353515625,778.8644409179688,786.1171875
370,800.6226806640625,792.5640869140625,776.8497924804688,793.7728881835938
371,793.7728881835938,792.1611938476562,777.2527465820312,788.937744140625
372,779.6703491210938,790.1465454101562,777.2527465820312,790.952392578125
373,778.05859375,791.3552856445312,781.2820434570312,789.3406372070312
374,786.5201416015625,794.5787353515625,781.6849975585938,780.4761962890625
375,788.937744140625,796.5933837890625,784.5054931640625,784.1025390625
376,794.981689453125,796.996337890625,788.5347900390625,789.3406372070312
377,798.6080322265625,796.1904907226562,783.6996459960938,786.5201416015625
378,791.7582397460938,796.1904907226562,778.8644409179688,782.893798828125
379,790.952392578125,797.8021850585938,780.879150390625,782.4908447265625
380,799.010986328125,799.4139404296875,785.3113403320312,783.2966918945312
381,803.4432373046875,793.7728881835938,784.5054931640625,786.5201416015625
382,797.3992919921875,789.3406372070312,786.1171875,790.1465454101562
383,783.6996459960938,787.7289428710938,783.6996459960938,785.7142944335938
384,777.6557006835938,786.1171875,783.2966918945312,778.8644409179688
385,781.2820434570312,785.7142944335938,782.893798828125,780.4761962890625
386,781.6849975585938,783.6996459960938,781.6849975585938,784.908447265625
387,784.908447265625,784.1025390625,782.4908447265625,783.6996459960938
388,778.8644409179688,788.1318969726562,779.2673950195312,784.1025390625
389,778.05859375,788.1318969726562,782.893798828125,792.967041015625
390,784.908447265625,790.952392578125,790.952392578125,794.981689453125
391,778.8644409179688,790.952392578125,793.3699340820312,786.1171875
392,778.8644409179688,788.5347900390625,789.7435913085938,781.6849975585938
393,781.6849975585938,784.1025390625,784.908447265625,780.4761962890625
394,775.2380981445312,782.087890625,786.923095703125,776.4468994140625
395,778.8644409179688,785.3113403320312,785.3113403320312,775.2380981445312
396,790.952392578125,786.923095703125,782.087890625,776.8497924804688
397,790.952392578125,789.7435913085938,784.1025390625,780.0732421875
398,787.7289428710938,793.3699340820312,787.7289428710938,780.879150390625
399,786.1171875,792.967041015625,788.937744140625,785.3113403320312
400,784.5054931640625,788.5347900390625,790.1465454101562,792.1611938476562
401,786.923095703125,785.3113403320312,787.3259887695312,793.7728881835938
402,786.1171875,791.7582397460938,786.1171875,799.010986328125
403,782.087890625,790.1465454101562,786.5201416015625,797.3992919921875
404,781.6849975585938,788.1318969726562,785.7142944335938,796.5933837890625
405,784.5054931640625,800.6226806640625,788.5347900390625,799.010986328125
406,784.1025390625,804.6520385742188,789.7435913085938,800.2197875976562
407,785.3113403320312,799.010986328125,787.3259887695312,800.2197875976562
408,785.7142944335938,794.981689453125,787.3259887695312,796.1904907226562
409,782.4908447265625,799.010986328125,792.1611938476562,790.1465454101562
410,784.5054931640625,798.2051391601562,793.3699340820312,788.937744140625
411,796.1904907226562,793.3699340820312,789.7435913085938,790.952392578125
412,794.5787353515625,790.952392578125,786.923095703125,788.937744140625
413,797.8021850585938,794.981689453125,787.7289428710938,789.7435913085938
414,788.937744140625,797.8021850585938,786.923095703125,786.923095703125
415,776.4468994140625,790.5494384765625,783.6996459960938,782.4908447265625
416,786.5201416015625,790.952392578125,785.3113403320312,781.6849975585938
417,793.3699340820312,797.8021850585938,790.952392578125,779.6703491210938
418,796.5933837890625,802.6373901367188,796.1904907226562,782.893798828125
419,793.7728881835938,805.054931640625,795.7875366210938,788.1318969726562
420,796.5933837890625,799.8168334960938,792.1611938476562,784.5054931640625
421,795.7875366210938,794.1758422851562,789.3406372070312,780.0732421875
422,792.1611938476562,791.7582397460938,788.1318969726562,784.5054931640625
423,794.981689453125,790.5494384765625,786.5201416015625,786.1171875
424,791.3552856445312,797.3992919921875,784.908447265625,779.6703491210938
425,781.6849975585938,799.8168334960938,786.1171875,777.2527465820312
426,776.4468994140625,792.1611938476562,782.087890625,781.2820434570312
427,778.05859375,788.1318969726562,780.879150390625,785.3113403320312
428,778.8644409179688,790.1465454101562,784.908447265625,784.5054931640625
429,767.5823974609375,786.1171875,783.6996459960938,777.2527465820312
430,765.1648559570312,783.6996459960938,782.4908447265625,780.4761962890625
431,776.4468994140625,787.7289428710938,784.5054931640625,785.3113403320312
432,778.4615478515625,788.5347900390625,784.5054931640625,788.5347900390625
433,778.8644409179688,790.5494384765625,786.923095703125,789.7435913085938
434,781.6849975585938,791.3552856445312,789.3406372070312,785.3113403320312
435,786.1171875,792.5640869140625,789.7435913085938,786.923095703125
436,792.5640869140625,791.3552856445312,790.5494384765625,789.3406372070312
437,795.3846435546875,796.996337890625,794.1758422851562,794.1758422851562
438,798.2051391601562,801.025634765625,794.5787353515625,802.2344360351562
439,805.054931640625,799.4139404296875,794.5787353515625,809.084228515625
440,806.6666870117188,798.2051391601562,790.952392578125,799.4139404296875
441,791.7582397460938,798.2051391601562,790.952392578125,794.981689453125
442,789.7435913085938,795.7875366210938,792.5640869140625,802.6373901367188
443,791.7582397460938,790.952392578125,790.1465454101562,797.3992919921875
444,792.1611938476562,792.967041015625,790.5494384765625,797.3992919921875
445,792.5640869140625,794.1758422851562,796.1904907226562,800.2197875976562
446,795.3846435546875,794.981689453125,802.6373901367188,795.3846435546875
447,802.2344360351562,792.967041015625,807.87548828125,795.3846435546875
448,800.6226806640625,788.5347900390625,807.87548828125,790.952392578125
449,795.3846435546875,787.7289428710938,801.025634765625,782.087890625
450,786.5201416015625,784.1025390625,801.025634765625,785.7142944335938
451,781.6849975585938,784.1025390625,801.8314819335938,789.7435913085938
452,784.1025390625,788.1318969726562,794.981689453125,786.5201416015625
453,782.087890625,789.3406372070312,795.7875366210938,783.2966918945312
454,776.4468994140625,790.1465454101562,800.6226806640625,788.1318969726562
455,767.9853515625,792.1611938476562,798.6080322265625,789.7435913085938
456,763.5531005859375,789.7435913085938,794.5787353515625,788.1318969726562
457,764.3589477539062,786.5201416015625,790.952392578125,789.7435913085938
458,772.0146484375,788.937744140625,788.937744140625,790.5494384765625
459,782.4908447265625,792.1611938476562,789.7435913085938,789.3406372070312
460,785.3113403320312,792.967041015625,788.5347900390625,786.1171875
461,785.3113403320312,793.7728881835938,786.1171875,782.087890625
462,792.5640869140625,795.3846435546875,779.6703491210938,782.893798828125
463,795.3846435546875,794.1758422851562,778.05859375,782.4908447265625
464,794.1758422851562,793.3699340820312,783.2966918945312,787.7289428710938
465,795.7875366210938,796.996337890625,782.4908447265625,796.996337890625
466,796.5933837890625,796.996337890625,782.4908447265625,802.6373901367188
467,797.8021850585938,800.2197875976562,782.893798828125,802.2344360351562
468,806.6666870117188,800.2197875976562,786.1171875,803.040283203125
469,807.4725341796875,797.3992919921875,790.1465454101562,803.040283203125
470,804.2490844726562,801.8314819335938,789.3406372070312,797.3992919921875
471,801.8314819335938,796.996337890625,787.7289428710938,793.7728881835938
472,792.1611938476562,791.3552856445312,784.5054931640625,792.1611938476562
473,786.1171875,794.981689453125,787.3259887695312,790.952392578125
474,790.1465454101562,797.3992919921875,789.3406372070312,789.3406372070312
475,789.3406372070312,795.7875366210938,788.5347900390625,786.5201416015625
476,784.908447265625,794.5787353515625,786.923095703125,783.2966918945312
477,782.4908447265625,790.1465454101562,787.3259887695312,786.5201416015625
478,782.087890625,790.952392578125,792.967041015625,787.3259887695312
479,781.6849975585938,792.1611938476562,791.3552856445312,783.6996459960938
480,774.4322509765625,792.5640869140625,784.908447265625,783.2966918945312
481,780.0732421875,795.3846435546875,783.6996459960938,777.2527465820312
482,790.952392578125,798.2051391601562,789.3406372070312,776.8497924804688
483,782.4908447265625,799.010986328125,792.1611938476562,780.4761962890625
484,780.0732421875,797.3992919921875,790.952392578125,777.6557006835938
485,780.0732421875,798.6080322265625,792.967041015625,778.4615478515625
486,784.5054931640625,802.6373901367188,796.996337890625,788.5347900390625
487,797.8021850585938,805.054931640625,797.3992919921875,793.3699340820312
488,792.1611938476562,794.5787353515625,793.7728881835938,797.8021850585938
489,788.5347900390625,793.7728881835938,794.1758422851562,803.4432373046875
490,791.3552856445312,799.4139404296875,798.2051391601562,796.996337890625
491,794.1758422851562,794.1758422851562,801.025634765625,794.1758422851562
492,794.5787353515625,791.7582397460938,799.010986328125,794.5787353515625
493,794.5787353515625,796.1904907226562,795.7875366210938,798.6080322265625
494,793.3699340820312,792.1611938476562,790.952392578125,802.6373901367188
495,794.981689453125,789.3406372070312,794.5787353515625,799.8168334960938
496,793.3699340820312,787.3259887695312,795.7875366210938,794.1758422851562
497,795.7875366210938,790.952392578125,796.996337890625,798.2051391601562
498,792.967041015625,793.3699340820312,801.4285888671875,794.5787353515625
499,789.3406372070312,792.5640869140625,801.4285888671875,789.7435913085938
500,800.6226806640625,792.5640869140625,800.6226806640625,801.4285888671875
501,801.8314819335938,793.7728881835938,797.3992919921875,802.2344360351562
502,793.7728881835938,791.3552856445312,797.3992919921875,787.3259887695312
503,798.6080322265625,789.7435913085938,793.7728881835938,782.893798828125
504,800.6226806640625,787.3259887695312,789.7435913085938,786.923095703125
505,795.3846435546875,785.7142944335938,786.1171875,783.6996459960938
506,796.996337890625,784.908447265625,787.3259887695312,781.2820434570312
507,792.1611938476562,785.3113403320312,790.1465454101562,786.5201416015625
508,786.923095703125,791.7582397460938,790.1465454101562,785.7142944335938
509,788.5347900390625,792.1611938476562,792.967041015625,783.6996459960938
510,791.7582397460938,790.5494384765625,794.981689453125,785.3113403320312
511,792.967041015625,785.3113403320312,797.8021850585938,789.7435913085938
512,791.7582397460938,787.3259887695312,801.4285888671875,800.6226806640625
513,792.5640869140625,791.7582397460938,797.8021850585938,796.5933837890625
514,793.7728881835938,791.3552856445312,796.996337890625,792.1611938476562
515,792.1611938476562,795.7875366210938,801.8314819335938,798.6080322265625
516,787.7289428710938,792.5640869140625,801.8314819335938,792.5640869140625
517,784.5054931640625,785.3113403320312,798.6080322265625,788.1318969726562
518,782.4908447265625,786.1171875,797.3992919921875,796.1904907226562
519,785.3113403320312,790.952392578125,798.6080322265625,798.2051391601562
520,786.923095703125,792.5640869140625,797.3992919921875,792.967041015625
521,786.5201416015625,793.7728881835938,797.8021850585938,795.3846435546875
522,791.7582397460938,794.981689453125,796.996337890625,794.5787353515625
523,794.5787353515625,794.1758422851562,796.996337890625,798.2051391601562
524,798.2051391601562,791.3552856445312,795.3846435546875,796.5933837890625
525,795.3846435546875,789.7435913085938,789.3406372070312,783.6996459960938
526,796.5933837890625,794.5787353515625,792.5640869140625,787.7289428710938
527,801.025634765625,800.2197875976562,792.5640869140625,788.1318969726562
528,798.6080322265625,797.8021850585938,787.7289428710938,786.1171875
529,797.3992919921875,790.952392578125,789.3406372070312,788.1318969726562
530,800.6226806640625,792.1611938476562,788.1318969726562,792.5640869140625
531,801.4285888671875,795.7875366210938,786.1171875,794.981689453125
532,796.996337890625,795.7875366210938,785.7142944335938,791.3552856445312
533,788.5347900390625,796.1904907226562,784.908447265625,790.1465454101562
534,784.908447265625,791.3552856445312,786.923095703125,794.1758422851562
535,788.1318969726562,794.1758422851562,788.5347900390625,795.3846435546875
536,792.5640869140625,799.4139404296875,790.1465454101562,795.7875366210938
537,786.923095703125,797.3992919921875,791.7582397460938,790.952392578125
538,789.3406372070312,799.8168334960938,796.996337890625,792.1611938476562
539,794.1758422851562,799.010986328125,799.4139404296875,798.2051391601562
540,788.1318969726562,794.1758422851562,796.996337890625,791.7582397460938
541,791.7582397460938,790.5494384765625,796.1904907226562,784.1025390625
542,786.923095703125,793.3699340820312,793.3699340820312,782.087890625
543,781.2820434570312,795.3846435546875,790.1465454101562,783.2966918945312
544,784.1025390625,798.6080322265625,794.981689453125,786.1171875
545,786.5201416015625,797.3992919921875,796.996337890625,789.7435913085938
546,785.3113403320312,796.1904907226562,789.3406372070312,786.1171875
547,782.4908447265625,799.8168334960938,790.5494384765625,783.6996459960938
548,786.923095703125,801.025634765625,794.1758422851562,784.5054931640625
549,797.3992919921875,802.2344360351562,794.981689453125,786.5201416015625
550,804.2490844726562,798.2051391601562,795.7875366210938,794.981689453125
551,794.5787353515625,795.3846435546875,792.5640869140625,793.7728881835938
552,785.7142944335938,796.1904907226562,793.3699340820312,788.1318969726562
553,788.5347900390625,796.996337890625,794.5787353515625,787.3259887695312
554,792.967041015625,802.2344360351562,791.3552856445312,784.1025390625
555,794.981689453125,798.6080322265625,792.1611938476562,785.7142944335938
556,791.7582397460938,791.3552856445312,793.3699340820312,786.1171875
557,787.3259887695312,789.7435913085938,790.1465454101562,788.1318969726562
558,784.1025390625,789.7435913085938,784.1025390625,786.923095703125
559,795.3846435546875,790.5494384765625,785.7142944335938,783.2966918945312
560,804.2490844726562,788.5347900390625,784.1025390625,782.4908447265625
561,792.5640869140625,786.5201416015625,785.3113403320312,784.5054931640625
562,783.6996459960938,792.967041015625,786.1171875,790.1465454101562
563,782.087890625,794.1758422851562,778.05859375,793.3699340820312
564,782.087890625,787.3259887695312,778.8644409179688,786.5201416015625
565,782.893798828125,783.2966918945312,780.879150390625,779.6703491210938
566,780.879150390625,783.2966918945312,782.087890625,784.1025390625
567,772.8204956054688,782.893798828125,780.4761962890625,779.6703491210938
568,775.6410522460938,783.2966918945312,779.6703491210938,774.8351440429688
569,785.7142944335938,788.5347900390625,787.3259887695312,789.7435913085938
570,786.5201416015625,789.3406372070312,792.5640869140625,797.3992919921875
571,785.7142944335938,791.3552856445312,797.3992919921875,788.5347900390625
572,795.3846435546875,793.7728881835938,801.025634765625,780.0732421875
573,797.8021850585938,795.3846435546875,795.7875366210938,778.4615478515625
574,794.1758422851562,792.1611938476562,794.5787353515625,787.3259887695312
575,797.3992919921875,792.5640869140625,795.3846435546875,788.937744140625
576,801.8314819335938,792.1611938476562,798.2051391601562,786.923095703125
577,795.3846435546875,787.3259887695312,798.6080322265625,786.923095703125
578,788.937744140625,787.3259887695312,796.1904907226562,786.1171875
579,784.5054931640625,787.3259887695312,794.5787353515625,782.087890625
580,784.908447265625,784.1025390625,793.3699340820312,778.8644409179688
581,796.996337890625,784.908447265625,794.1758422851562,786.923095703125
582,797.8021850585938,789.7435913085938,793.3699340820312,786.923095703125
583,787.3259887695312,790.1465454101562,789.3406372070312,783.2966918945312
584,789.7435913085938,787.7289428710938,788.5347900390625,792.5640869140625
585,792.967041015625,794.981689453125,791.7582397460938,798.6080322265625
586,788.5347900390625,797.8021850585938,791.7582397460938,792.967041015625
587,784.908447265625,791.3552856445312,787.3259887695312,788.1318969726562
588,788.5347900390625,793.3699340820312,789.3406372070312,795.3846435546875
589,788.1318969726562,795.7875366210938,792.5640869140625,796.996337890625
590,777.6557006835938,789.7435913085938,788.937744140625,791.3552856445312
591,778.4615478515625,783.6996459960938,790.952392578125,786.5201416015625
592,784.5054931640625,785.3113403320312,794.5787353515625,789.3406372070312
593,779.2673950195312,786.1171875,793.7728881835938,788.937744140625
594,779.2673950195312,789.7435913085938,792.5640869140625,787.3259887695312
595,796.996337890625,796.1904907226562,795.7875366210938,792.967041015625
596,805.8607788085938,796.1904907226562,800.2197875976562,795.7875366210938
597,803.040283203125,796.5933837890625,799.010986328125,796.5933837890625
598,799.8168334960938,799.8168334960938,792.1611938476562,787.7289428710938
599,800.6226806640625,803.4432373046875,788.5347900390625,783.6996459960938
600,799.8168334960938,796.996337890625,789.7435913085938,777.6557006835938
601,807.069580078125,791.3552856445312,794.1758422851562,777.6557006835938
602,812.3076782226562,792.967041015625,789.3406372070312,780.4761962890625
603,804.6520385742188,793.3699340820312,783.6996459960938,779.2673950195312
604,800.2197875976562,794.5787353515625,784.5054931640625,780.879150390625
605,800.6226806640625,797.8021850585938,787.3259887695312,782.4908447265625
606,795.3846435546875,794.5787353515625,791.3552856445312,780.0732421875
607,796.1904907226562,793.7728881835938,790.952392578125,784.1025390625
608,794.1758422851562,790.1465454101562,791.3552856445312,796.1904907226562
609,795.3846435546875,787.3259887695312,796.5933837890625,790.952392578125
610,796.5933837890625,792.5640869140625,805.054931640625,788.937744140625
611,784.5054931640625,792.5640869140625,803.040283203125,795.3846435546875
612,779.6703491210938,786.5201416015625,799.4139404296875,795.7875366210938
613,786.923095703125,783.6996459960938,801.8314819335938,799.4139404296875
614,786.923095703125,789.7435913085938,800.2197875976562,800.2197875976562
615,784.908447265625,793.7728881835938,794.1758422851562,797.3992919921875
616,786.5201416015625,792.1611938476562,793.3699340820312,801.025634765625
617,791.7582397460938,790.1465454101562,792.1611938476562,800.2197875976562
618,793.7728881835938,791.3552856445312,790.5494384765625,799.4139404296875
619,787.3259887695312,791.7582397460938,792.1611938476562,801.8314819335938
620,785.7142944335938,787.3259887695312,794.1758422851562,800.6226806640625
621,790.1465454101562,788.1318969726562,796.5933837890625,798.2051391601562
622,797.3992919921875,788.5347900390625,796.5933837890625,795.7875366210938
623,799.8168334960938,790.1465454101562,798.6080322265625,790.5494384765625
624,796.996337890625,792.967041015625,797.8021850585938,784.5054931640625
625,800.6226806640625,794.1758422851562,794.981689453125,789.3406372070312
626,803.040283203125,795.3846435546875,793.7728881835938,792.967041015625
627,801.8314819335938,799.010986328125,798.6080322265625,798.2051391601562
628,801.025634765625,801.025634765625,798.6080322265625,801.8314819335938
629,798.2051391601562,800.6226806640625,797.8021850585938,797.3992919921875
630,797.8021850585938,797.8021850585938,796.1904907226562,795.7875366210938
631,802.2344360351562,795.7875366210938,792.967041015625,796.5933837890625
632,795.7875366210938,795.7875366210938,793.3699340820312,792.1611938476562
633,794.981689453125,795.7875366210938,792.967041015625,790.5494384765625
634,804.6520385742188,796.1904907226562,793.3699340820312,796.1904907226562
635,798.6080322265625,794.981689453125,798.6080322265625,796.1904907226562
636,786.5201416015625,792.1611938476562,794.981689453125,787.3259887695312
637,789.7435913085938,793.7728881835938,792.967041015625,793.7728881835938
638,787.3259887695312,794.5787353515625,798.2051391601562,793.3699340820312
639,781.6849975585938,794.981689453125,795.3846435546875,791.7582397460938
640,781.6849975585938,797.8021850585938,794.5787353515625,792.5640869140625
641,782.087890625,792.5640869140625,792.5640869140625,782.087890625
642,787.3259887695312,794.981689453125,790.952392578125,787.7289428710938
643,790.952392578125,798.2051391601562,792.967041015625,794.1758422851562
644,791.3552856445312,799.4139404296875,792.5640869140625,788.5347900390625
645,792.5640869140625,798.2051391601562,790.952392578125,784.908447265625
646,799.4139404296875,792.967041015625,788.5347900390625,791.3552856445312
647,806.2637329101562,797.3992919921875,793.7728881835938,794.5787353515625
648,804.6520385742188,801.4285888671875,794.981689453125,790.952392578125
649,796.5933837890625,799.010986328125,791.3552856445312,794.981689453125
650,793.7728881835938,796.1904907226562,786.923095703125,794.981689453125
651,796.996337890625,795.3846435546875,784.5054931640625,793.7728881835938
652,800.6226806640625,795.3846435546875,786.923095703125,796.1904907226562
653,802.6373901367188,788.937744140625,788.1318969726562,795.7875366210938
654,793.7728881835938,785.3113403320312,786.923095703125,791.7582397460938
655,785.3113403320312,791.3552856445312,792.967041015625,792.967041015625
656,787.3259887695312,791.7582397460938,796.1904907226562,793.3699340820312
657,788.5347900390625,786.1171875,795.7875366210938,795.7875366210938
658,788.937744140625,783.2966918945312,793.3699340820312,799.8168334960938
659,787.7289428710938,785.3113403320312,792.1611938476562,795.7875366210938
660,780.0732421875,784.1025390625,793.7728881835938,792.5640869140625
661,777.6557006835938,783.2966918945312,794.1758422851562,790.1465454101562
662,782.4908447265625,785.3113403320312,792.967041015625,789.3406372070312
663,793.3699340820312,788.1318969726562,794.5787353515625,794.5787353515625
664,797.8021850585938,792.1611938476562,794.5787353515625,803.040283203125
665,782.4908447265625,789.7435913085938,792.5640869140625,800.2197875976562
666,778.8644409179688,787.7289428710938,792.1611938476562,795.3846435546875
667,793.3699340820312,788.5347900390625,792.5640869140625,797.8021850585938
668,794.981689453125,781.6849975585938,796.1904907226562,801.025634765625
669,786.923095703125,780.879150390625,795.3846435546875,803.040283203125
670,788.937744140625,790.952392578125,795.3846435546875,803.8461303710938
671,795.7875366210938,790.952392578125,793.7728881835938,796.5933837890625
672,795.3846435546875,785.3113403320312,790.952392578125,790.952392578125
673,794.981689453125,787.7289428710938,795.3846435546875,792.5640869140625
674,794.981689453125,786.5201416015625,796.996337890625,788.937744140625
675,790.1465454101562,785.3113403320312,796.1904907226562,783.2966918945312
676,783.6996459960938,786.5201416015625,797.8021850585938,783.6996459960938
677,780.879150390625,790.952392578125,799.8168334960938,791.3552856445312
678,782.4908447265625,792.1611938476562,798.6080322265625,796.5933837890625
679,782.4908447265625,785.3113403320312,795.3846435546875,789.7435913085938
680,784.5054931640625,786.1171875,798.2051391601562,790.1465454101562
681,780.879150390625,782.893798828125,800.2197875976562,795.7875366210938
682,782.087890625,783.6996459960938,799.4139404296875,789.7435913085938
683,788.937744140625,787.3259887695312,795.7875366210938,783.2966918945312
684,784.1025390625,782.893798828125,795.7875366210938,782.4908447265625
685,784.908447265625,783.6996459960938,798.6080322265625,781.6849975585938
686,790.5494384765625,789.7435913085938,801.025634765625,786.923095703125
687,783.2966918945312,789.3406372070312,800.2197875976562,792.5640869140625
688,777.2527465820312,787.7289428710938,798.6080322265625,790.5494384765625
689,776.8497924804688,786.5201416015625,801.4285888671875,792.967041015625
690,778.8644409179688,782.893798828125,799.010986328125,794.981689453125
691,780.4761962890625,778.8644409179688,794.981689453125,782.4908447265625
692,785.3113403320312,775.2380981445312,789.7435913085938,782.087890625
693,796.996337890625,778.4615478515625,792.1611938476562,790.952392578125
694,791.3552856445312,784.1025390625,796.1904907226562,785.7142944335938
695,786.1171875,784.908447265625,793.3699340820312,782.4908447265625
696,794.1758422851562,781.6849975585938,790.5494384765625,782.893798828125
697,803.4432373046875,782.893798828125,789.3406372070312,788.5347900390625
698,813.91943359375,790.1465454101562,791.3552856445312,790.952392578125
699,815.1282348632812,790.1465454101562,788.937744140625,788.937744140625
700,804.6520385742188,788.1318969726562,786.923095703125,787.3259887695312
701,800.6226806640625,791.7582397460938,789.3406372070312,782.087890625
702,800.6226806640625,789.3406372070312,794.5787353515625,783.2966918945312
703,796.5933837890625,789.3406372070312,794.5787353515625,788.937744140625
704,790.952392578125,788.5347900390625,798.6080322265625,787.3259887695312
705,790.1465454101562,783.2966918945312,800.2197875976562,780.0732421875
706,788.937744140625,786.923095703125,793.3699340820312,776.0439453125
707,782.893798828125,787.7289428710938,792.5640869140625,776.0439453125
708,779.2673950195312,783.6996459960938,790.1465454101562,781.2820434570312
709,772.4176025390625,784.908447265625,789.7435913085938,779.2673950195312
710,766.3735961914062,784.1025390625,794.5787353515625,779.6703491210938
711,759.5238037109375,783.2966918945312,789.3406372070312,776.8497924804688
712,762.7472534179688,781.2820434570312,788.5347900390625,775.6410522460938
713,769.1941528320312,777.2527465820312,793.3699340820312,780.0732421875
714,769.1941528320312,781.2820434570312,792.1611938476562,778.8644409179688
715,772.8204956054688,783.6996459960938,794.981689453125,784.1025390625
716,771.6116943359375,784.1025390625,793.3699340820312,787.3259887695312
717,774.029296875,793.7728881835938,791.3552856445312,781.2820434570312
718,789.7435913085938,799.4139404296875,792.1611938476562,784.1025390625
719,802.2344360351562,796.1904907226562,794.1758422851562,789.7435913085938
720,793.7728881835938,794.5787353515625,796.1904907226562,783.6996459960938
721,786.1171875,795.7875366210938,794.5787353515625,778.4615478515625
722,791.3552856445312,799.010986328125,792.967041015625,782.893798828125
723,794.981689453125,796.1904907226562,787.7289428710938,788.1318969726562
724,801.4285888671875,793.3699340820312,789.7435913085938,786.923095703125
725,799.8168334960938,791.3552856445312,788.1318969726562,782.893798828125
726,791.7582397460938,784.5054931640625,786.1171875,784.908447265625
727,786.1171875,781.6849975585938,787.3259887695312,783.6996459960938
728,787.7289428710938,782.087890625,787.3259887695312,779.2673950195312
729,786.5201416015625,785.7142944335938,784.908447265625,780.879150390625
730,778.05859375,786.923095703125,783.6996459960938,782.893798828125
731,774.029296875,787.3259887695312,789.3406372070312,786.923095703125
732,770.8058471679688,789.3406372070312,793.3699340820312,786.5201416015625
733,772.0146484375,788.937744140625,792.5640869140625,781.2820434570312
734,774.029296875,789.3406372070312,789.7435913085938,782.4908447265625
735,778.8644409179688,790.5494384765625,787.7289428710938,780.879150390625
736,776.8497924804688,790.1465454101562,790.1465454101562,775.2380981445312
737,774.4322509765625,792.1611938476562,793.7728881835938,778.4615478515625
738,780.879150390625,793.3699340820312,791.3552856445312,788.1318969726562
739,785.7142944335938,794.981689453125,788.1318969726562,788.5347900390625
740,789.3406372070312,796.5933837890625,789.7435913085938,786.1171875
741,792.1611938476562,796.1904907226562,796.5933837890625,791.3552856445312
742,792.1611938476562,795.3846435546875,798.6080322265625,797.3992919921875
743,797.3992919921875,798.2051391601562,797.3992919921875,802.6373901367188
744,806.6666870117188,799.8168334960938,794.5787353515625,796.996337890625
745,799.8168334960938,792.5640869140625,792.5640869140625,788.937744140625
746,796.996337890625,796.5933837890625,796.5933837890625,791.7582397460938
747,803.8461303710938,799.4139404296875,798.2051391601562,794.981689453125
748,801.025634765625,792.967041015625,796.5933837890625,795.7875366210938
749,798.6080322265625,792.1611938476562,795.3846435546875,801.025634765625
750,801.8314819335938,792.1611938476562,795.7875366210938,799.010986328125
751,793.3699340820312,786.923095703125,796.1904907226562,792.5640869140625
752,785.3113403320312,783.6996459960938,798.2051391601562,796.996337890625
753,790.952392578125,788.5347900390625,799.4139404296875,801.8314819335938
754,794.1758422851562,788.937744140625,796.5933837890625,801.8314819335938
755,792.5640869140625,787.7289428710938,794.981689453125,792.967041015625
756,792.5640869140625,790.5494384765625,796.5933837890625,786.1171875
757,796.5933837890625,799.010986328125,799.4139404296875,792.967041015625
758,794.5787353515625,799.8168334960938,802.6373901367188,796.996337890625
759,797.3992919921875,796.996337890625,803.8461303710938,792.5640869140625
760,800.2197875976562,797.8021850585938,799.4139404296875,789.3406372070312
761,796.5933837890625,794.1758422851562,796.5933837890625,784.908447265625
762,792.967041015625,794.1758422851562,797.8021850585938,786.5201416015625
763,791.7582397460938,797.8021850585938,795.3846435546875,789.3406372070312
764,798.6080322265625,799.010986328125,796.5933837890625,791.7582397460938
765,797.8021850585938,800.6226806640625,801.025634765625,796.996337890625
766,788.1318969726562,802.6373901367188,800.6226806640625,803.040283203125
767,788.937744140625,804.6520385742188,802.2344360351562,803.040283203125
768,797.8021850585938,807.069580078125,798.6080322265625,805.4578857421875
769,803.4432373046875,811.5018310546875,794.981689453125,810.2930297851562
770,799.010986328125,809.4871826171875,792.967041015625,802.6373901367188
771,789.3406372070312,806.6666870117188,793.3699340820312,794.981689453125
772,787.3259887695312,802.2344360351562,796.5933837890625,789.3406372070312
773,791.7582397460938,799.8168334960938,794.981689453125,790.952392578125
774,789.3406372070312,798.6080322265625,791.3552856445312,793.3699340820312
775,784.908447265625,800.2197875976562,785.7142944335938,784.5054931640625
776,790.952392578125,803.040283203125,784.1025390625,786.923095703125
777,792.967041015625,800.6226806640625,785.3113403320312,790.952392578125
778,791.3552856445312,798.2051391601562,789.3406372070312,786.923095703125
779,795.7875366210938,798.6080322265625,795.3846435546875,784.1025390625
780,794.981689453125,795.7875366210938,795.7875366210938,784.908447265625
781,790.952392578125,789.7435913085938,794.5787353515625,785.7142944335938
782,790.5494384765625,788.5347900390625,793.3699340820312,785.3113403320312
783,793.7728881835938,792.1611938476562,792.5640869140625,786.923095703125
784,797.3992919921875,788.937744140625,792.5640869140625,784.5054931640625
785,797.8021850585938,786.5201416015625,792.5640869140625,787.3259887695312
786,791.3552856445312,788.5347900390625,791.7582397460938,791.3552856445312
787,792.967041015625,789.7435913085938,789.7435913085938,792.967041015625
788,788.5347900390625,790.1465454101562,794.1758422851562,794.1758422851562
789,787.7289428710938,789.3406372070312,795.7875366210938,791.7582397460938
790,794.981689453125,792.967041015625,798.6080322265625,789.3406372070312
791,798.6080322265625,794.1758422851562,800.2197875976562,790.952392578125
792,800.2197875976562,792.967041015625,796.996337890625,797.3992919921875
793,800.6226806640625,791.3552856445312,800.6226806640625,800.2197875976562
794,802.2344360351562,795.3846435546875,804.6520385742188,795.3846435546875
795,803.4432373046875,796.5933837890625,805.054931640625,793.7728881835938
796,799.8168334960938,794.5787353515625,805.8607788085938,796.996337890625
797,799.010986328125,798.2051391601562,803.4432373046875,799.010986328125
798,796.5933837890625,791.7582397460938,798.2051391601562,799.4139404296875
799,792.5640869140625,786.1171875,794.981689453125,795.7875366210938
800,790.5494384765625,789.3406372070312,801.4285888671875,793.7728881835938
801,779.6703491210938,794.1758422851562,800.6226806640625,790.952392578125
802,780.4761962890625,793.7728881835938,794.981689453125,787.3259887695312
803,788.5347900390625,792.1611938476562,791.7582397460938,784.908447265625
804,790.5494384765625,794.5787353515625,789.7435913085938,788.1318969726562
805,792.1611938476562,795.3846435546875,789.7435913085938,791.3552856445312
806,795.7875366210938,795.7875366210938,788.1318969726562,786.5201416015625
807,804.2490844726562,799.8168334960938,792.967041015625,789.3406372070312
808,799.010986328125,799.4139404296875,794.5787353515625,787.7289428710938
809,787.7289428710938,795.3846435546875,792.967041015625,783.2966918945312
810,791.3552856445312,794.1758422851562,794.1758422851562,788.937744140625
811,794.1758422851562,796.1904907226562,793.7728881835938,796.996337890625
812,786.923095703125,797.3992919921875,794.981689453125,800.6226806640625
813,780.879150390625,795.7875366210938,794.981689453125,792.5640869140625
814,782.893798828125,795.7875366210938,797.8021850585938,792.967041015625
815,784.908447265625,799.8168334960938,798.2051391601562,794.981689453125
816,786.923095703125,796.5933837890625,795.7875366210938,791.7582397460938
817,791.7582397460938,787.7289428710938,795.3846435546875,788.1318969726562
818,788.937744140625,784.908447265625,796.5933837890625,784.908447265625
819,783.2966918945312,789.3406372070312,795.7875366210938,787.3259887695312
820,785.7142944335938,788.5347900390625,793.3699340820312,786.923095703125
821,791.7582397460938,784.1025390625,794.5787353515625,788.937744140625
822,797.8021850585938,784.5054931640625,795.3846435546875,793.3699340820312
823,798.2051391601562,788.1318969726562,796.5933837890625,794.5787353515625
824,792.1611938476562,790.1465454101562,797.8021850585938,794.981689453125
825,787.3259887695312,791.3552856445312,795.7875366210938,797.3992919921875
826,796.1904907226562,792.1611938476562,794.981689453125,802.6373901367188
827,799.010986328125,793.3699340820312,795.7875366210938,797.3992919921875
828,790.1465454101562,796.1904907226562,796.1904907226562,786.923095703125
829,786.923095703125,793.7728881835938,795.7875366210938,790.1465454101562
830,786.5201416015625,792.967041015625,792.5640869140625,786.1171875
831,786.1171875,791.7582397460938,786.5201416015625,781.6849975585938
832,786.1171875,785.3113403320312,784.908447265625,782.4908447265625
833,784.1025390625,781.6849975585938,788.1318969726562,774.8351440429688
834,783.2966918945312,785.3113403320312,788.5347900390625,778.4615478515625
835,786.5201416015625,790.1465454101562,789.3406372070312,784.1025390625
836,794.981689453125,791.3552856445312,791.7582397460938,780.879150390625
837,798.6080322265625,789.3406372070312,791.3552856445312,782.4908447265625
838,792.967041015625,790.1465454101562,790.952392578125,782.087890625
839,790.952392578125,789.3406372070312,794.5787353515625,781.6849975585938
840,784.908447265625,788.937744140625,794.981689453125,782.4908447265625
841,780.879150390625,792.5640869140625,788.937744140625,782.4908447265625
842,783.2966918945312,788.1318969726562,791.7582397460938,783.2966918945312
843,780.4761962890625,784.1025390625,795.7875366210938,788.5347900390625
844,777.2527465820312,790.1465454101562,790.5494384765625,785.7142944335938
845,775.6410522460938,790.5494384765625,791.3552856445312,783.2966918945312
846,784.1025390625,788.5347900390625,794.5787353515625,789.3406372070312
847,782.893798828125,790.5494384765625,796.1904907226562,784.1025390625
848,778.8644409179688,790.5494384765625,799.010986328125,780.4761962890625
849,777.2527465820312,793.3699340820312,793.7728881835938,784.908447265625
850,769.5970458984375,794.1758422851562,787.7289428710938,783.6996459960938
851,774.8351440429688,794.1758422851562,791.3552856445312,783.2966918945312
852,788.937744140625,795.7875366210938,789.7435913085938,784.5054931640625
853,790.5494384765625,792.5640869140625,790.1465454101562,782.087890625
854,796.1904907226562,792.5640869140625,795.7875366210938,786.923095703125
855,802.2344360351562,797.3992919921875,798.2051391601562,794.1758422851562
856,799.010986328125,801.8314819335938,798.2051391601562,801.025634765625
857,791.7582397460938,800.6226806640625,794.5787353515625,798.2051391601562
858,787.7289428710938,796.5933837890625,795.3846435546875,793.3699340820312
859,783.2966918945312,793.3699340820312,794.5787353515625,793.7728881835938
860,782.893798828125,791.7582397460938,798.2051391601562,790.5494384765625
861,790.952392578125,798.2051391601562,799.8168334960938,798.2051391601562
862,797.3992919921875,801.4285888671875,799.010986328125,805.4578857421875
863,794.5787353515625,799.8168334960938,800.2197875976562,799.8168334960938
864,782.893798828125,798.2051391601562,798.6080322265625,794.5787353515625
865,783.6996459960938,796.5933837890625,797.3992919921875,788.937744140625
866,791.7582397460938,794.981689453125,790.5494384765625,784.5054931640625
867,791.3552856445312,794.981689453125,789.3406372070312,780.879150390625
868,789.3406372070312,794.981689453125,788.5347900390625,781.6849975585938
869,787.7289428710938,792.967041015625,790.952392578125,784.1025390625
870,791.7582397460938,792.5640869140625,791.7582397460938,785.3113403320312
871,794.5787353515625,792.1611938476562,786.923095703125,783.6996459960938
872,788.937744140625,794.5787353515625,790.5494384765625,789.3406372070312
873,789.7435913085938,799.8168334960938,792.967041015625,801.025634765625
874,789.7435913085938,800.2197875976562,792.1611938476562,794.1758422851562
875,782.087890625,796.1904907226562,792.1611938476562,788.1318969726562
876,776.4468994140625,796.5933837890625,793.7728881835938,790.5494384765625
877,779.2673950195312,796.996337890625,796.5933837890625,788.1318969726562
878,782.087890625,797.3992919921875,794.5787353515625,784.5054931640625
879,788.937744140625,800.2197875976562,794.5787353515625,786.923095703125
880,795.3846435546875,802.6373901367188,796.996337890625,788.1318969726562
881,795.3846435546875,798.2051391601562,798.6080322265625,784.5054931640625
882,798.2051391601562,793.7728881835938,795.3846435546875,788.937744140625
883,796.996337890625,796.5933837890625,789.7435913085938,783.6996459960938
884,790.952392578125,795.3846435546875,792.1611938476562,784.908447265625
885,791.3552856445312,794.1758422851562,791.3552856445312,791.3552856445312
886,794.981689453125,791.3552856445312,791.3552856445312,786.923095703125
887,794.1758422851562,792.1611938476562,792.5640869140625,782.4908447265625
888,791.3552856445312,798.2051391601562,792.5640869140625,788.1318969726562
889,796.1904907226562,801.4285888671875,797.8021850585938,800.6226806640625
890,794.5787353515625,801.8314819335938,801.025634765625,798.2051391601562
891,783.2966918945312,796.996337890625,800.6226806640625,793.3699340820312
892,790.1465454101562,797.3992919921875,801.8314819335938,798.2051391601562
893,787.7289428710938,797.8021850585938,801.025634765625,794.1758422851562
894,779.6703491210938,795.7875366210938,799.8168334960938,788.937744140625
895,788.1318969726562,796.5933837890625,799.4139404296875,796.1904907226562
896,787.7289428710938,800.6226806640625,796.996337890625,799.8168334960938
897,790.1465454101562,798.2051391601562,800.2197875976562,792.5640869140625
898,793.7728881835938,792.967041015625,796.996337890625,788.937744140625
899,796.996337890625,792.967041015625,794.981689453125,795.3846435546875
900,793.3699340820312,794.1758422851562,800.2197875976562,794.1758422851562
901,790.5494384765625,794.5787353515625,799.010986328125,784.5054931640625
902,793.7728881835938,793.3699340820312,796.996337890625,786.923095703125
903,793.7728881835938,789.7435913085938,795.7875366210938,784.908447265625
904,795.7875366210938,792.1611938476562,795.7875366210938,784.1025390625
905,789.7435913085938,796.5933837890625,798.2051391601562,784.908447265625
906,786.1171875,791.3552856445312,799.010986328125,779.2673950195312
907,790.5494384765625,788.937744140625,799.010986328125,793.7728881835938
908,786.5201416015625,787.3259887695312,798.6080322265625,796.996337890625
909,783.6996459960938,786.1171875,801.025634765625,785.3113403320312
910,789.3406372070312,790.952392578125,800.6226806640625,787.7289428710938
911,787.3259887695312,792.1611938476562,799.010986328125,790.5494384765625
912,779.2673950195312,786.923095703125,797.3992919921875,784.1025390625
913,781.6849975585938,791.3552856445312,794.981689453125,782.4908447265625
914,787.7289428710938,793.3699340820312,802.6373901367188,784.908447265625
915,780.4761962890625,779.6703491210938,808.2783813476562,782.4908447265625
916,780.879150390625,781.6849975585938,807.87548828125,785.7142944335938
917,787.3259887695312,792.5640869140625,813.113525390625,783.2966918945312
918,789.3406372070312,790.952392578125,816.7399291992188,781.6849975585938
919,791.3552856445312,788.1318969726562,813.113525390625,789.7435913085938
920,793.7728881835938,789.7435913085938,814.7252807617188,789.3406372070312
921,788.937744140625,790.5494384765625,814.3223266601562,783.2966918945312
922,788.937744140625,792.5640869140625,808.2783813476562,788.1318969726562
923,796.1904907226562,796.996337890625,810.2930297851562,790.1465454101562
924,789.7435913085938,792.967041015625,810.2930297851562,789.7435913085938
925,789.3406372070312,786.923095703125,809.084228515625,789.3406372070312
926,796.5933837890625,785.3113403320312,808.2783813476562,784.1025390625
927,798.2051391601562,787.3259887695312,810.6959838867188,791.7582397460938
928,790.1465454101562,786.923095703125,813.113525390625,794.1758422851562
929,785.3113403320312,788.1318969726562,810.2930297851562,795.7875366210938
930,788.937744140625,790.1465454101562,812.3076782226562,797.8021850585938
931,787.7289428710938,786.5201416015625,812.7106323242188,793.3699340820312
932,785.3113403320312,781.6849975585938,808.6813354492188,788.1318969726562
933,792.1611938476562,780.879150390625,807.87548828125,787.3259887695312
934,796.1904907226562,786.923095703125,809.4871826171875,797.3992919921875
935,786.1171875,790.952392578125,809.4871826171875,795.3846435546875
936,782.4908447265625,791.3552856445312,809.4871826171875,784.5054931640625
937,791.3552856445312,790.1465454101562,810.2930297851562,785.3113403320312
938,792.967041015625,792.5640869140625,805.8607788085938,782.893798828125
939,791.3552856445312,793.7728881835938,803.8461303710938,781.6849975585938
940,786.5201416015625,791.3552856445312,805.4578857421875,779.2673950195312
941,778.8644409179688,787.7289428710938,804.6520385742188,779.6703491210938
942,772.4176025390625,784.908447265625,807.069580078125,776.8497924804688
943,774.4322509765625,787.3259887695312,808.2783813476562,778.8644409179688
944,769.1941528320312,790.5494384765625,804.2490844726562,788.937744140625
945,764.7619018554688,787.7289428710938,802.6373901367188,787.7289428710938
946,772.4176025390625,780.879150390625,805.4578857421875,792.5640869140625
947,774.4322509765625,780.879150390625,806.2637329101562,791.3552856445312
948,781.6849975585938,783.6996459960938,803.4432373046875,786.5201416015625
949,783.2966918945312,786.5201416015625,799.4139404296875,787.7289428710938
950,784.1025390625,787.3259887695312,798.2051391601562,790.1465454101562
951,786.1171875,787.7289428710938,801.4285888671875,794.5787353515625
952,789.7435913085938,791.7582397460938,801.025634765625,801.8314819335938
953,796.5933837890625,795.3846435546875,799.8168334960938,799.4139404296875
954,800.2197875976562,795.3846435546875,799.4139404296875,792.967041015625
955,795.3846435546875,794.1758422851562,802.6373901367188,790.1465454101562
956,794.1758422851562,800.2197875976562,805.054931640625,788.5347900390625
957,796.5933837890625,798.6080322265625,803.8461303710938,788.937744140625
958,796.5933837890625,797.8021850585938,808.6813354492188,790.1465454101562
959,794.981689453125,797.8021850585938,805.054931640625,788.1318969726562
960,792.967041015625,792.1611938476562,794.981689453125,784.1025390625
961,785.7142944335938,788.5347900390625,794.1758422851562,780.0732421875
962,780.879150390625,787.7289428710938,795.7875366210938,778.05859375
963,784.5054931640625,794.5787353515625,797.8021850585938,779.2673950195312
964,786.923095703125,798.2051391601562,796.1904907226562,780.0732421875
965,794.1758422851562,796.5933837890625,798.6080322265625,787.7289428710938
966,788.5347900390625,796.1904907226562,797.3992919921875,786.5201416015625
967,782.893798828125,798.2051391601562,799.010986328125,772.4176025390625
968,781.6849975585938,795.7875366210938,797.3992919921875,776.4468994140625
969,784.1025390625,796.5933837890625,797.8021850585938,791.7582397460938
970,789.3406372070312,797.3992919921875,805.8607788085938,794.1758422851562
971,792.1611938476562,799.010986328125,807.069580078125,790.5494384765625
972,793.3699340820312,800.2197875976562,807.87548828125,788.1318969726562
973,792.5640869140625,795.7875366210938,809.4871826171875,791.3552856445312
974,797.8021850585938,794.1758422851562,809.89013671875,798.6080322265625
975,799.8168334960938,794.1758422851562,804.6520385742188,799.4139404296875
976,792.1611938476562,792.967041015625,802.6373901367188,799.010986328125
977,788.5347900390625,793.7728881835938,802.6373901367188,798.6080322265625
978,790.952392578125,790.1465454101562,800.2197875976562,793.3699340820312
979,800.6226806640625,791.7582397460938,797.8021850585938,793.3699340820312
980,808.6813354492188,797.8021850585938,801.4285888671875,805.054931640625
981,797.3992919921875,795.3846435546875,802.2344360351562,803.4432373046875
982,788.5347900390625,790.5494384765625,799.8168334960938,792.967041015625
983,786.1171875,790.5494384765625,801.8314819335938,790.5494384765625
984,789.7435913085938,792.967041015625,804.2490844726562,790.5494384765625
985,794.1758422851562,791.7582397460938,803.040283203125,790.952392578125
986,790.952392578125,792.1611938476562,797.8021850585938,788.937744140625
987,788.5347900390625,795.7875366210938,795.3846435546875,785.3113403320312
988,792.5640869140625,797.3992919921875,796.5933837890625,787.3259887695312
989,789.3406372070312,800.2197875976562,798.6080322265625,791.3552856445312
990,780.879150390625,798.2051391601562,797.3992919921875,786.1171875
991,781.6849975585938,794.1758422851562,792.1611938476562,780.0732421875
992,781.2820434570312,794.1758422851562,792.5640869140625,786.5201416015625
993,786.923095703125,794.5787353515625,794.5787353515625,784.908447265625
994,790.5494384765625,793.3699340820312,794.5787353515625,780.0732421875
995,786.5201416015625,794.981689453125,790.952392578125,783.6996459960938
996,784.908447265625,797.8021850585938,788.1318969726562,782.4908447265625
997,777.2527465820312,796.996337890625,789.3406372070312,780.0732421875
998,779.2673950195312,791.7582397460938,789.3406372070312,784.908447265625
999,793.7728881835938,790.1465454101562,790.1465454101562,792.1611938476562
1000,799.4139404296875,791.3552856445312,788.1318969726562,788.1318969726562
1001,790.1465454101562,792.1611938476562,784.908447265625,776.0439453125
1002,790.1465454101562,793.3699340820312,787.3259887695312,779.6703491210938
1003,798.6080322265625,792.1611938476562,789.7435913085938,792.967041015625
1004,801.4285888671875,791.7582397460938,795.7875366210938,795.7875366210938
1005,801.025634765625,791.7582397460938,796.996337890625,792.5640869140625
1006,800.6226806640625,792.1611938476562,796.5933837890625,790.952392578125
1007,791.3552856445312,794.5787353515625,801.025634765625,788.5347900390625
1008,783.2966918945312,794.1758422851562,794.5787353515625,784.5054931640625
1009,792.967041015625,795.3846435546875,792.967041015625,781.6849975585938
1010,796.5933837890625,799.8168334960938,795.7875366210938,789.7435913085938
1011,788.937744140625,797.8021850585938,795.3846435546875,794.981689453125
1012,786.1171875,789.7435913085938,795.3846435546875,789.3406372070312
1013,784.1025390625,793.7728881835938,796.996337890625,789.3406372070312
1014,782.893798828125,799.8168334960938,796.1904907226562,791.3552856445312
1015,787.3259887695312,798.6080322265625,795.3846435546875,797.8021850585938
1016,784.5054931640625,794.5787353515625,794.981689453125,792.1611938476562
1017,786.1171875,794.1758422851562,793.7728881835938,788.5347900390625
1018,795.7875366210938,795.7875366210938,796.996337890625,795.7875366210938
1019,789.3406372070312,799.010986328125,795.7875366210938,794.981689453125
1020,789.3406372070312,800.2197875976562,794.5787353515625,792.5640869140625
1021,801.8314819335938,803.4432373046875,796.1904907226562,795.3846435546875
1022,799.4139404296875,803.040283203125,798.2051391601562,796.1904907226562
1023,781.6849975585938,792.5640869140625,792.1611938476562,785.3113403320312
1024,778.4615478515625,796.996337890625,786.923095703125,780.4761962890625
1025,784.908447265625,802.2344360351562,792.1611938476562,780.4761962890625
1026,787.3259887695312,795.3846435546875,792.5640869140625,780.0732421875
1027,784.5054931640625,796.1904907226562,787.7289428710938,779.2673950195312
1028,781.6849975585938,797.3992919921875,788.5347900390625,776.4468994140625
1029,789.3406372070312,796.996337890625,787.7289428710938,778.05859375
1030,790.1465454101562,796.5933837890625,787.3259887695312,784.5054931640625
1031,783.2966918945312,791.7582397460938,789.3406372070312,789.7435913085938
1032,787.7289428710938,791.3552856445312,792.5640869140625,786.5201416015625
1033,787.3259887695312,792.1611938476562,791.7582397460938,782.087890625
1034,786.5201416015625,790.1465454101562,789.7435913085938,785.3113403320312
1035,792.1611938476562,793.7728881835938,794.981689453125,789.7435913085938
1036,788.937744140625,799.8168334960938,796.1904907226562,791.7582397460938
1037,787.7289428710938,799.010986328125,792.5640869140625,786.5201416015625
1038,788.1318969726562,794.5787353515625,791.3552856445312,784.1025390625
1039,791.3552856445312,794.1758422851562,791.3552856445312,786.923095703125
1040,789.7435913085938,793.7728881835938,790.952392578125,785.3113403320312
1041,787.7289428710938,793.7728881835938,793.7728881835938,790.1465454101562
1042,788.937744140625,796.5933837890625,792.5640869140625,796.1904907226562
1043,784.1025390625,794.981689453125,791.7582397460938,792.1611938476562
1044,786.923095703125,797.3992919921875,793.7728881835938,788.5347900390625
1045,792.1611938476562,798.6080322265625,793.7728881835938,788.1318969726562
1046,798.6080322265625,797.8021850585938,793.7728881835938,785.3113403320312
1047,802.2344360351562,796.996337890625,793.3699340820312,789.3406372070312
1048,792.967041015625,796.5933837890625,790.5494384765625,781.2820434570312
1049,790.952392578125,798.6080322265625,794.1758422851562,782.087890625
1050,794.981689453125,796.1904907226562,797.8021850585938,791.7582397460938
1051,810.6959838867188,793.7728881835938,792.967041015625,791.7582397460938
1052,817.94873046875,794.5787353515625,791.7582397460938,783.6996459960938
1053,809.89013671875,796.996337890625,794.1758422851562,784.908447265625
1054,808.6813354492188,796.1904907226562,794.1758422851562,786.1171875
1055,805.8607788085938,801.025634765625,792.5640869140625,776.0439453125
1056,806.6666870117188,801.4285888671875,788.937744140625,775.6410522460938
1057,802.6373901367188,793.7728881835938,785.3113403320312,778.4615478515625
1058,790.5494384765625,790.5494384765625,788.937744140625,780.4761962890625
1059,794.1758422851562,796.5933837890625,794.981689453125,787.3259887695312
1060,796.5933837890625,803.040283203125,797.8021850585938,797.3992919921875
1061,785.7142944335938,801.8314819335938,795.3846435546875,802.6373901367188
1062,782.4908447265625,795.7875366210938,792.1611938476562,800.2197875976562
1063,782.4908447265625,790.952392578125,796.1904907226562,799.4139404296875
1064,779.6703491210938,786.923095703125,794.981689453125,795.7875366210938
1065,779.6703491210938,785.7142944335938,794.981689453125,797.8021850585938
1066,785.7142944335938,790.1465454101562,798.6080322265625,801.4285888671875
1067,784.908447265625,789.7435913085938,797.8021850585938,794.981689453125
1068,782.893798828125,789.7435913085938,797.3992919921875,796.5933837890625
1069,786.923095703125,791.7582397460938,793.7728881835938,794.1758422851562
1070,788.5347900390625,792.1611938476562,791.3552856445312,788.5347900390625
1071,791.7582397460938,794.981689453125,794.1758422851562,786.5201416015625
1072,796.5933837890625,795.3846435546875,796.5933837890625,788.1318969726562
1073,791.7582397460938,793.7728881835938,796.996337890625,784.1025390625
1074,790.952392578125,790.1465454101562,797.3992919921875,782.4908447265625
1075,792.5640869140625,790.5494384765625,796.1904907226562,786.923095703125
1076,793.3699340820312,796.996337890625,793.3699340820312,793.3699340820312
1077,797.3992919921875,800.2197875976562,795.3846435546875,797.3992919921875
1078,790.5494384765625,802.2344360351562,799.4139404296875,794.1758422851562
1079,788.937744140625,797.8021850585938,799.010986328125,787.7289428710938
1080,796.1904907226562,794.981689453125,799.4139404296875,786.5201416015625
1081,798.2051391601562,796.996337890625,800.6226806640625,793.7728881835938
1082,802.6373901367188,799.4139404296875,799.010986328125,794.1758422851562
1083,801.4285888671875,797.3992919921875,794.981689453125,792.1611938476562
1084,792.1611938476562,790.5494384765625,791.7582397460938,785.7142944335938
1085,782.893798828125,787.3259887695312,791.7582397460938,784.1025390625
1086,781.2820434570312,787.7289428710938,794.981689453125,793.3699340820312
1087,793.3699340820312,790.952392578125,795.7875366210938,802.6373901367188
1088,791.3552856445312,792.967041015625,797.3992919921875,803.040283203125
1089,783.6996459960938,793.3699340820312,800.6226806640625,797.8021850585938
1090,787.7289428710938,793.7728881835938,800.2197875976562,794.5787353515625
1091,793.7728881835938,792.967041015625,802.6373901367188,798.2051391601562
1092,792.967041015625,787.3259887695312,800.2197875976562,793.7728881835938
1093,793.3699340820312,786.5201416015625,801.4285888671875,793.7728881835938
1094,792.967041015625,784.908447265625,800.6226806640625,793.7728881835938
1095,790.5494384765625,783.6996459960938,798.6080322265625,788.1318969726562
1096,790.1465454101562,784.908447265625,797.3992919921875,790.5494384765625
1097,787.3259887695312,786.5201416015625,797.8021850585938,793.7728881835938
1098,786.1171875,784.1025390625,799.010986328125,789.3406372070312
1099,780.0732421875,783.6996459960938,795.3846435546875,784.1025390625
1100,776.4468994140625,787.3259887695312,794.1758422851562,779.2673950195312
1101,784.1025390625,788.1318969726562,796.1904907226562,778.8644409179688
1102,790.1465454101562,790.952392578125,794.5787353515625,784.908447265625
1103,788.937744140625,789.3406372070312,792.5640869140625,786.1171875
1104,782.4908447265625,789.7435913085938,796.5933837890625,785.7142944335938
1105,777.2527465820312,790.5494384765625,799.8168334960938,786.923095703125
1106,778.05859375,786.923095703125,793.7728881835938,786.1171875
1107,782.087890625,785.3113403320312,794.1758422851562,793.7728881835938
1108,790.1465454101562,790.5494384765625,796.5933837890625,794.981689453125
1109,790.5494384765625,790.5494384765625,794.981689453125,786.5201416015625
1110,784.5054931640625,782.4908447265625,795.7875366210938,782.893798828125
1111,784.5054931640625,780.0732421875,797.8021850585938,784.1025390625
1112,789.7435913085938,781.6849975585938,801.8314819335938,789.7435913085938
1113,793.3699340820312,785.7142944335938,803.4432373046875,788.937744140625
1114,797.8021850585938,787.3259887695312,799.8168334960938,794.5787353515625
1115,798.6080322265625,783.2966918945312,798.6080322265625,801.025634765625
1116,794.1758422851562,785.7142944335938,802.6373901367188,794.1758422851562
1117,795.7875366210938,787.7289428710938,803.8461303710938,793.3699340820312
1118,803.8461303710938,786.5201416015625,803.4432373046875,799.8168334960938
1119,797.3992919921875,784.908447265625,803.040283203125,797.8021850585938
1120,788.1318969726562,784.1025390625,794.981689453125,788.1318969726562
1121,789.7435913085938,784.908447265625,789.3406372070312,784.1025390625
1122,792.967041015625,788.5347900390625,788.5347900390625,780.4761962890625
1123,796.996337890625,792.5640869140625,793.3699340820312,780.879150390625
1124,792.967041015625,793.3699340820312,798.2051391601562,779.6703491210938
1125,780.879150390625,792.1611938476562,800.6226806640625,777.2527465820312
1126,777.2527465820312,790.952392578125,799.8168334960938,789.3406372070312
1127,784.908447265625,792.5640869140625,799.4139404296875,792.1611938476562
1128,788.5347900390625,790.1465454101562,803.040283203125,785.7142944335938
1129,785.3113403320312,787.7289428710938,801.4285888671875,786.1171875
1130,787.3259887695312,791.7582397460938,801.4285888671875,782.893798828125
1131,792.1611938476562,794.981689453125,805.8607788085938,781.6849975585938
1132,794.1758422851562,795.7875366210938,803.4432373046875,785.3113403320312
1133,798.6080322265625,795.3846435546875,800.6226806640625,791.3552856445312
1134,805.8607788085938,794.1758422851562,802.6373901367188,790.5494384765625
1135,796.5933837890625,796.996337890625,801.8314819335938,783.6996459960938
1136,783.6996459960938,797.3992919921875,796.1904907226562,776.0439453125
1137,784.5054931640625,792.1611938476562,798.2051391601562,778.4615478515625
1138,786.5201416015625,788.937744140625,799.4139404296875,785.7142944335938
1139,782.087890625,790.1465454101562,799.010986328125,782.4908447265625
1140,779.2673950195312,792.967041015625,801.4285888671875,782.087890625
1141,780.4761962890625,788.5347900390625,803.4432373046875,782.087890625
1142,781.2820434570312,780.4761962890625,801.8314819335938,780.0732421875
1143,780.4761962890625,784.5054931640625,799.010986328125,782.4908447265625
1144,783.2966918945312,788.937744140625,802.2344360351562,784.5054931640625
1145,786.5201416015625,788.1318969726562,801.8314819335938,792.5640869140625
1146,784.5054931640625,789.7435913085938,802.6373901367188,794.981689453125
1147,779.2673950195312,790.1465454101562,804.6520385742188,793.7728881835938
1148,774.8351440429688,785.7142944335938,797.3992919921875,792.1611938476562
1149,778.4615478515625,785.3113403320312,797.8021850585938,798.2051391601562
1150,781.6849975585938,787.7289428710938,802.2344360351562,800.2197875976562
1151,780.0732421875,790.1465454101562,800.6226806640625,794.981689453125
1152,788.1318969726562,794.1758422851562,801.8314819335938,796.1904907226562
1153,797.3992919921875,796.996337890625,802.2344360351562,795.3846435546875
1154,792.1611938476562,800.2197875976562,803.8461303710938,796.1904907226562
1155,793.7728881835938,803.4432373046875,802.2344360351562,798.6080322265625
1156,794.5787353515625,801.8314819335938,800.2197875976562,796.5933837890625
1157,798.2051391601562,800.6226806640625,803.040283203125,795.3846435546875
1158,798.6080322265625,797.8021850585938,798.6080322265625,797.3992919921875
1159,790.952392578125,796.5933837890625,794.5787353515625,795.3846435546875
1160,793.7728881835938,796.996337890625,794.981689453125,792.1611938476562
1161,792.5640869140625,796.1904907226562,792.5640869140625,793.7728881835938
1162,784.5054931640625,798.2051391601562,789.3406372070312,791.7582397460938
1163,782.893798828125,799.8168334960938,794.1758422851562,785.7142944335938
1164,791.3552856445312,799.4139404296875,796.5933837890625,786.5201416015625
1165,795.7875366210938,794.1758422851562,792.967041015625,786.1171875
1166,793.3699340820312,791.3552856445312,795.3846435546875,784.5054931640625
1167,792.5640869140625,799.010986328125,799.8168334960938,788.937744140625
1168,783.6996459960938,796.1904907226562,798.2051391601562,790.952392578125
1169,780.879150390625,790.5494384765625,797.8021850585938,793.3699340820312
1170,786.1171875,792.967041015625,800.2197875976562,796.1904907226562
1171,789.7435913085938,796.5933837890625,804.6520385742188,792.5640869140625
1172,788.1318969726562,794.981689453125,804.6520385742188,799.010986328125
1173,786.923095703125,792.1611938476562,802.2344360351562,802.6373901367188
1174,786.1171875,790.952392578125,799.4139404296875,792.967041015625
1175,792.5640869140625,790.952392578125,801.025634765625,793.3699340820312
1176,792.5640869140625,793.7728881835938,801.4285888671875,796.1904907226562
1177,790.1465454101562,791.3552856445312,801.025634765625,795.7875366210938
1178,796.1904907226562,792.1611938476562,800.6226806640625,796.5933837890625
1179,802.2344360351562,796.1904907226562,804.6520385742188,795.3846435546875
1180,805.054931640625,801.025634765625,803.4432373046875,792.5640869140625
1181,799.010986328125,803.040283203125,804.2490844726562,788.937744140625
1182,790.1465454101562,803.040283203125,805.4578857421875,783.2966918945312
1183,791.3552856445312,798.2051391601562,798.6080322265625,787.3259887695312
1184,789.3406372070312,791.3552856445312,793.3699340820312,791.7582397460938
1185,785.7142944335938,792.967041015625,791.3552856445312,782.087890625
1186,789.7435913085938,792.967041015625,796.1904907226562,778.4615478515625
1187,790.1465454101562,796.996337890625,802.2344360351562,786.5201416015625
1188,785.3113403320312,796.996337890625,804.2490844726562,794.5787353515625
1189,788.5347900390625,793.7728881835938,803.8461303710938,796.5933837890625
1190,796.5933837890625,801.8314819335938,808.6813354492188,791.7582397460938
1191,794.981689453125,802.6373901367188,805.4578857421875,790.952392578125
1192,780.879150390625,790.5494384765625,802.2344360351562,789.7435913085938
1193,772.4176025390625,792.5640869140625,796.5933837890625,778.4615478515625
1194,770.4029541015625,800.2197875976562,790.952392578125,771.6116943359375
1195,768.3883056640625,805.4578857421875,799.010986328125,767.5823974609375
1196,771.6116943359375,813.91943359375,810.6959838867188,763.5531005859375
1197,756.7033081054688,819.5604248046875,794.5787353515625,747.8388061523438
1198,741.3919677734375,826.4102783203125,788.1318969726562,733.3333129882812
1199,741.7948608398438,844.1392211914062,803.4432373046875,730.5128173828125
1200,737.3626098632812,847.7655639648438,798.6080322265625,728.4981689453125
1201,723.6630249023438,850.1831665039062,784.908447265625,717.6190185546875
1202,709.5604248046875,865.091552734375,784.908447265625,706.7399291992188
1203,709.1575317382812,871.5384521484375,783.6996459960938,709.5604248046875
1204,709.96337890625,869.120849609375,779.2673950195312,707.1428833007812
1205,687.3992919921875,863.4798583984375,790.952392578125,682.1611938476562
1206,664.4322509765625,859.047607421875,799.4139404296875,664.8351440429688
1207,660.0,853.4066162109375,794.5787353515625,662.8204956054688
1208,660.8058471679688,851.3919677734375,794.5787353515625,655.970703125
1209,664.4322509765625,856.2271118164062,795.7875366210938,656.7765502929688
1210,675.3113403320312,855.4212646484375,792.1611938476562,670.4761962890625
1211,679.3406372070312,850.1831665039062,785.7142944335938,674.1025390625
1212,670.0732421875,853.003662109375,786.5201416015625,665.2380981445312
1213,678.5347900390625,848.974365234375,788.1318969726562,677.7289428710938
1214,693.040283203125,842.5274658203125,785.7142944335938,690.6226806640625
1215,703.91943359375,843.3333129882812,788.1318969726562,697.069580078125
1216,714.7985229492188,840.5128173828125,790.1465454101562,711.5750732421875
1217,726.08056640625,837.6923217773438,794.1758422851562,720.8424682617188
1218,730.915771484375,831.6483764648438,795.3846435546875,733.7362670898438
1219,736.1538696289062,825.6043701171875,799.010986328125,754.6886596679688
1220,758.3150024414062,829.2307739257812,800.6226806640625,760.7326049804688
1221,763.9560546875,823.99267578125,800.6226806640625,755.8974609375
1222,765.1648559570312,813.91943359375,800.2197875976562,758.3150024414062
1223,777.2527465820312,806.6666870117188,797.8021850585938,772.4176025390625
1224,786.1171875,802.2344360351562,794.1758422851562,787.7289428710938
1225,792.1611938476562,799.4139404296875,794.1758422851562,798.2051391601562
1226,804.6520385742188,792.967041015625,793.7728881835938,808.6813354492188
1227,809.89013671875,792.1611938476562,796.5933837890625,814.3223266601562
1228,800.2197875976562,788.1318969726562,801.4285888671875,810.6959838867188
1229,802.2344360351562,777.2527465820312,794.981689453125,810.2930297851562
1230,811.5018310546875,768.7911987304688,789.7435913085938,816.3369750976562
1231,815.93408203125,766.7765502929688,793.7728881835938,822.7838745117188
1232,826.4102783203125,765.970703125,791.3552856445312,824.7985229492188
1233,827.2161254882812,764.3589477539062,784.5054931640625,824.3956298828125
1234,815.93408203125,760.7326049804688,787.7289428710938,824.7985229492188
1235,820.7692260742188,755.4945068359375,790.952392578125,826.8131713867188
1236,831.6483764648438,763.1502075195312,790.5494384765625,831.2454223632812
1237,831.2454223632812,765.1648559570312,791.7582397460938,836.08056640625
1238,828.4249267578125,763.5531005859375,790.1465454101562,836.4835205078125
1239,829.2307739257812,765.970703125,785.3113403320312,835.2747192382812
1240,838.901123046875,764.7619018554688,782.893798828125,837.2893676757812
1241,837.6923217773438,761.94140625,782.4908447265625,833.2600708007812
1242,836.4835205078125,764.3589477539062,784.908447265625,831.2454223632812
1243,845.7509155273438,765.1648559570312,789.7435913085938,827.2161254882812
1244,844.5421142578125,763.9560546875,787.7289428710938,825.2014770507812
1245,834.8717651367188,763.1502075195312,787.3259887695312,835.2747192382812
1246,831.2454223632812,763.5531005859375,791.3552856445312,837.2893676757812
1247,827.2161254882812,764.7619018554688,790.952392578125,829.2307739257812
1248,826.00732421875,763.9560546875,794.1758422851562,831.6483764648438
1249,825.2014770507812,768.3883056640625,795.7875366210938,835.6776733398438
1250,830.03662109375,772.8204956054688,795.3846435546875,831.6483764648438
1251,836.4835205078125,772.8204956054688,794.981689453125,829.6337280273438
1252,836.886474609375,770.4029541015625,793.3699340820312,829.6337280273438
1253,830.03662109375,768.7911987304688,793.3699340820312,823.5897216796875
1254,819.1575317382812,765.1648559570312,790.1465454101562,821.1721801757812
1255,819.96337890625,765.5677490234375,788.937744140625,822.7838745117188
1256,830.4395751953125,768.3883056640625,792.5640869140625,833.6630249023438
1257,823.99267578125,765.970703125,795.3846435546875,841.3186645507812
1258,813.113525390625,768.3883056640625,797.3992919921875,830.4395751953125
1259,812.3076782226562,770.8058471679688,797.3992919921875,821.5750732421875
1260,815.1282348632812,776.0439453125,798.2051391601562,823.99267578125
1261,811.098876953125,774.029296875,796.5933837890625,820.3662719726562
1262,813.91943359375,772.8204956054688,801.4285888671875,816.7399291992188
1263,819.1575317382812,778.8644409179688,805.054931640625,815.1282348632812
1264,812.3076782226562,778.8644409179688,802.6373901367188,808.6813354492188
1265,813.5164794921875,777.6557006835938,796.996337890625,810.2930297851562
1266,814.7252807617188,780.879150390625,790.1465454101562,810.6959838867188
1267,815.1282348632812,777.6557006835938,788.1318969726562,804.2490844726562
1268,814.3223266601562,770.0,789.3406372070312,804.2490844726562
1269,811.098876953125,776.8497924804688,791.3552856445312,801.8314819335938
1270,807.069580078125,781.2820434570312,792.5640869140625,795.3846435546875
1271,802.2344360351562,775.2380981445312,792.967041015625,798.2051391601562
1272,801.8314819335938,775.2380981445312,790.1465454101562,803.4432373046875
1273,803.4432373046875,777.6557006835938,790.952392578125,807.87548828125
1274,801.8314819335938,774.029296875,788.1318969726562,807.87548828125
1275,799.4139404296875,774.8351440429688,789.3406372070312,804.2490844726562
1276,801.8314819335938,778.05859375,796.5933837890625,801.8314819335938
1277,801.8314819335938,774.029296875,790.1465454101562,795.7875366210938
1278,802.2344360351562,776.0439453125,786.923095703125,795.3846435546875
1279,800.2197875976562,774.029296875,790.952392578125,805.4578857421875
1280,795.7875366210938,769.5970458984375,786.1171875,808.6813354492188
1281,800.6226806640625,772.0146484375,783.6996459960938,801.8314819335938
1282,808.2783813476562,776.0439453125,785.7142944335938,801.4285888671875
1283,807.87548828125,778.05859375,786.1171875,801.4285888671875
1284,805.054931640625,772.8204956054688,784.908447265625,801.4285888671875
1285,808.6813354492188,780.0732421875,786.923095703125,808.2783813476562
1286,816.3369750976562,788.5347900390625,792.1611938476562,809.4871826171875
1287,813.5164794921875,783.2966918945312,798.2051391601562,810.6959838867188
1288,804.6520385742188,786.1171875,798.2051391601562,810.2930297851562
1289,799.8168334960938,788.1318969726562,794.5787353515625,804.6520385742188
1290,798.6080322265625,784.908447265625,791.3552856445312,806.6666870117188
1291,791.3552856445312,786.923095703125,792.967041015625,811.098876953125
1292,787.7289428710938,786.923095703125,797.8021850585938,812.7106323242188
1293,787.3259887695312,783.6996459960938,798.2051391601562,801.8314819335938
1294,791.7582397460938,782.087890625,799.8168334960938,799.4139404296875
1295,793.7728881835938,781.6849975585938,794.981689453125,798.2051391601562
1296,793.7728881835938,784.1025390625,795.7875366210938,797.3992919921875
1297,801.025634765625,787.7289428710938,801.8314819335938,801.025634765625
1298,803.8461303710938,784.908447265625,796.996337890625,801.4285888671875
1299,799.8168334960938,785.7142944335938,796.996337890625,802.6373901367188
1300,798.2051391601562,790.5494384765625,796.996337890625,798.2051391601562
1301,796.996337890625,784.1025390625,791.3552856445312,792.967041015625
1302,800.6226806640625,780.879150390625,789.3406372070312,793.7728881835938
1303,805.054931640625,783.6996459960938,785.7142944335938,789.7435913085938
1304,800.2197875976562,782.4908447265625,783.6996459960938,786.1171875
1305,800.2197875976562,785.7142944335938,786.5201416015625,791.3552856445312
1306,807.4725341796875,789.7435913085938,791.7582397460938,791.3552856445312
1307,803.8461303710938,786.1171875,793.3699340820312,791.7582397460938
1308,792.5640869140625,784.5054931640625,794.981689453125,792.1611938476562
1309,789.3406372070312,790.1465454101562,796.1904907226562,785.3113403320312
1310,791.3552856445312,792.1611938476562,794.981689453125,784.1025390625
1311,790.952392578125,786.1171875,795.3846435546875,786.5201416015625
1312,786.923095703125,784.1025390625,793.7728881835938,783.6996459960938
1313,787.3259887695312,781.6849975585938,794.5787353515625,780.879150390625
1314,783.6996459960938,778.4615478515625,794.981689453125,781.2820434570312
1315,782.087890625,780.4761962890625,796.1904907226562,784.1025390625
1316,785.7142944335938,780.4761962890625,797.3992919921875,782.893798828125
1317,786.5201416015625,782.893798828125,795.7875366210938,782.4908447265625
1318,786.1171875,785.3113403320312,803.040283203125,791.3552856445312
1319,788.1318969726562,786.923095703125,801.8314819335938,798.6080322265625
1320,789.7435913085938,790.5494384765625,795.7875366210938,793.3699340820312
1321,791.3552856445312,788.937744140625,803.040283203125,791.7582397460938
1322,795.7875366210938,791.3552856445312,807.4725341796875,796.996337890625
1323,794.981689453125,794.1758422851562,799.4139404296875,796.5933837890625
1324,791.3552856445312,788.937744140625,796.5933837890625,793.3699340820312
1325,788.1318969726562,786.1171875,799.010986328125,793.7728881835938
1326,792.1611938476562,788.1318969726562,797.8021850585938,794.981689453125
1327,799.8168334960938,788.937744140625,795.3846435546875,792.5640869140625
1328,800.6226806640625,787.3259887695312,799.4139404296875,789.3406372070312
1329,804.2490844726562,789.3406372070312,806.2637329101562,795.7875366210938
1330,801.025634765625,786.923095703125,804.2490844726562,801.8314819335938
1331,798.6080322265625,789.3406372070312,801.8314819335938,795.7875366210938
1332,807.87548828125,796.1904907226562,804.6520385742188,796.1904907226562
1333,809.4871826171875,799.010986328125,805.4578857421875,801.8314819335938
1334,799.010986328125,796.5933837890625,796.5933837890625,796.5933837890625
1335,789.7435913085938,792.967041015625,792.967041015625,794.5787353515625
1336,785.3113403320312,787.7289428710938,795.3846435546875,795.3846435546875
1337,794.1758422851562,789.7435913085938,795.7875366210938,796.5933837890625
1338,803.8461303710938,796.1904907226562,800.6226806640625,796.1904907226562
1339,795.3846435546875,794.5787353515625,801.025634765625,792.5640869140625
1340,793.3699340820312,793.3699340820312,799.4139404296875,790.1465454101562
1341,791.3552856445312,790.5494384765625,801.4285888671875,784.1025390625
1342,785.3113403320312,783.6996459960938,796.5933837890625,785.3113403320312
1343,790.5494384765625,789.7435913085938,795.3846435546875,792.1611938476562
1344,797.3992919921875,794.981689453125,801.4285888671875,793.3699340820312
1345,796.1904907226562,791.3552856445312,803.4432373046875,790.5494384765625
1346,790.1465454101562,788.937744140625,799.4139404296875,787.7289428710938
1347,788.5347900390625,787.7289428710938,793.7728881835938,785.7142944335938
1348,791.3552856445312,791.3552856445312,792.967041015625,788.937744140625
1349,799.010986328125,791.7582397460938,792.1611938476562,796.996337890625
1350,798.6080322265625,789.7435913085938,794.5787353515625,794.5787353515625
1351,794.5787353515625,787.3259887695312,793.7728881835938,788.937744140625
1352,795.3846435546875,784.1025390625,784.5054931640625,791.3552856445312
1353,796.1904907226562,785.7142944335938,786.5201416015625,801.025634765625
1354,795.7875366210938,786.1171875,790.952392578125,801.025634765625
1355,791.7582397460938,784.1025390625,792.967041015625,792.1611938476562
1356,784.5054931640625,782.087890625,796.996337890625,792.967041015625
1357,784.5054931640625,786.923095703125,798.6080322265625,796.996337890625
1358,786.923095703125,788.937744140625,802.2344360351562,797.3992919921875
1359,783.2966918945312,787.7289428710938,801.8314819335938,796.996337890625
1360,782.4908447265625,787.3259887695312,798.2051391601562,791.7582397460938
1361,787.3259887695312,783.6996459960938,798.6080322265625,789.7435913085938
1362,790.1465454101562,780.879150390625,802.6373901367188,790.952392578125
1363,794.981689453125,785.3113403320312,801.8314819335938,788.1318969726562
1364,799.4139404296875,791.3552856445312,801.4285888671875,794.981689453125
1365,796.1904907226562,791.7582397460938,803.040283203125,794.5787353515625
1366,794.1758422851562,792.5640869140625,803.040283203125,784.908447265625
1367,791.7582397460938,789.7435913085938,799.8168334960938,785.7142944335938
1368,791.7582397460938,792.967041015625,799.8168334960938,785.7142944335938
1369,797.3992919921875,797.8021850585938,803.040283203125,788.5347900390625
1370,796.1904907226562,793.7728881835938,802.6373901367188,792.1611938476562
1371,790.952392578125,792.5640869140625,802.6373901367188,790.952392578125
1372,792.5640869140625,796.1904907226562,799.010986328125,794.1758422851562
1373,799.4139404296875,796.5933837890625,796.5933837890625,792.967041015625
1374,801.4285888671875,799.010986328125,799.4139404296875,788.5347900390625
1375,796.1904907226562,796.5933837890625,803.040283203125,788.1318969726562
1376,789.7435913085938,794.5787353515625,799.010986328125,786.5201416015625
1377,793.3699340820312,797.8021850585938,799.4139404296875,788.5347900390625
1378,793.3699340820312,796.5933837890625,796.1904907226562,786.5201416015625
1379,790.5494384765625,790.1465454101562,790.5494384765625,780.879150390625
1380,788.5347900390625,794.1758422851562,792.5640869140625,782.087890625
1381,784.908447265625,798.6080322265625,795.7875366210938,788.5347900390625
1382,784.908447265625,794.981689453125,796.996337890625,791.7582397460938
1383,784.908447265625,795.3846435546875,795.7875366210938,792.1611938476562
1384,784.908447265625,797.3992919921875,796.1904907226562,790.5494384765625
1385,785.7142944335938,796.5933837890625,794.981689453125,781.6849975585938
1386,784.5054931640625,796.996337890625,793.7728881835938,778.4615478515625
1387,784.1025390625,797.3992919921875,796.1904907226562,786.923095703125
1388,784.1025390625,799.010986328125,797.3992919921875,792.967041015625
1389,784.1025390625,801.025634765625,797.3992919921875,788.937744140625
1390,784.5054931640625,801.8314819335938,798.2051391601562,783.2966918945312
1391,786.923095703125,799.010986328125,799.8168334960938,777.6557006835938
1392,786.923095703125,793.3699340820312,799.4139404296875,780.879150390625
1393,786.923095703125,796.5933837890625,796.5933837890625,787.7289428710938
1394,789.7435913085938,798.6080322265625,795.3846435546875,790.1465454101562
1395,786.923095703125,794.5787353515625,793.3699340820312,787.3259887695312
1396,780.4761962890625,790.952392578125,794.1758422851562,786.1171875
1397,783.2966918945312,788.937744140625,794.1758422851562,790.5494384765625
1398,786.5201416015625,790.952392578125,789.7435913085938,787.3259887695312
1399,787.7289428710938,794.5787353515625,788.5347900390625,786.5201416015625
1400,798.6080322265625,793.3699340820312,796.1904907226562,791.3552856445312
1401,799.4139404296875,790.5494384765625,792.967041015625,788.5347900390625
1402,794.981689453125,794.1758422851562,787.3259887695312,789.7435913085938
1403,793.3699340820312,797.3992919921875,793.3699340820312,791.7582397460938
1404,792.967041015625,794.981689453125,794.1758422851562,787.7289428710938
1405,794.981689453125,789.3406372070312,791.7582397460938,789.7435913085938
1406,784.5054931640625,788.1318969726562,791.3552856445312,784.908447265625
1407,780.879150390625,788.5347900390625,796.996337890625,782.087890625
1408,782.087890625,789.7435913085938,803.8461303710938,782.4908447265625
1409,784.5054931640625,792.5640869140625,803.8461303710938,785.3113403320312
1410,791.3552856445312,793.3699340820312,803.040283203125,792.5640869140625
1411,786.1171875,792.967041015625,803.040283203125,788.1318969726562
1412,783.2966918945312,791.7582397460938,806.6666870117188,782.4908447265625
1413,786.5201416015625,792.5640869140625,806.2637329101562,783.2966918945312
1414,795.3846435546875,791.7582397460938,803.4432373046875,790.952392578125
1415,788.937744140625,792.1611938476562,796.996337890625,789.3406372070312
1416,783.6996459960938,797.3992919921875,791.7582397460938,781.6849975585938
1417,787.7289428710938,799.8168334960938,796.5933837890625,783.2966918945312
1418,780.879150390625,803.040283203125,799.4139404296875,784.908447265625
1419,785.3113403320312,801.8314819335938,797.8021850585938,782.893798828125
1420,790.5494384765625,799.4139404296875,799.010986328125,781.2820434570312
1421,782.4908447265625,793.3699340820312,797.3992919921875,781.2820434570312
1422,779.6703491210938,788.937744140625,794.1758422851562,774.4322509765625
1423,782.4908447265625,792.5640869140625,794.5787353515625,778.05859375
1424,784.5054931640625,792.1611938476562,792.967041015625,784.908447265625
1425,782.893798828125,790.1465454101562,790.5494384765625,786.5201416015625
1426,778.05859375,790.1465454101562,790.952392578125,788.5347900390625
1427,780.0732421875,790.5494384765625,790.1465454101562,784.1025390625
1428,781.6849975585938,791.3552856445312,788.937744140625,781.2820434570312
1429,780.879150390625,790.1465454101562,783.2966918945312,786.1171875
1430,780.879150390625,792.5640869140625,780.4761962890625,787.3259887695312
1431,783.2966918945312,793.3699340820312,784.5054931640625,782.893798828125
1432,781.2820434570312,795.3846435546875,785.7142944335938,785.7142944335938
1433,780.4761962890625,794.1758422851562,782.893798828125,785.7142944335938
1434,784.1025390625,789.3406372070312,781.2820434570312,786.5201416015625
1435,784.908447265625,790.952392578125,787.7289428710938,789.3406372070312
1436,784.5054931640625,794.5787353515625,796.5933837890625,788.5347900390625
1437,786.1171875,793.3699340820312,794.5787353515625,793.3699340820312
1438,784.908447265625,790.5494384765625,789.3406372070312,791.3552856445312
1439,790.5494384765625,800.6226806640625,794.1758422851562,788.5347900390625
1440,799.4139404296875,805.054931640625,802.2344360351562,796.1904907226562
1441,798.6080322265625,797.3992919921875,799.4139404296875,796.996337890625
1442,798.6080322265625,794.1758422851562,790.952392578125,794.5787353515625
1443,793.3699340820312,791.7582397460938,789.7435913085938,787.7289428710938
1444,786.1171875,792.1611938476562,788.5347900390625,785.3113403320312
1445,785.3113403320312,793.7728881835938,789.3406372070312,792.1611938476562
1446,791.7582397460938,794.1758422851562,790.952392578125,795.7875366210938
1447,790.5494384765625,790.952392578125,791.7582397460938,790.952392578125
1448,791.3552856445312,790.952392578125,792.5640869140625,789.3406372070312
1449,796.1904907226562,792.1611938476562,790.5494384765625,794.5787353515625
1450,796.1904907226562,792.1611938476562,791.7582397460938,792.967041015625
1451,796.996337890625,792.967041015625,790.952392578125,782.4908447265625
1452,796.5933837890625,792.5640869140625,786.5201416015625,779.2673950195312
1453,791.7582397460938,790.5494384765625,791.7582397460938,784.1025390625
1454,790.1465454101562,788.5347900390625,794.981689453125,785.3113403320312
1455,785.3113403320312,789.3406372070312,789.3406372070312,779.6703491210938
1456,777.2527465820312,785.7142944335938,789.3406372070312,773.2234497070312
1457,778.05859375,785.7142944335938,790.5494384765625,770.4029541015625
1458,778.8644409179688,784.908447265625,789.3406372070312,772.4176025390625
1459,780.4761962890625,786.923095703125,788.1318969726562,777.6557006835938
1460,785.3113403320312,794.5787353515625,788.1318969726562,785.3113403320312
1461,789.7435913085938,796.5933837890625,790.952392578125,790.1465454101562
1462,790.5494384765625,794.1758422851562,796.5933837890625,786.1171875
1463,786.1171875,791.7582397460938,796.1904907226562,784.908447265625
1464,783.6996459960938,792.5640869140625,792.967041015625,782.893798828125
1465,783.6996459960938,794.5787353515625,792.5640869140625,780.0732421875
1466,785.3113403320312,796.1904907226562,792.1611938476562,786.5201416015625
1467,784.908447265625,794.1758422851562,787.3259887695312,786.5201416015625
1468,791.7582397460938,791.3552856445312,786.923095703125,778.8644409179688
1469,802.2344360351562,792.5640869140625,793.3699340820312,782.087890625
1470,795.3846435546875,792.967041015625,795.3846435546875,786.923095703125
1471,793.3699340820312,794.5787353515625,795.3846435546875,791.7582397460938
1472,792.1611938476562,797.3992919921875,790.5494384765625,794.5787353515625
1473,785.3113403320312,796.1904907226562,794.1758422851562,798.2051391601562
1474,782.893798828125,792.5640869140625,799.8168334960938,796.996337890625
1475,791.3552856445312,794.5787353515625,798.2051391601562,796.1904907226562
1476,793.3699340820312,794.5787353515625,792.1611938476562,799.010986328125
1477,783.2966918945312,792.967041015625,790.5494384765625,790.5494384765625
1478,786.5201416015625,794.1758422851562,794.1758422851562,786.923095703125
1479,784.5054931640625,792.5640869140625,795.3846435546875,783.6996459960938
1480,779.2673950195312,793.7728881835938,796.5933837890625,784.908447265625
1481,782.087890625,795.7875366210938,798.2051391601562,791.7582397460938
1482,785.7142944335938,793.3699340820312,797.3992919921875,790.952392578125
1483,780.4761962890625,795.3846435546875,797.8021850585938,793.3699340820312
1484,778.4615478515625,802.2344360351562,799.8168334960938,799.010986328125
1485,781.2820434570312,798.6080322265625,797.3992919921875,789.3406372070312
1486,786.5201416015625,795.7875366210938,794.1758422851562,784.908447265625
1487,791.3552856445312,795.3846435546875,795.3846435546875,791.3552856445312
1488,785.7142944335938,790.952392578125,793.7728881835938,786.923095703125
1489,788.5347900390625,791.3552856445312,790.1465454101562,787.3259887695312
1490,801.025634765625,792.1611938476562,791.3552856445312,793.7728881835938
1491,801.8314819335938,794.1758422851562,796.1904907226562,795.3846435546875
1492,796.1904907226562,798.2051391601562,799.8168334960938,794.5787353515625
1493,793.3699340820312,801.4285888671875,799.4139404296875,790.5494384765625
1494,798.2051391601562,801.4285888671875,800.6226806640625,792.1611938476562
1495,796.5933837890625,797.3992919921875,796.1904907226562,796.5933837890625
1496,796.5933837890625,794.981689453125,796.996337890625,797.8021850585938
1497,797.3992919921875,793.7728881835938,799.8168334960938,794.5787353515625
1498,786.923095703125,790.952392578125,796.996337890625,797.8021850585938
1499,782.893798828125,791.3552856445312,796.5933837890625,801.8314819335938
1500,786.923095703125,794.5787353515625,794.5787353515625,794.5787353515625
1501,788.1318969726562,791.3552856445312,791.7582397460938,789.7435913085938
1502,786.923095703125,793.3699340820312,791.7582397460938,795.3846435546875
1503,784.908447265625,796.1904907226562,795.7875366210938,802.6373901367188
1504,780.4761962890625,793.3699340820312,796.5933837890625,794.5787353515625
1505,777.2527465820312,790.5494384765625,795.7875366210938,787.3259887695312
1506,776.4468994140625,788.937744140625,793.3699340820312,789.7435913085938
1507,781.2820434570312,791.7582397460938,794.981689453125,794.1758422851562
1508,784.1025390625,790.5494384765625,798.6080322265625,790.1465454101562
1509,786.1171875,788.937744140625,796.5933837890625,785.3113403320312
1510,790.5494384765625,792.5640869140625,798.2051391601562,790.1465454101562
1511,795.7875366210938,797.3992919921875,800.2197875976562,795.7875366210938
1512,796.1904907226562,794.5787353515625,801.4285888671875,794.5787353515625
1513,797.3992919921875,793.3699340820312,803.4432373046875,797.3992919921875
1514,790.952392578125,794.981689453125,801.8314819335938,796.5933837890625
1515,788.1318969726562,794.5787353515625,799.010986328125,791.7582397460938
1516,797.3992919921875,796.1904907226562,798.6080322265625,794.5787353515625
1517,802.2344360351562,794.981689453125,802.6373901367188,795.3846435546875
1518,801.4285888671875,795.7875366210938,801.8314819335938,793.7728881835938
1519,799.4139404296875,796.996337890625,796.1904907226562,794.1758422851562
1520,795.3846435546875,795.3846435546875,792.5640869140625,790.5494384765625
1521,793.7728881835938,792.1611938476562,790.1465454101562,793.7728881835938
1522,792.1611938476562,795.3846435546875,793.3699340820312,799.8168334960938
1523,792.5640869140625,802.2344360351562,797.3992919921875,796.5933837890625
1524,799.4139404296875,806.6666870117188,797.8021850585938,797.3992919921875
1525,796.1904907226562,801.025634765625,795.3846435546875,794.1758422851562
1526,789.7435913085938,792.967041015625,797.8021850585938,790.5494384765625
1527,786.5201416015625,791.3552856445312,799.8168334960938,792.1611938476562
1528,779.6703491210938,788.5347900390625,800.6226806640625,790.5494384765625
1529,780.4761962890625,790.1465454101562,800.2197875976562,791.7582397460938
1530,787.3259887695312,794.5787353515625,797.8021850585938,792.967041015625
1531,788.937744140625,792.967041015625,796.996337890625,789.3406372070312
1532,795.3846435546875,790.1465454101562,792.967041015625,789.3406372070312
1533,805.8607788085938,792.1611938476562,792.1611938476562,794.1758422851562
1534,801.8314819335938,790.952392578125,795.3846435546875,790.1465454101562
1535,794.5787353515625,792.5640869140625,793.7728881835938,785.3113403320312
1536,797.3992919921875,795.7875366210938,793.7728881835938,793.3699340820312
1537,800.2197875976562,797.3992919921875,791.3552856445312,797.8021850585938
1538,795.7875366210938,789.7435913085938,790.952392578125,797.3992919921875
1539,794.1758422851562,786.5201416015625,792.5640869140625,796.5933837890625
1540,791.3552856445312,792.5640869140625,791.3552856445312,790.952392578125
1541,789.3406372070312,796.996337890625,789.7435913085938,786.5201416015625
1542,791.3552856445312,800.6226806640625,792.1611938476562,790.5494384765625
1543,793.7728881835938,795.7875366210938,792.967041015625,788.1318969726562
1544,794.5787353515625,794.5787353515625,792.967041015625,786.923095703125
1545,787.3259887695312,796.5933837890625,793.3699340820312,792.5640869140625
1546,785.7142944335938,795.3846435546875,791.3552856445312,792.5640869140625
1547,791.7582397460938,796.996337890625,792.967041015625,794.5787353515625
1548,794.5787353515625,794.1758422851562,798.2051391601562,791.7582397460938
1549,792.5640869140625,794.5787353515625,794.5787353515625,787.3259887695312
1550,788.1318969726562,794.981689453125,793.7728881835938,788.937744140625
1551,781.6849975585938,792.1611938476562,796.5933837890625,789.7435913085938
1552,778.4615478515625,789.7435913085938,793.7728881835938,793.7728881835938
1553,788.5347900390625,792.1611938476562,793.3699340820312,797.3992919921875
1554,793.3699340820312,797.8021850585938,794.981689453125,798.2051391601562
1555,796.996337890625,800.2197875976562,799.010986328125,797.8021850585938
1556,800.2197875976562,799.8168334960938,798.2051391601562,806.2637329101562
1557,802.2344360351562,801.8314819335938,798.6080322265625,810.2930297851562
1558,804.6520385742188,801.025634765625,803.4432373046875,801.025634765625
1559,796.5933837890625,796.996337890625,800.6226806640625,795.3846435546875
1560,791.3552856445312,801.4285888671875,794.981689453125,787.7289428710938
1561,791.7582397460938,801.8314819335938,797.8021850585938,789.7435913085938
1562,792.5640869140625,800.6226806640625,801.4285888671875,790.952392578125
1563,796.996337890625,805.054931640625,801.4285888671875,791.7582397460938
1564,796.5933837890625,803.4432373046875,802.6373901367188,795.7875366210938
1565,792.1611938476562,801.8314819335938,802.2344360351562,790.952392578125
1566,784.908447265625,798.2051391601562,798.2051391601562,779.6703491210938
1567,779.6703491210938,792.5640869140625,790.952392578125,776.8497924804688
1568,789.3406372070312,792.967041015625,789.3406372070312,782.4908447265625
1569,794.1758422851562,791.7582397460938,795.3846435546875,781.6849975585938
1570,785.3113403320312,791.7582397460938,798.6080322265625,779.2673950195312
1571,779.6703491210938,790.952392578125,799.010986328125,780.879150390625
1572,786.923095703125,792.5640869140625,798.6080322265625,784.908447265625
1573,799.4139404296875,795.3846435546875,799.8168334960938,782.087890625
1574,795.7875366210938,792.967041015625,796.996337890625,778.8644409179688
1575,785.7142944335938,793.3699340820312,798.6080322265625,782.893798828125
1576,784.908447265625,795.7875366210938,807.069580078125,788.937744140625
1577,785.7142944335938,796.5933837890625,803.8461303710938,792.967041015625
1578,790.952392578125,798.6080322265625,801.025634765625,793.7728881835938
1579,797.3992919921875,801.4285888671875,804.2490844726562,801.025634765625
1580,792.5640869140625,798.6080322265625,799.4139404296875,798.2051391601562
1581,790.952392578125,796.1904907226562,797.3992919921875,789.7435913085938
1582,799.4139404296875,798.2051391601562,801.4285888671875,796.5933837890625
1583,795.3846435546875,793.3699340820312,803.8461303710938,794.981689453125
1584,792.5640869140625,790.952392578125,801.4285888671875,792.5640869140625
1585,791.3552856445312,796.5933837890625,796.996337890625,793.3699340820312
