timestamp,RAW_TP9,RAW_AF7,RAW_AF8,RAW_TP10
1,803.8461303710938,796.996337890625,794.1758422851562,790.952392578125
2,796.996337890625,793.7728881835938,788.1318969726562,790.952392578125
3,788.937744140625,786.923095703125,786.923095703125,793.3699340820312
4,786.1171875,790.5494384765625,785.3113403320312,796.5933837890625
5,790.952392578125,792.5640869140625,780.4761962890625,793.3699340820312
6,794.1758422851562,788.5347900390625,778.8644409179688,794.1758422851562
7,800.2197875976562,787.7289428710938,780.879150390625,799.8168334960938
8,805.8607788085938,790.5494384765625,784.908447265625,802.2344360351562
9,805.4578857421875,792.967041015625,785.7142944335938,799.4139404296875
10,805.4578857421875,792.967041015625,784.908447265625,800.6226806640625
11,811.5018310546875,796.1904907226562,789.7435913085938,804.2490844726562
12,814.3223266601562,796.1904907226562,795.3846435546875,804.2490844726562
13,804.6520385742188,791.3552856445312,793.7728881835938,799.4139404296875
14,798.2051391601562,792.967041015625,790.1465454101562,801.8314819335938
15,799.8168334960938,796.5933837890625,792.967041015625,801.8314819335938
16,798.2051391601562,796.996337890625,797.3992919921875,796.5933837890625
17,797.8021850585938,794.981689453125,796.1904907226562,795.3846435546875
18,795.3846435546875,794.1758422851562,792.1611938476562,802.2344360351562
19,790.952392578125,792.5640869140625,793.3699340820312,801.8314819335938
20,797.3992919921875,789.7435913085938,794.981689453125,791.7582397460938
21,799.8168334960938,788.5347900390625,797.3992919921875,788.1318969726562
22,791.3552856445312,786.5201416015625,801.025634765625,784.908447265625
23,786.923095703125,786.923095703125,796.996337890625,779.2673950195312
24,790.952392578125,784.5054931640625,789.3406372070312,784.1025390625
25,795.7875366210938,785.3113403320312,790.1465454101562,794.981689453125
26,790.1465454101562,792.967041015625,790.952392578125,784.5054931640625
27,784.1025390625,794.1758422851562,789.7435913085938,777.2527465820312
28,782.4908447265625,794.1758422851562,795.7875366210938,788.937744140625
29,784.5054931640625,794.981689453125,792.1611938476562,793.3699340820312
30,785.7142944335938,793.3699340820312,785.3113403320312,792.1611938476562
31,788.1318969726562,793.7728881835938,787.3259887695312,793.3699340820312
32,784.5054931640625,788.937744140625,788.5347900390625,786.923095703125
33,785.3113403320312,788.1318969726562,788.937744140625,784.5054931640625
34,786.1171875,791.7582397460938,790.5494384765625,785.7142944335938
35,784.908447265625,792.5640869140625,788.1318969726562,782.893798828125
36,792.1611938476562,793.3699340820312,787.7289428710938,788.5347900390625
37,794.5787353515625,791.7582397460938,788.5347900390625,790.1465454101562
38,792.5640869140625,793.7728881835938,789.7435913085938,792.5640869140625
39,787.7289428710938,796.1904907226562,791.3552856445312,787.7289428710938
40,786.5201416015625,790.5494384765625,787.7289428710938,781.2820434570312
41,784.5054931640625,790.952392578125,787.3259887695312,783.2966918945312
42,782.893798828125,792.967041015625,788.1318969726562,783.6996459960938
43,782.893798828125,791.3552856445312,785.7142944335938,783.2966918945312
44,776.8497924804688,794.5787353515625,787.7289428710938,783.2966918945312
45,780.0732421875,796.996337890625,793.7728881835938,790.952392578125
46,789.3406372070312,796.1904907226562,793.7728881835938,796.5933837890625
47,797.3992919921875,797.8021850585938,794.981689453125,794.981689453125
48,800.2197875976562,798.6080322265625,793.7728881835938,791.7582397460938
49,794.1758422851562,796.996337890625,796.1904907226562,787.7289428710938
50,793.7728881835938,794.5787353515625,798.6080322265625,792.5640869140625
51,791.3552856445312,792.967041015625,796.996337890625,790.1465454101562
52,786.923095703125,799.010986328125,797.8021850585938,787.7289428710938
53,784.1025390625,799.8168334960938,797.3992919921875,792.1611938476562
54,779.2673950195312,796.996337890625,793.7728881835938,787.3259887695312
55,782.4908447265625,795.7875366210938,793.3699340820312,783.6996459960938
56,790.5494384765625,794.1758422851562,794.981689453125,788.5347900390625
57,790.1465454101562,794.981689453125,794.5787353515625,791.7582397460938
58,783.2966918945312,795.3846435546875,795.3846435546875,785.3113403320312
59,779.6703491210938,792.1611938476562,795.3846435546875,786.923095703125
60,778.4615478515625,790.5494384765625,793.7728881835938,786.923095703125
61,780.879150390625,787.3259887695312,795.7875366210938,780.0732421875
62,782.4908447265625,782.087890625,796.996337890625,778.05859375
63,784.908447265625,784.1025390625,799.8168334960938,780.4761962890625
64,786.5201416015625,788.937744140625,799.8168334960938,786.5201416015625
65,783.2966918945312,791.3552856445312,796.996337890625,791.3552856445312
66,787.7289428710938,794.5787353515625,797.3992919921875,794.981689453125
67,786.1171875,790.5494384765625,792.1611938476562,793.3699340820312
68,782.893798828125,782.087890625,787.7289428710938,794.5787353515625
69,782.893798828125,786.5201416015625,795.3846435546875,798.2051391601562
70,780.879150390625,796.5933837890625,803.040283203125,795.7875366210938
71,780.0732421875,799.8168334960938,801.8314819335938,793.7728881835938
72,780.4761962890625,801.4285888671875,802.2344360351562,797.3992919921875
73,777.6557006835938,801.8314819335938,801.8314819335938,792.1611938476562
74,776.8497924804688,799.010986328125,797.3992919921875,784.908447265625
75,784.908447265625,794.1758422851562,795.3846435546875,785.3113403320312
76,784.1025390625,791.3552856445312,794.1758422851562,780.879150390625
77,783.6996459960938,793.7728881835938,792.5640869140625,787.7289428710938
78,786.5201416015625,794.5787353515625,791.7582397460938,790.952392578125
79,781.2820434570312,790.5494384765625,789.7435913085938,782.893798828125
80,782.4908447265625,784.908447265625,788.5347900390625,788.5347900390625
81,787.7289428710938,786.923095703125,789.7435913085938,788.1318969726562
82,793.7728881835938,793.3699340820312,788.5347900390625,782.087890625
83,795.3846435546875,796.1904907226562,788.1318969726562,781.6849975585938
84,787.7289428710938,796.1904907226562,790.5494384765625,779.2673950195312
85,780.879150390625,791.3552856445312,792.1611938476562,780.879150390625
86,784.5054931640625,787.7289428710938,790.5494384765625,775.2380981445312
87,785.7142944335938,787.3259887695312,785.3113403320312,773.2234497070312
88,786.1171875,788.937744140625,786.1171875,782.893798828125
89,790.5494384765625,792.5640869140625,788.937744140625,783.6996459960938
90,791.7582397460938,793.3699340820312,786.923095703125,781.2820434570312
91,793.7728881835938,791.3552856445312,789.7435913085938,785.7142944335938
92,796.5933837890625,793.3699340820312,792.967041015625,787.7289428710938
93,794.1758422851562,793.7728881835938,792.967041015625,786.1171875
94,785.7142944335938,791.3552856445312,792.1611938476562,787.3259887695312
95,777.6557006835938,786.5201416015625,793.7728881835938,788.5347900390625
96,778.8644409179688,788.1318969726562,790.952392578125,789.7435913085938
97,784.908447265625,790.952392578125,791.3552856445312,788.1318969726562
98,779.6703491210938,788.937744140625,790.952392578125,787.3259887695312
99,781.6849975585938,786.1171875,788.937744140625,788.5347900390625
100,790.1465454101562,784.908447265625,786.5201416015625,789.3406372070312
101,788.1318969726562,786.923095703125,789.7435913085938,787.7289428710938
102,793.7728881835938,790.952392578125,788.937744140625,788.5347900390625
103,797.8021850585938,793.3699340820312,786.923095703125,792.1611938476562
104,794.1758422851562,793.3699340820312,790.952392578125,790.5494384765625
105,788.1318969726562,790.5494384765625,787.7289428710938,783.2966918945312
106,789.3406372070312,788.1318969726562,790.5494384765625,783.2966918945312
107,794.1758422851562,787.7289428710938,793.3699340820312,789.7435913085938
108,791.7582397460938,791.3552856445312,786.1171875,788.1318969726562
109,796.996337890625,794.1758422851562,785.7142944335938,788.5347900390625
110,803.4432373046875,792.1611938476562,790.1465454101562,790.952392578125
111,801.025634765625,797.3992919921875,788.1318969726562,794.1758422851562
112,804.6520385742188,803.040283203125,788.937744140625,796.1904907226562
113,810.6959838867188,803.040283203125,790.952392578125,793.7728881835938
114,799.4139404296875,794.981689453125,786.923095703125,791.7582397460938
115,784.5054931640625,788.1318969726562,784.908447265625,789.3406372070312
116,784.1025390625,794.5787353515625,786.923095703125,788.1318969726562
117,778.8644409179688,791.7582397460938,791.7582397460938,786.923095703125
118,778.05859375,788.937744140625,796.5933837890625,792.5640869140625
119,781.2820434570312,792.1611938476562,796.996337890625,795.3846435546875
120,779.6703491210938,790.5494384765625,796.5933837890625,790.1465454101562
121,784.1025390625,792.967041015625,796.5933837890625,791.7582397460938
122,783.6996459960938,790.5494384765625,796.5933837890625,791.3552856445312
123,783.6996459960938,790.1465454101562,797.8021850585938,791.7582397460938
124,788.1318969726562,794.1758422851562,799.4139404296875,793.3699340820312
125,786.923095703125,790.952392578125,798.6080322265625,787.7289428710938
126,787.7289428710938,790.1465454101562,799.8168334960938,795.7875366210938
127,790.5494384765625,792.967041015625,798.6080322265625,799.8168334960938
128,786.5201416015625,790.1465454101562,794.1758422851562,789.3406372070312
129,787.3259887695312,791.3552856445312,795.7875366210938,791.3552856445312
130,801.4285888671875,796.1904907226562,799.010986328125,803.4432373046875
131,807.87548828125,796.5933837890625,797.8021850585938,803.4432373046875
132,805.054931640625,799.8168334960938,789.7435913085938,799.010986328125
133,811.098876953125,803.4432373046875,788.937744140625,803.040283203125
134,811.5018310546875,802.2344360351562,793.7728881835938,800.2197875976562
135,807.87548828125,798.2051391601562,793.3699340820312,802.2344360351562
136,795.3846435546875,798.6080322265625,790.1465454101562,799.8168334960938
137,789.3406372070312,801.4285888671875,790.1465454101562,797.3992919921875
138,792.5640869140625,797.3992919921875,793.7728881835938,798.2051391601562
139,789.3406372070312,792.1611938476562,790.952392578125,791.3552856445312
140,792.5640869140625,791.7582397460938,791.3552856445312,789.3406372070312
141,787.7289428710938,787.7289428710938,792.5640869140625,789.7435913085938
142,776.0439453125,785.3113403320312,791.3552856445312,786.1171875
143,775.6410522460938,790.1465454101562,795.7875366210938,780.0732421875
144,776.4468994140625,792.5640869140625,799.4139404296875,783.2966918945312
145,779.6703491210938,790.5494384765625,800.2197875976562,784.1025390625
146,773.2234497070312,786.923095703125,796.5933837890625,772.4176025390625
147,764.7619018554688,784.5054931640625,792.967041015625,768.3883056640625
148,772.0146484375,782.893798828125,796.5933837890625,777.2527465820312
149,784.5054931640625,783.6996459960938,802.6373901367188,789.7435913085938
150,784.1025390625,784.1025390625,800.2197875976562,788.937744140625
151,781.2820434570312,785.7142944335938,798.2051391601562,790.952392578125
152,781.6849975585938,788.1318969726562,796.996337890625,794.5787353515625
153,786.1171875,784.5054931640625,794.981689453125,798.6080322265625
154,791.3552856445312,786.5201416015625,797.3992919921875,795.3846435546875
155,792.1611938476562,789.7435913085938,797.3992919921875,790.1465454101562
156,792.1611938476562,788.937744140625,794.1758422851562,792.1611938476562
157,798.2051391601562,792.1611938476562,792.5640869140625,795.3846435546875
158,809.084228515625,794.5787353515625,788.5347900390625,794.1758422851562
159,807.069580078125,795.3846435546875,786.5201416015625,787.3259887695312
160,809.4871826171875,801.8314819335938,786.5201416015625,785.7142944335938
161,819.1575317382812,801.4285888671875,787.3259887695312,780.4761962890625
162,808.6813354492188,794.5787353515625,786.1171875,776.8497924804688
163,792.1611938476562,795.7875366210938,783.6996459960938,778.8644409179688
164,787.7289428710938,794.1758422851562,784.5054931640625,785.7142944335938
165,782.4908447265625,793.3699340820312,785.3113403320312,787.7289428710938
166,776.0439453125,796.1904907226562,786.5201416015625,784.1025390625
167,776.8497924804688,794.981689453125,784.908447265625,786.5201416015625
168,779.2673950195312,793.3699340820312,785.3113403320312,785.7142944335938
169,777.6557006835938,794.5787353515625,791.7582397460938,790.1465454101562
170,781.6849975585938,797.8021850585938,790.952392578125,790.952392578125
171,788.1318969726562,798.2051391601562,789.7435913085938,788.5347900390625
172,786.5201416015625,785.3113403320312,790.1465454101562,786.923095703125
173,792.967041015625,778.05859375,795.3846435546875,792.1611938476562
174,800.2197875976562,788.5347900390625,799.010986328125,798.6080322265625
175,794.1758422851562,787.3259887695312,801.025634765625,799.010986328125
176,789.3406372070312,782.087890625,803.040283203125,804.6520385742188
177,783.6996459960938,780.879150390625,802.6373901367188,801.8314819335938
178,782.4908447265625,786.1171875,797.3992919921875,795.7875366210938
179,795.3846435546875,789.7435913085938,792.1611938476562,797.3992919921875
180,796.1904907226562,790.952392578125,791.7582397460938,795.7875366210938
181,785.7142944335938,796.1904907226562,792.1611938476562,788.937744140625
182,788.937744140625,793.7728881835938,793.3699340820312,786.5201416015625
183,788.5347900390625,790.5494384765625,794.981689453125,789.3406372070312
184,782.4908447265625,792.1611938476562,792.5640869140625,786.5201416015625
185,784.1025390625,789.3406372070312,792.5640869140625,777.6557006835938
186,786.5201416015625,788.5347900390625,796.1904907226562,773.2234497070312
187,780.879150390625,785.3113403320312,793.3699340820312,770.0
188,778.8644409179688,782.893798828125,793.3699340820312,770.0
189,782.4908447265625,786.923095703125,792.967041015625,768.3883056640625
190,779.6703491210938,787.3259887695312,788.1318969726562,769.1941528320312
191,779.2673950195312,792.1611938476562,788.1318969726562,772.8204956054688
192,780.4761962890625,796.996337890625,788.937744140625,773.2234497070312
193,783.6996459960938,792.967041015625,786.923095703125,773.2234497070312
194,787.3259887695312,792.967041015625,789.7435913085938,778.8644409179688
195,785.7142944335938,792.5640869140625,791.3552856445312,780.0732421875
196,786.923095703125,791.3552856445312,791.7582397460938,779.6703491210938
197,782.4908447265625,792.5640869140625,789.7435913085938,776.0439453125
198,782.893798828125,791.3552856445312,785.7142944335938,778.4615478515625
199,786.923095703125,789.3406372070312,788.1318969726562,786.1171875
200,777.2527465820312,790.952392578125,786.5201416015625,787.7289428710938
201,774.8351440429688,796.5933837890625,787.7289428710938,788.937744140625
202,776.4468994140625,795.7875366210938,794.5787353515625,788.5347900390625
203,778.4615478515625,793.3699340820312,796.996337890625,788.5347900390625
204,788.1318969726562,791.3552856445312,799.010986328125,788.1318969726562
205,794.1758422851562,792.967041015625,793.7728881835938,787.7289428710938
206,792.1611938476562,795.3846435546875,792.5640869140625,791.3552856445312
207,794.5787353515625,790.952392578125,796.1904907226562,799.8168334960938
208,801.025634765625,792.1611938476562,796.5933837890625,799.4139404296875
209,796.996337890625,788.937744140625,797.8021850585938,793.7728881835938
210,796.1904907226562,790.1465454101562,800.2197875976562,798.2051391601562
211,800.2197875976562,795.7875366210938,801.025634765625,799.4139404296875
212,786.5201416015625,792.1611938476562,796.996337890625,784.908447265625
213,783.6996459960938,789.3406372070312,796.5933837890625,784.908447265625
214,792.1611938476562,790.1465454101562,798.6080322265625,788.937744140625
215,792.1611938476562,788.5347900390625,795.7875366210938,784.1025390625
216,788.1318969726562,790.5494384765625,794.5787353515625,780.879150390625
217,778.8644409179688,788.937744140625,791.3552856445312,778.4615478515625
218,777.2527465820312,786.923095703125,791.3552856445312,784.908447265625
219,777.6557006835938,790.5494384765625,793.3699340820312,788.1318969726562
220,773.6264038085938,788.937744140625,790.5494384765625,783.2966918945312
221,774.4322509765625,783.2966918945312,789.3406372070312,778.4615478515625
222,773.6264038085938,785.3113403320312,790.5494384765625,783.2966918945312
223,771.6116943359375,787.3259887695312,790.5494384765625,785.3113403320312
224,773.6264038085938,787.3259887695312,791.7582397460938,782.893798828125
225,780.0732421875,790.952392578125,789.3406372070312,782.087890625
226,789.3406372070312,788.5347900390625,787.7289428710938,783.2966918945312
227,789.3406372070312,784.908447265625,788.5347900390625,782.4908447265625
228,784.1025390625,783.2966918945312,790.5494384765625,778.4615478515625
229,788.937744140625,786.1171875,790.952392578125,781.6849975585938
230,799.010986328125,786.923095703125,786.5201416015625,786.1171875
231,799.8168334960938,784.5054931640625,785.7142944335938,785.7142944335938
232,802.2344360351562,787.3259887695312,786.1171875,782.893798828125
233,801.025634765625,790.952392578125,784.5054931640625,779.6703491210938
234,792.1611938476562,792.5640869140625,784.908447265625,782.4908447265625
235,790.952392578125,794.1758422851562,792.1611938476562,789.3406372070312
236,788.937744140625,795.3846435546875,795.7875366210938,789.7435913085938
237,782.4908447265625,795.3846435546875,795.7875366210938,786.5201416015625
238,779.2673950195312,794.981689453125,795.7875366210938,789.7435913085938
239,780.879150390625,792.967041015625,797.8021850585938,788.1318969726562
240,788.5347900390625,794.5787353515625,804.2490844726562,788.5347900390625
241,790.952392578125,795.7875366210938,807.069580078125,792.5640869140625
242,790.5494384765625,790.952392578125,804.6520385742188,788.937744140625
243,798.6080322265625,790.1465454101562,801.025634765625,785.3113403320312
244,802.2344360351562,792.1611938476562,801.4285888671875,787.3259887695312
245,804.6520385742188,794.5787353515625,803.4432373046875,794.981689453125
246,804.2490844726562,794.981689453125,807.4725341796875,798.6080322265625
247,801.4285888671875,796.1904907226562,804.6520385742188,799.010986328125
248,799.010986328125,796.996337890625,804.6520385742188,801.4285888671875
249,792.5640869140625,794.1758422851562,801.8314819335938,803.040283203125
250,794.981689453125,789.7435913085938,801.025634765625,797.8021850585938
251,801.8314819335938,788.937744140625,803.4432373046875,793.3699340820312
252,805.4578857421875,794.5787353515625,803.4432373046875,793.7728881835938
253,805.4578857421875,794.981689453125,801.4285888671875,792.5640869140625
254,803.040283203125,790.1465454101562,799.010986328125,792.5640869140625
255,799.010986328125,790.952392578125,798.2051391601562,791.7582397460938
256,799.010986328125,788.1318969726562,796.5933837890625,795.7875366210938
257,795.3846435546875,784.5054931640625,791.7582397460938,796.5933837890625
258,788.5347900390625,783.6996459960938,787.7289428710938,788.937744140625
259,790.5494384765625,783.6996459960938,786.923095703125,782.4908447265625
260,796.996337890625,786.5201416015625,790.1465454101562,789.7435913085938
261,794.5787353515625,788.5347900390625,794.5787353515625,797.3992919921875
262,788.937744140625,787.7289428710938,794.981689453125,787.3259887695312
263,785.7142944335938,786.1171875,793.7728881835938,784.908447265625
264,784.908447265625,788.937744140625,795.3846435546875,790.1465454101562
265,785.7142944335938,791.3552856445312,798.2051391601562,788.1318969726562
266,786.923095703125,788.5347900390625,796.1904907226562,785.7142944335938
267,780.0732421875,787.3259887695312,794.5787353515625,785.7142944335938
268,778.05859375,792.1611938476562,794.5787353515625,784.908447265625
269,778.4615478515625,790.5494384765625,787.3259887695312,784.5054931640625
270,780.0732421875,790.1465454101562,787.7289428710938,783.6996459960938
271,785.7142944335938,791.3552856445312,787.3259887695312,783.2966918945312
272,793.7728881835938,792.5640869140625,785.7142944335938,791.7582397460938
273,793.7728881835938,793.7728881835938,794.1758422851562,790.5494384765625
274,790.1465454101562,798.2051391601562,794.1758422851562,778.8644409179688
275,797.8021850585938,800.2197875976562,790.952392578125,782.4908447265625
276,792.5640869140625,798.2051391601562,788.1318969726562,777.6557006835938
277,785.3113403320312,793.7728881835938,783.6996459960938,776.0439453125
278,781.6849975585938,792.1611938476562,780.4761962890625,773.2234497070312
279,778.8644409179688,800.2197875976562,783.2966918945312,776.0439453125
280,785.7142944335938,801.8314819335938,786.923095703125,780.4761962890625
281,790.1465454101562,801.025634765625,787.3259887695312,776.0439453125
282,792.1611938476562,803.8461303710938,789.7435913085938,777.6557006835938
283,790.5494384765625,796.996337890625,793.7728881835938,783.2966918945312
284,784.5054931640625,793.7728881835938,794.5787353515625,792.1611938476562
285,778.8644409179688,796.1904907226562,792.5640869140625,785.7142944335938
286,780.4761962890625,794.981689453125,790.1465454101562,784.5054931640625
287,786.923095703125,794.5787353515625,789.7435913085938,792.967041015625
288,789.3406372070312,794.5787353515625,792.967041015625,791.7582397460938
289,781.2820434570312,792.5640869140625,791.7582397460938,783.2966918945312
290,770.0,789.7435913085938,791.7582397460938,782.893798828125
291,770.8058471679688,792.5640869140625,793.7728881835938,786.923095703125
292,778.05859375,796.1904907226562,791.7582397460938,787.7289428710938
293,778.4615478515625,793.3699340820312,792.5640869140625,788.5347900390625
294,776.4468994140625,794.981689453125,791.7582397460938,788.937744140625
295,780.879150390625,790.952392578125,788.937744140625,793.7728881835938
296,791.3552856445312,789.3406372070312,790.1465454101562,792.5640869140625
297,802.2344360351562,794.981689453125,790.1465454101562,791.3552856445312
298,803.040283203125,796.996337890625,788.1318969726562,794.5787353515625
299,795.3846435546875,792.5640869140625,787.7289428710938,791.3552856445312
300,790.952392578125,791.7582397460938,791.3552856445312,786.923095703125
301,795.3846435546875,794.5787353515625,790.1465454101562,786.923095703125
302,793.3699340820312,795.7875366210938,789.3406372070312,786.1171875
303,789.3406372070312,798.2051391601562,788.5347900390625,782.4908447265625
304,790.1465454101562,794.981689453125,790.5494384765625,781.2820434570312
305,787.7289428710938,790.5494384765625,795.7875366210938,780.879150390625
306,788.5347900390625,790.5494384765625,796.996337890625,792.1611938476562
307,788.1318969726562,794.5787353515625,793.7728881835938,797.3992919921875
308,784.5054931640625,791.7582397460938,795.3846435546875,783.6996459960938
309,784.5054931640625,785.3113403320312,798.6080322265625,780.879150390625
310,785.7142944335938,784.1025390625,796.996337890625,784.5054931640625
311,776.4468994140625,786.923095703125,795.7875366210938,786.923095703125
312,765.1648559570312,790.1465454101562,797.3992919921875,788.937744140625
313,761.94140625,787.3259887695312,798.2051391601562,782.087890625
314,766.3735961914062,787.7289428710938,792.5640869140625,782.087890625
315,768.7911987304688,789.3406372070312,794.5787353515625,788.1318969726562
316,770.4029541015625,785.7142944335938,796.5933837890625,786.5201416015625
317,778.4615478515625,778.05859375,792.5640869140625,789.3406372070312
318,783.6996459960938,778.4615478515625,791.3552856445312,794.981689453125
319,782.893798828125,790.952392578125,794.1758422851562,794.5787353515625
320,779.6703491210938,795.3846435546875,799.4139404296875,791.7582397460938
321,780.4761962890625,791.3552856445312,801.8314819335938,792.967041015625
322,780.0732421875,789.7435913085938,798.2051391601562,792.967041015625
323,780.4761962890625,792.5640869140625,797.8021850585938,794.1758422851562
324,788.1318969726562,793.3699340820312,799.4139404296875,794.5787353515625
325,790.952392578125,796.996337890625,796.996337890625,794.1758422851562
326,790.1465454101562,797.8021850585938,794.5787353515625,794.1758422851562
327,790.952392578125,793.3699340820312,792.5640869140625,784.908447265625
328,796.1904907226562,797.3992919921875,791.7582397460938,786.5201416015625
329,803.040283203125,800.6226806640625,792.1611938476562,798.2051391601562
330,794.1758422851562,796.1904907226562,793.3699340820312,789.3406372070312
331,790.1465454101562,794.1758422851562,795.7875366210938,780.879150390625
332,798.6080322265625,799.010986328125,799.010986328125,791.7582397460938
333,797.8021850585938,800.2197875976562,798.2051391601562,797.3992919921875
334,792.5640869140625,799.010986328125,800.6226806640625,796.996337890625
335,791.7582397460938,796.5933837890625,800.2197875976562,794.5787353515625
336,790.1465454101562,798.2051391601562,797.8021850585938,794.981689453125
337,787.7289428710938,801.025634765625,799.4139404296875,798.2051391601562
338,786.5201416015625,799.010986328125,801.025634765625,793.3699340820312
339,789.7435913085938,803.040283203125,801.8314819335938,792.5640869140625
340,793.3699340820312,801.025634765625,796.1904907226562,788.5347900390625
341,795.3846435546875,792.967041015625,793.3699340820312,786.5201416015625
342,795.3846435546875,797.8021850585938,794.5787353515625,789.3406372070312
343,797.8021850585938,803.040283203125,795.3846435546875,790.1465454101562
344,799.010986328125,805.054931640625,797.8021850585938,793.7728881835938
345,791.3552856445312,804.2490844726562,799.8168334960938,792.5640869140625
346,786.923095703125,801.4285888671875,797.8021850585938,790.952392578125
347,790.5494384765625,804.2490844726562,797.8021850585938,790.1465454101562
348,796.996337890625,804.6520385742188,799.4139404296875,795.3846435546875
349,794.981689453125,801.8314819335938,797.8021850585938,794.1758422851562
350,796.996337890625,801.4285888671875,795.3846435546875,787.7289428710938
351,800.6226806640625,797.3992919921875,795.3846435546875,788.937744140625
352,801.025634765625,799.8168334960938,796.5933837890625,790.952392578125
353,803.4432373046875,804.6520385742188,792.1611938476562,790.1465454101562
354,795.3846435546875,798.6080322265625,788.5347900390625,786.1171875
355,787.3259887695312,794.5787353515625,790.952392578125,778.05859375
356,782.087890625,792.1611938476562,794.1758422851562,771.2088012695312
357,783.6996459960938,790.1465454101562,796.1904907226562,774.4322509765625
358,787.3259887695312,788.937744140625,798.2051391601562,778.8644409179688
359,779.6703491210938,792.1611938476562,801.4285888671875,781.6849975585938
360,772.8204956054688,795.7875366210938,799.4139404296875,784.1025390625
361,773.2234497070312,792.1611938476562,795.7875366210938,781.2820434570312
362,782.087890625,792.967041015625,792.1611938476562,781.6849975585938
363,787.7289428710938,796.996337890625,790.1465454101562,781.6849975585938
364,787.7289428710938,794.981689453125,788.937744140625,786.5201416015625
365,790.1465454101562,795.3846435546875,789.7435913085938,793.7728881835938
366,790.952392578125,794.5787353515625,794.1758422851562,788.5347900390625
367,790.952392578125,792.1611938476562,793.7728881835938,784.5054931640625
368,792.1611938476562,793.7728881835938,788.937744140625,791.7582397460938
369,790.952392578125,793.3699340820312,792.5640869140625,794.5787353515625
370,788.5347900390625,789.7435913085938,796.996337890625,793.3699340820312
371,792.1611938476562,788.937744140625,798.6080322265625,800.6226806640625
372,796.996337890625,793.3699340820312,797.8021850585938,800.6226806640625
373,794.1758422851562,798.6080322265625,798.2051391601562,796.5933837890625
374,791.3552856445312,793.3699340820312,797.3992919921875,790.1465454101562
375,796.5933837890625,793.3699340820312,796.5933837890625,787.7289428710938
376,798.2051391601562,801.8314819335938,796.5933837890625,795.7875366210938
377,800.2197875976562,798.6080322265625,799.4139404296875,801.8314819335938
378,794.1758422851562,792.5640869140625,801.8314819335938,795.7875366210938
379,787.3259887695312,792.1611938476562,802.2344360351562,788.937744140625
380,791.3552856445312,793.7728881835938,806.2637329101562,786.923095703125
381,795.3846435546875,795.7875366210938,806.2637329101562,790.1465454101562
382,795.7875366210938,790.5494384765625,803.8461303710938,791.7582397460938
383,798.2051391601562,787.7289428710938,798.2051391601562,788.937744140625
384,797.8021850585938,790.952392578125,799.8168334960938,790.5494384765625
385,796.5933837890625,794.1758422851562,799.8168334960938,794.1758422851562
386,791.7582397460938,796.996337890625,792.967041015625,788.5347900390625
387,793.3699340820312,794.5787353515625,795.7875366210938,794.1758422851562
388,799.010986328125,793.3699340820312,797.8021850585938,800.6226806640625
389,799.4139404296875,792.967041015625,794.981689453125,793.3699340820312
390,799.8168334960938,790.5494384765625,790.952392578125,794.5787353515625
391,797.8021850585938,788.1318969726562,791.3552856445312,802.2344360351562
392,800.6226806640625,790.5494384765625,799.8168334960938,805.4578857421875
393,799.4139404296875,791.3552856445312,800.2197875976562,803.040283203125
394,800.2197875976562,788.937744140625,798.2051391601562,805.054931640625
395,800.2197875976562,788.1318969726562,797.3992919921875,802.2344360351562
396,801.8314819335938,792.1611938476562,792.967041015625,800.2197875976562
397,800.2197875976562,796.996337890625,794.981689453125,795.3846435546875
398,802.2344360351562,794.1758422851562,794.5787353515625,791.7582397460938
399,805.8607788085938,790.1465454101562,793.7728881835938,792.5640869140625
400,799.4139404296875,791.3552856445312,797.3992919921875,790.1465454101562
401,793.7728881835938,790.5494384765625,796.5933837890625,791.3552856445312
402,794.981689453125,784.908447265625,794.5787353515625,798.2051391601562
403,792.1611938476562,782.087890625,794.1758422851562,801.025634765625
404,785.3113403320312,785.7142944335938,795.3846435546875,797.3992919921875
405,785.7142944335938,789.7435913085938,795.7875366210938,799.4139404296875
406,783.6996459960938,789.3406372070312,792.967041015625,799.8168334960938
407,793.3699340820312,791.7582397460938,792.1611938476562,799.010986328125
408,798.6080322265625,790.1465454101562,788.5347900390625,798.6080322265625
409,799.4139404296875,790.1465454101562,787.7289428710938,800.6226806640625
410,805.4578857421875,794.981689453125,794.5787353515625,805.8607788085938
411,800.2197875976562,795.3846435546875,796.996337890625,801.4285888671875
412,798.6080322265625,794.981689453125,795.3846435546875,795.3846435546875
413,805.4578857421875,799.8168334960938,795.7875366210938,794.5787353515625
414,805.4578857421875,795.3846435546875,794.1758422851562,798.2051391601562
415,803.040283203125,789.7435913085938,795.7875366210938,799.4139404296875
416,803.8461303710938,791.3552856445312,797.3992919921875,792.5640869140625
417,795.7875366210938,790.952392578125,796.1904907226562,789.7435913085938
418,782.893798828125,788.1318969726562,792.967041015625,783.2966918945312
419,784.908447265625,784.908447265625,794.1758422851562,780.0732421875
420,793.3699340820312,786.5201416015625,798.6080322265625,779.2673950195312
421,798.2051391601562,789.7435913085938,796.1904907226562,780.4761962890625
422,788.1318969726562,789.7435913085938,791.3552856445312,780.0732421875
423,776.8497924804688,789.3406372070312,790.952392578125,777.2527465820312
424,781.6849975585938,786.1171875,792.5640869140625,779.6703491210938
425,785.7142944335938,786.1171875,793.3699340820312,780.4761962890625
426,782.087890625,788.1318969726562,792.1611938476562,785.3113403320312
427,778.4615478515625,786.1171875,790.952392578125,786.5201416015625
428,780.879150390625,786.1171875,788.5347900390625,781.2820434570312
429,790.5494384765625,790.5494384765625,787.7289428710938,788.1318969726562
430,792.5640869140625,793.3699340820312,789.7435913085938,795.3846435546875
431,791.3552856445312,792.5640869140625,786.5201416015625,789.7435913085938
432,794.981689453125,792.967041015625,786.923095703125,786.923095703125
433,796.5933837890625,795.7875366210938,794.981689453125,788.1318969726562
434,802.2344360351562,801.025634765625,801.025634765625,792.5640869140625
435,805.054931640625,799.8168334960938,801.8314819335938,799.8168334960938
436,803.8461303710938,793.7728881835938,797.3992919921875,798.6080322265625
437,799.010986328125,791.7582397460938,794.5787353515625,796.996337890625
438,789.3406372070312,793.3699340820312,793.3699340820312,793.7728881835938
439,785.7142944335938,792.5640869140625,790.952392578125,786.5201416015625
440,791.3552856445312,789.3406372070312,792.1611938476562,784.908447265625
441,796.1904907226562,790.5494384765625,792.1611938476562,792.1611938476562
442,789.3406372070312,791.3552856445312,794.1758422851562,791.7582397460938
443,782.893798828125,783.6996459960938,794.1758422851562,782.087890625
444,785.3113403320312,788.1318969726562,792.967041015625,788.1318969726562
445,792.5640869140625,793.7728881835938,796.996337890625,790.952392578125
446,798.2051391601562,787.7289428710938,799.8168334960938,787.7289428710938
447,793.7728881835938,788.1318969726562,796.5933837890625,786.1171875
448,792.5640869140625,793.7728881835938,796.5933837890625,790.952392578125
449,796.1904907226562,795.7875366210938,800.2197875976562,795.7875366210938
450,792.1611938476562,790.952392578125,804.2490844726562,792.1611938476562
451,790.5494384765625,788.937744140625,802.2344360351562,794.5787353515625
452,788.5347900390625,792.1611938476562,801.4285888671875,799.8168334960938
453,789.7435913085938,795.7875366210938,803.040283203125,800.2197875976562
454,794.981689453125,796.1904907226562,797.8021850585938,793.3699340820312
455,792.1611938476562,789.7435913085938,795.3846435546875,786.1171875
456,794.981689453125,788.1318969726562,794.5787353515625,788.5347900390625
457,796.996337890625,789.7435913085938,793.7728881835938,788.1318969726562
458,788.1318969726562,792.1611938476562,797.3992919921875,786.5201416015625
459,785.7142944335938,797.3992919921875,800.6226806640625,793.7728881835938
460,785.7142944335938,798.2051391601562,800.2197875976562,792.967041015625
461,792.1611938476562,801.025634765625,801.4285888671875,794.981689453125
462,796.1904907226562,804.2490844726562,801.4285888671875,796.5933837890625
463,788.1318969726562,799.8168334960938,801.025634765625,790.1465454101562
464,786.923095703125,795.3846435546875,803.8461303710938,796.1904907226562
465,786.5201416015625,796.5933837890625,797.3992919921875,794.1758422851562
466,787.7289428710938,803.040283203125,797.8021850585938,786.5201416015625
467,785.3113403320312,802.2344360351562,801.8314819335938,788.1318969726562
468,781.2820434570312,800.6226806640625,803.040283203125,790.1465454101562
469,782.4908447265625,799.4139404296875,803.040283203125,786.923095703125
470,785.3113403320312,794.981689453125,796.5933837890625,786.1171875
471,788.937744140625,796.5933837890625,796.1904907226562,788.5347900390625
472,793.3699340820312,800.2197875976562,799.4139404296875,789.3406372070312
473,788.1318969726562,796.1904907226562,801.8314819335938,788.937744140625
474,784.5054931640625,799.010986328125,801.025634765625,784.908447265625
475,792.1611938476562,800.2197875976562,793.3699340820312,787.7289428710938
476,788.937744140625,797.3992919921875,788.1318969726562,788.1318969726562
477,785.7142944335938,799.010986328125,787.3259887695312,783.6996459960938
478,786.5201416015625,789.3406372070312,789.7435913085938,782.087890625
479,781.2820434570312,787.7289428710938,790.952392578125,780.0732421875
480,781.6849975585938,792.1611938476562,790.952392578125,778.8644409179688
481,790.1465454101562,794.981689453125,794.1758422851562,786.923095703125
482,791.3552856445312,791.7582397460938,794.981689453125,789.3406372070312
483,788.1318969726562,789.7435913085938,794.1758422851562,787.7289428710938
484,788.937744140625,790.952392578125,793.7728881835938,785.3113403320312
485,791.7582397460938,790.5494384765625,791.3552856445312,785.7142944335938
486,794.981689453125,794.1758422851562,793.3699340820312,794.5787353515625
487,795.7875366210938,790.5494384765625,793.3699340820312,795.3846435546875
488,794.1758422851562,790.1465454101562,791.3552856445312,788.5347900390625
489,788.937744140625,790.5494384765625,792.1611938476562,778.4615478515625
490,786.1171875,786.5201416015625,786.923095703125,775.6410522460938
491,790.5494384765625,790.1465454101562,786.5201416015625,783.2966918945312
492,788.1318969726562,792.967041015625,789.7435913085938,786.923095703125
493,785.3113403320312,794.5787353515625,793.3699340820312,783.2966918945312
494,789.7435913085938,792.1611938476562,792.1611938476562,781.6849975585938
495,786.923095703125,795.3846435546875,783.6996459960938,777.6557006835938
496,790.1465454101562,800.6226806640625,785.7142944335938,783.2966918945312
497,790.5494384765625,797.3992919921875,788.937744140625,784.1025390625
498,789.7435913085938,797.3992919921875,790.1465454101562,786.5201416015625
499,796.1904907226562,796.5933837890625,790.952392578125,795.3846435546875
500,791.7582397460938,794.981689453125,789.3406372070312,785.3113403320312
501,791.3552856445312,789.3406372070312,791.7582397460938,782.893798828125
502,800.2197875976562,790.5494384765625,793.3699340820312,790.952392578125
503,792.1611938476562,795.7875366210938,787.7289428710938,789.7435913085938
504,780.4761962890625,798.2051391601562,783.2966918945312,782.087890625
505,781.2820434570312,794.1758422851562,783.6996459960938,779.2673950195312
506,792.967041015625,794.1758422851562,785.7142944335938,790.5494384765625
507,803.8461303710938,800.2197875976562,786.923095703125,795.3846435546875
508,796.996337890625,794.981689453125,786.1171875,791.7582397460938
509,781.2820434570312,788.937744140625,786.923095703125,786.923095703125
510,776.4468994140625,785.7142944335938,788.1318969726562,788.5347900390625
511,781.6849975585938,785.7142944335938,787.7289428710938,793.7728881835938
512,786.923095703125,788.937744140625,783.6996459960938,788.1318969726562
513,789.7435913085938,790.1465454101562,784.5054931640625,786.923095703125
514,789.7435913085938,788.5347900390625,787.7289428710938,790.5494384765625
515,790.1465454101562,790.952392578125,790.5494384765625,793.7728881835938
516,792.1611938476562,794.5787353515625,793.3699340820312,795.3846435546875
517,802.2344360351562,796.5933837890625,796.5933837890625,795.3846435546875
518,803.040283203125,798.2051391601562,796.996337890625,795.7875366210938
519,801.025634765625,796.1904907226562,797.8021850585938,794.1758422851562
520,800.2197875976562,795.3846435546875,798.2051391601562,795.3846435546875
521,790.952392578125,797.3992919921875,798.6080322265625,799.8168334960938
522,789.7435913085938,794.981689453125,797.3992919921875,800.6226806640625
523,799.4139404296875,792.967041015625,796.5933837890625,802.6373901367188
524,796.5933837890625,792.1611938476562,795.3846435546875,799.4139404296875
525,790.952392578125,791.7582397460938,791.7582397460938,798.6080322265625
526,792.967041015625,796.5933837890625,795.7875366210938,801.8314819335938
527,796.5933837890625,796.1904907226562,803.4432373046875,801.025634765625
528,787.7289428710938,796.996337890625,802.2344360351562,794.981689453125
529,768.3883056640625,795.3846435546875,799.010986328125,786.923095703125
530,761.1355590820312,787.7289428710938,800.6226806640625,784.908447265625
531,765.970703125,787.3259887695312,801.025634765625,786.1171875
532,780.4761962890625,786.923095703125,805.054931640625,794.5787353515625
533,782.4908447265625,787.7289428710938,802.6373901367188,796.5933837890625
534,774.8351440429688,796.996337890625,794.1758422851562,794.1758422851562
535,768.3883056640625,796.1904907226562,796.1904907226562,791.3552856445312
536,770.8058471679688,792.1611938476562,797.8021850585938,791.3552856445312
537,777.6557006835938,790.952392578125,795.3846435546875,794.1758422851562
538,784.5054931640625,792.967041015625,795.7875366210938,790.1465454101562
539,793.7728881835938,798.2051391601562,796.1904907226562,784.908447265625
540,790.5494384765625,795.7875366210938,795.7875366210938,784.1025390625
541,792.967041015625,790.1465454101562,792.1611938476562,787.7289428710938
542,799.8168334960938,792.967041015625,792.1611938476562,792.1611938476562
543,795.7875366210938,794.1758422851562,795.3846435546875,793.3699340820312
544,798.2051391601562,787.3259887695312,794.1758422851562,794.981689453125
545,801.4285888671875,788.5347900390625,794.1758422851562,797.3992919921875
546,798.6080322265625,791.3552856445312,798.6080322265625,794.1758422851562
547,801.8314819335938,791.7582397460938,803.4432373046875,794.981689453125
548,807.4725341796875,794.1758422851562,801.8314819335938,803.8461303710938
549,804.2490844726562,793.3699340820312,799.8168334960938,799.4139404296875
550,797.8021850585938,793.7728881835938,799.8168334960938,788.5347900390625
551,797.8021850585938,789.3406372070312,798.2051391601562,789.3406372070312
552,797.3992919921875,788.937744140625,796.996337890625,790.952392578125
553,794.1758422851562,790.952392578125,800.2197875976562,788.1318969726562
554,788.5347900390625,787.3259887695312,801.025634765625,782.893798828125
555,781.2820434570312,787.7289428710938,798.2051391601562,781.6849975585938
556,774.4322509765625,786.5201416015625,800.2197875976562,787.3259887695312
557,770.4029541015625,786.923095703125,799.8168334960938,788.1318969726562
558,774.4322509765625,794.981689453125,798.2051391601562,785.3113403320312
559,780.4761962890625,795.7875366210938,801.8314819335938,782.893798828125
560,778.05859375,788.5347900390625,794.981689453125,785.3113403320312
561,778.05859375,789.7435913085938,792.5640869140625,786.1171875
562,784.1025390625,795.7875366210938,793.3699340820312,781.6849975585938
563,786.923095703125,797.3992919921875,793.7728881835938,783.2966918945312
564,790.5494384765625,794.981689453125,792.967041015625,784.5054931640625
565,794.1758422851562,794.5787353515625,790.952392578125,784.1025390625
566,793.3699340820312,799.010986328125,792.1611938476562,782.4908447265625
567,794.1758422851562,795.7875366210938,792.967041015625,790.952392578125
568,798.2051391601562,792.5640869140625,792.5640869140625,792.967041015625
569,798.6080322265625,792.967041015625,794.1758422851562,788.937744140625
570,798.2051391601562,796.5933837890625,800.6226806640625,794.981689453125
571,802.2344360351562,795.7875366210938,801.8314819335938,799.4139404296875
572,799.4139404296875,791.7582397460938,800.6226806640625,795.7875366210938
573,794.1758422851562,796.5933837890625,803.8461303710938,794.5787353515625
574,783.2966918945312,796.5933837890625,801.4285888671875,790.952392578125
575,774.4322509765625,794.5787353515625,797.8021850585938,787.7289428710938
576,770.8058471679688,792.967041015625,803.040283203125,789.3406372070312
577,772.0146484375,791.7582397460938,804.6520385742188,790.952392578125
578,774.8351440429688,790.5494384765625,803.040283203125,793.3699340820312
579,772.0146484375,786.923095703125,804.2490844726562,793.7728881835938
580,773.6264038085938,776.4468994140625,803.040283203125,791.3552856445312
581,777.6557006835938,775.6410522460938,799.8168334960938,784.908447265625
582,780.0732421875,784.5054931640625,800.2197875976562,778.05859375
583,786.5201416015625,787.7289428710938,795.3846435546875,780.4761962890625
584,795.3846435546875,790.952392578125,790.952392578125,786.5201416015625
585,795.3846435546875,786.923095703125,787.3259887695312,783.2966918945312
586,794.1758422851562,787.3259887695312,787.3259887695312,784.1025390625
587,791.7582397460938,789.7435913085938,793.7728881835938,788.5347900390625
588,796.5933837890625,789.7435913085938,792.5640869140625,787.3259887695312
589,800.2197875976562,790.1465454101562,788.937744140625,787.3259887695312
590,791.3552856445312,791.3552856445312,786.5201416015625,787.7289428710938
591,781.2820434570312,789.7435913085938,784.908447265625,790.952392578125
592,777.6557006835938,786.923095703125,784.5054931640625,786.923095703125
593,785.3113403320312,790.952392578125,782.087890625,779.2673950195312
594,796.1904907226562,795.7875366210938,788.1318969726562,789.7435913085938
595,792.967041015625,796.5933837890625,792.1611938476562,800.2197875976562
596,789.7435913085938,797.8021850585938,788.937744140625,792.1611938476562
597,797.3992919921875,796.5933837890625,786.5201416015625,788.1318969726562
598,793.3699340820312,792.1611938476562,787.7289428710938,789.3406372070312
599,792.5640869140625,797.8021850585938,787.3259887695312,789.7435913085938
600,794.5787353515625,797.8021850585938,782.893798828125,788.5347900390625
601,790.5494384765625,791.3552856445312,783.6996459960938,785.3113403320312
602,791.7582397460938,790.1465454101562,786.5201416015625,786.5201416015625
603,795.3846435546875,790.5494384765625,784.908447265625,788.937744140625
604,794.5787353515625,792.967041015625,785.7142944335938,789.7435913085938
605,784.1025390625,797.3992919921875,784.5054931640625,790.5494384765625
606,781.6849975585938,798.6080322265625,787.3259887695312,799.8168334960938
607,785.3113403320312,798.6080322265625,794.981689453125,798.6080322265625
608,784.908447265625,796.1904907226562,795.3846435546875,786.923095703125
609,793.7728881835938,795.7875366210938,797.3992919921875,792.967041015625
610,792.1611938476562,792.5640869140625,796.996337890625,792.1611938476562
611,790.1465454101562,793.3699340820312,795.3846435546875,790.1465454101562
612,797.8021850585938,802.6373901367188,792.5640869140625,795.3846435546875
613,792.1611938476562,800.2197875976562,787.7289428710938,792.1611938476562
614,785.3113403320312,792.5640869140625,787.7289428710938,790.1465454101562
615,784.1025390625,794.1758422851562,788.1318969726562,789.3406372070312
616,782.087890625,793.3699340820312,790.5494384765625,782.087890625
617,779.6703491210938,788.937744140625,789.7435913085938,779.2673950195312
618,780.4761962890625,788.937744140625,788.937744140625,784.908447265625
619,785.3113403320312,793.7728881835938,790.952392578125,785.3113403320312
620,787.3259887695312,792.967041015625,788.1318969726562,780.4761962890625
621,790.5494384765625,790.952392578125,788.1318969726562,783.6996459960938
622,784.908447265625,789.3406372070312,791.3552856445312,781.6849975585938
623,782.893798828125,790.5494384765625,794.5787353515625,785.3113403320312
624,784.1025390625,788.1318969726562,795.7875366210938,791.3552856445312
625,783.2966918945312,786.923095703125,787.3259887695312,788.937744140625
626,783.6996459960938,786.1171875,789.3406372070312,795.7875366210938
627,780.0732421875,784.908447265625,792.1611938476562,797.8021850585938
628,778.8644409179688,787.3259887695312,790.5494384765625,799.8168334960938
629,778.05859375,784.5054931640625,796.5933837890625,803.8461303710938
630,777.6557006835938,782.4908447265625,799.8168334960938,803.040283203125
631,780.879150390625,784.1025390625,796.5933837890625,800.6226806640625
632,780.879150390625,788.937744140625,800.2197875976562,797.8021850585938
633,779.6703491210938,790.1465454101562,803.8461303710938,801.025634765625
634,786.1171875,788.1318969726562,798.6080322265625,803.8461303710938
635,793.7728881835938,788.1318969726562,796.996337890625,799.010986328125
636,793.3699340820312,788.5347900390625,796.5933837890625,795.3846435546875
637,794.1758422851562,792.5640869140625,798.2051391601562,797.8021850585938
638,798.2051391601562,799.4139404296875,797.8021850585938,794.5787353515625
639,803.040283203125,797.8021850585938,793.7728881835938,788.1318969726562
640,807.4725341796875,791.3552856445312,789.3406372070312,785.7142944335938
641,805.8607788085938,792.967041015625,790.952392578125,790.5494384765625
642,794.981689453125,794.1758422851562,794.981689453125,790.5494384765625
643,793.7728881835938,795.3846435546875,790.952392578125,788.1318969726562
644,794.1758422851562,795.3846435546875,791.7582397460938,791.7582397460938
645,790.1465454101562,794.981689453125,792.967041015625,789.3406372070312
646,791.7582397460938,797.8021850585938,792.967041015625,786.923095703125
647,786.5201416015625,795.7875366210938,793.7728881835938,790.952392578125
648,780.4761962890625,792.5640869140625,788.5347900390625,782.4908447265625
649,777.2527465820312,794.1758422851562,784.5054931640625,782.087890625
650,775.2380981445312,791.3552856445312,785.7142944335938,787.3259887695312
651,778.8644409179688,784.5054931640625,792.967041015625,787.7289428710938
652,778.4615478515625,782.893798828125,791.7582397460938,784.908447265625
653,773.6264038085938,782.4908447265625,790.1465454101562,779.6703491210938
654,770.8058471679688,783.6996459960938,798.6080322265625,784.1025390625
655,771.6116943359375,785.3113403320312,802.2344360351562,786.5201416015625
656,769.5970458984375,783.6996459960938,800.2197875976562,789.7435913085938
657,772.8204956054688,783.2966918945312,802.6373901367188,790.5494384765625
658,786.5201416015625,784.1025390625,802.2344360351562,785.3113403320312
659,796.5933837890625,784.1025390625,796.996337890625,784.908447265625
660,802.2344360351562,786.1171875,796.5933837890625,782.4908447265625
661,808.2783813476562,789.3406372070312,798.2051391601562,786.1171875
662,814.7252807617188,788.5347900390625,796.5933837890625,795.7875366210938
663,809.89013671875,789.7435913085938,790.5494384765625,792.1611938476562
664,806.2637329101562,794.1758422851562,788.5347900390625,787.3259887695312
665,810.6959838867188,792.1611938476562,789.3406372070312,795.3846435546875
666,812.3076782226562,790.5494384765625,788.937744140625,799.8168334960938
667,811.90478515625,796.1904907226562,789.7435913085938,801.4285888671875
668,815.1282348632812,800.2197875976562,793.7728881835938,805.054931640625
669,816.7399291992188,800.2197875976562,789.3406372070312,798.2051391601562
670,809.084228515625,793.7728881835938,786.1171875,792.5640869140625
671,811.5018310546875,790.5494384765625,794.1758422851562,800.6226806640625
672,810.2930297851562,791.3552856445312,795.3846435546875,802.6373901367188
673,794.981689453125,786.923095703125,790.5494384765625,798.6080322265625
674,786.923095703125,789.3406372070312,783.2966918945312,799.4139404296875
675,785.7142944335938,794.1758422851562,780.0732421875,793.7728881835938
676,784.5054931640625,793.7728881835938,782.893798828125,788.1318969726562
677,783.2966918945312,788.5347900390625,785.7142944335938,784.5054931640625
678,782.893798828125,786.923095703125,788.937744140625,777.2527465820312
679,787.7289428710938,786.1171875,788.5347900390625,781.2820434570312
680,790.1465454101562,787.7289428710938,786.1171875,782.087890625
681,788.937744140625,790.5494384765625,786.1171875,780.0732421875
682,795.7875366210938,786.923095703125,789.3406372070312,781.6849975585938
683,799.8168334960938,789.3406372070312,785.7142944335938,780.0732421875
684,802.6373901367188,790.952392578125,782.893798828125,778.4615478515625
685,785.7142944335938,790.1465454101562,789.3406372070312,788.5347900390625
686,784.1025390625,792.1611938476562,788.1318969726562,790.952392578125
687,784.5054931640625,791.7582397460938,788.937744140625,792.1611938476562
688,782.087890625,788.1318969726562,790.952392578125,789.7435913085938
689,780.4761962890625,788.1318969726562,792.967041015625,784.5054931640625
690,782.4908447265625,796.1904907226562,790.952392578125,782.4908447265625
691,784.5054931640625,798.2051391601562,789.3406372070312,788.5347900390625
692,789.7435913085938,798.2051391601562,788.1318969726562,788.1318969726562
693,793.7728881835938,798.2051391601562,788.5347900390625,777.2527465820312
694,787.7289428710938,797.8021850585938,791.7582397460938,775.2380981445312
695,791.3552856445312,794.1758422851562,789.3406372070312,776.0439453125
696,798.2051391601562,791.7582397460938,787.3259887695312,774.4322509765625
697,791.3552856445312,792.967041015625,789.3406372070312,773.2234497070312
698,788.5347900390625,792.1611938476562,790.1465454101562,772.4176025390625
699,791.3552856445312,792.967041015625,793.3699340820312,774.4322509765625
700,786.923095703125,794.1758422851562,794.1758422851562,776.4468994140625
701,789.7435913085938,793.7728881835938,791.7582397460938,778.8644409179688
702,795.3846435546875,792.1611938476562,790.1465454101562,782.087890625
703,792.967041015625,790.5494384765625,790.5494384765625,788.5347900390625
704,789.3406372070312,789.7435913085938,793.3699340820312,789.7435913085938
705,792.967041015625,783.2966918945312,796.1904907226562,790.5494384765625
706,802.2344360351562,779.2673950195312,799.4139404296875,796.996337890625
707,796.996337890625,785.7142944335938,798.2051391601562,794.5787353515625
708,786.923095703125,791.7582397460938,794.981689453125,792.5640869140625
709,788.937744140625,791.3552856445312,793.7728881835938,795.7875366210938
710,792.1611938476562,786.5201416015625,796.5933837890625,799.8168334960938
711,791.7582397460938,781.6849975585938,796.5933837890625,804.2490844726562
712,789.7435913085938,782.4908447265625,794.1758422851562,799.010986328125
713,786.5201416015625,784.908447265625,789.7435913085938,794.981689453125
714,789.3406372070312,786.923095703125,794.1758422851562,801.4285888671875
715,790.5494384765625,784.5054931640625,796.1904907226562,800.2197875976562
716,793.7728881835938,781.6849975585938,790.5494384765625,789.3406372070312
717,805.054931640625,787.3259887695312,789.7435913085938,791.3552856445312
718,800.2197875976562,791.3552856445312,792.5640869140625,794.1758422851562
719,791.3552856445312,788.937744140625,788.937744140625,786.923095703125
720,795.3846435546875,784.908447265625,787.7289428710938,784.908447265625
721,795.3846435546875,785.7142944335938,793.7728881835938,788.937744140625
722,795.7875366210938,794.5787353515625,791.3552856445312,791.7582397460938
723,788.937744140625,796.996337890625,789.3406372070312,782.4908447265625
724,787.7289428710938,793.3699340820312,794.5787353515625,777.2527465820312
725,793.7728881835938,797.3992919921875,794.5787353515625,786.1171875
726,790.952392578125,805.4578857421875,790.952392578125,788.1318969726562
727,791.7582397460938,802.6373901367188,791.3552856445312,786.923095703125
728,796.996337890625,799.4139404296875,795.3846435546875,792.967041015625
729,794.1758422851562,797.3992919921875,796.5933837890625,796.1904907226562
730,784.5054931640625,790.952392578125,796.5933837890625,798.6080322265625
731,791.7582397460938,792.5640869140625,798.2051391601562,796.5933837890625
732,792.967041015625,793.3699340820312,795.7875366210938,792.5640869140625
733,790.5494384765625,791.7582397460938,794.981689453125,792.967041015625
734,791.7582397460938,795.3846435546875,794.981689453125,794.1758422851562
735,792.1611938476562,796.1904907226562,796.996337890625,794.1758422851562
736,796.996337890625,792.967041015625,798.6080322265625,790.1465454101562
737,799.4139404296875,793.7728881835938,796.5933837890625,782.087890625
738,794.1758422851562,792.967041015625,795.7875366210938,780.0732421875
739,787.3259887695312,790.1465454101562,796.5933837890625,781.2820434570312
740,785.3113403320312,793.3699340820312,797.8021850585938,786.1171875
741,784.908447265625,793.7728881835938,796.1904907226562,785.7142944335938
742,789.7435913085938,793.3699340820312,794.981689453125,783.6996459960938
743,793.3699340820312,793.7728881835938,792.1611938476562,782.4908447265625
744,790.5494384765625,792.967041015625,789.7435913085938,781.2820434570312
745,785.3113403320312,796.996337890625,790.5494384765625,783.2966918945312
746,785.3113403320312,795.7875366210938,791.3552856445312,779.6703491210938
747,788.5347900390625,796.5933837890625,792.1611938476562,784.1025390625
748,785.7142944335938,795.3846435546875,794.5787353515625,791.3552856445312
749,786.1171875,794.981689453125,792.5640869140625,794.5787353515625
750,788.1318969726562,799.010986328125,790.1465454101562,794.5787353515625
751,784.5054931640625,799.8168334960938,790.952392578125,794.5787353515625
752,787.3259887695312,802.2344360351562,791.3552856445312,804.2490844726562
753,792.5640869140625,801.4285888671875,793.3699340820312,805.054931640625
754,788.5347900390625,798.6080322265625,793.3699340820312,797.3992919921875
755,789.7435913085938,800.6226806640625,793.3699340820312,800.2197875976562
756,792.1611938476562,801.4285888671875,792.967041015625,802.6373901367188
757,792.967041015625,797.8021850585938,794.981689453125,804.6520385742188
758,790.1465454101562,796.996337890625,794.981689453125,798.2051391601562
759,784.5054931640625,796.996337890625,795.7875366210938,793.3699340820312
760,788.5347900390625,794.1758422851562,802.2344360351562,797.3992919921875
761,785.3113403320312,792.5640869140625,802.2344360351562,793.7728881835938
762,783.2966918945312,796.1904907226562,796.1904907226562,795.3846435546875
763,788.1318969726562,800.6226806640625,797.3992919921875,795.3846435546875
764,790.5494384765625,799.010986328125,801.025634765625,798.6080322265625
765,786.5201416015625,793.7728881835938,796.5933837890625,796.5933837890625
766,783.6996459960938,795.3846435546875,794.981689453125,781.2820434570312
767,794.1758422851562,799.010986328125,796.5933837890625,785.7142944335938
768,800.2197875976562,798.2051391601562,792.967041015625,790.952392578125
769,799.010986328125,799.4139404296875,793.3699340820312,792.5640869140625
770,794.5787353515625,795.3846435546875,798.6080322265625,794.5787353515625
771,787.7289428710938,792.5640869140625,796.996337890625,794.5787353515625
772,782.087890625,796.996337890625,800.2197875976562,791.3552856445312
773,782.087890625,798.2051391601562,798.6080322265625,785.3113403320312
774,785.7142944335938,794.5787353515625,799.010986328125,783.2966918945312
775,785.7142944335938,790.952392578125,795.3846435546875,783.2966918945312
776,787.7289428710938,788.1318969726562,794.981689453125,788.1318969726562
777,788.1318969726562,789.3406372070312,797.3992919921875,784.908447265625
778,792.1611938476562,794.5787353515625,796.5933837890625,783.2966918945312
779,793.7728881835938,795.7875366210938,799.8168334960938,783.2966918945312
780,783.2966918945312,796.5933837890625,796.996337890625,779.6703491210938
781,779.2673950195312,794.1758422851562,793.7728881835938,780.0732421875
782,780.879150390625,789.7435913085938,792.967041015625,776.0439453125
783,777.6557006835938,787.7289428710938,793.3699340820312,772.0146484375
784,771.2088012695312,785.7142944335938,789.3406372070312,773.2234497070312
785,772.4176025390625,783.2966918945312,787.3259887695312,772.4176025390625
786,782.087890625,780.879150390625,790.952392578125,774.8351440429688
787,786.923095703125,781.2820434570312,787.7289428710938,780.879150390625
788,790.952392578125,781.2820434570312,787.3259887695312,781.6849975585938
789,792.1611938476562,782.893798828125,787.3259887695312,774.8351440429688
790,789.3406372070312,786.5201416015625,785.3113403320312,778.4615478515625
791,790.952392578125,790.952392578125,786.5201416015625,782.893798828125
792,789.3406372070312,792.5640869140625,786.5201416015625,780.4761962890625
793,787.3259887695312,788.937744140625,789.7435913085938,784.5054931640625
794,792.5640869140625,788.5347900390625,789.3406372070312,790.5494384765625
795,791.3552856445312,786.5201416015625,789.3406372070312,792.967041015625
796,789.7435913085938,784.1025390625,794.1758422851562,789.7435913085938
797,792.967041015625,787.3259887695312,794.5787353515625,785.3113403320312
798,791.7582397460938,788.5347900390625,796.5933837890625,787.7289428710938
799,791.3552856445312,787.3259887695312,795.3846435546875,789.7435913085938
800,788.937744140625,789.3406372070312,792.967041015625,784.1025390625
801,786.923095703125,796.1904907226562,795.3846435546875,780.4761962890625
802,786.1171875,794.981689453125,794.5787353515625,780.879150390625
803,791.7582397460938,788.1318969726562,792.5640869140625,783.6996459960938
804,790.5494384765625,786.923095703125,794.1758422851562,780.0732421875
805,783.2966918945312,789.3406372070312,794.1758422851562,777.6557006835938
806,785.7142944335938,792.5640869140625,792.1611938476562,782.087890625
807,789.7435913085938,791.7582397460938,790.952392578125,784.5054931640625
808,788.937744140625,789.3406372070312,790.952392578125,786.1171875
809,781.2820434570312,786.923095703125,788.937744140625,786.923095703125
810,780.0732421875,787.3259887695312,787.3259887695312,789.3406372070312
811,780.4761962890625,790.952392578125,789.3406372070312,787.3259887695312
812,780.0732421875,786.923095703125,792.1611938476562,783.2966918945312
813,786.5201416015625,791.7582397460938,792.5640869140625,788.937744140625
814,794.1758422851562,792.967041015625,794.1758422851562,797.3992919921875
815,795.3846435546875,791.7582397460938,794.5787353515625,796.5933837890625
816,790.952392578125,794.981689453125,789.7435913085938,787.3259887695312
817,787.3259887695312,792.1611938476562,786.923095703125,790.1465454101562
818,790.5494384765625,790.1465454101562,789.7435913085938,792.967041015625
819,792.967041015625,794.5787353515625,793.3699340820312,791.7582397460938
820,791.7582397460938,796.1904907226562,794.981689453125,791.3552856445312
821,797.3992919921875,792.5640869140625,793.3699340820312,787.7289428710938
822,803.040283203125,793.7728881835938,795.7875366210938,792.967041015625
823,804.2490844726562,792.967041015625,795.7875366210938,793.7728881835938
824,802.6373901367188,791.7582397460938,790.952392578125,785.7142944335938
825,799.010986328125,794.1758422851562,790.952392578125,786.5201416015625
826,796.996337890625,794.1758422851562,798.2051391601562,794.5787353515625
827,796.1904907226562,797.8021850585938,802.6373901367188,790.5494384765625
828,798.6080322265625,801.4285888671875,801.8314819335938,788.1318969726562
829,796.1904907226562,799.4139404296875,799.010986328125,793.3699340820312
830,788.937744140625,793.3699340820312,795.7875366210938,790.1465454101562
831,785.3113403320312,787.7289428710938,796.5933837890625,786.5201416015625
832,782.4908447265625,784.1025390625,799.8168334960938,789.3406372070312
833,787.7289428710938,784.908447265625,795.7875366210938,793.3699340820312
834,788.5347900390625,786.5201416015625,793.7728881835938,790.5494384765625
835,779.6703491210938,785.7142944335938,793.7728881835938,786.923095703125
836,778.8644409179688,785.7142944335938,790.1465454101562,788.1318969726562
837,784.5054931640625,786.1171875,790.5494384765625,793.3699340820312
838,783.6996459960938,786.1171875,795.3846435546875,792.967041015625
839,779.6703491210938,783.2966918945312,793.7728881835938,788.937744140625
840,782.087890625,784.5054931640625,792.1611938476562,790.5494384765625
841,785.3113403320312,786.923095703125,795.3846435546875,793.3699340820312
842,790.952392578125,789.3406372070312,794.5787353515625,792.1611938476562
843,796.5933837890625,788.5347900390625,794.981689453125,790.1465454101562
844,791.3552856445312,784.1025390625,792.1611938476562,791.3552856445312
845,784.908447265625,786.5201416015625,792.1611938476562,792.5640869140625
846,783.6996459960938,785.3113403320312,796.1904907226562,789.7435913085938
847,780.879150390625,781.6849975585938,796.5933837890625,786.5201416015625
848,782.4908447265625,786.1171875,797.3992919921875,791.3552856445312
849,788.937744140625,791.7582397460938,799.4139404296875,797.3992919921875
850,783.2966918945312,790.1465454101562,801.025634765625,786.923095703125
851,773.2234497070312,788.937744140625,798.6080322265625,777.6557006835938
852,770.4029541015625,784.1025390625,796.1904907226562,774.4322509765625
853,775.6410522460938,783.2966918945312,793.3699340820312,774.8351440429688
854,779.2673950195312,791.7582397460938,790.5494384765625,782.4908447265625
855,778.05859375,792.967041015625,792.967041015625,786.5201416015625
856,778.05859375,793.3699340820312,790.1465454101562,782.087890625
857,776.4468994140625,792.967041015625,787.3259887695312,779.6703491210938
858,776.8497924804688,792.967041015625,786.5201416015625,781.2820434570312
859,785.3113403320312,790.1465454101562,788.937744140625,782.893798828125
860,789.3406372070312,783.2966918945312,785.7142944335938,782.893798828125
861,788.937744140625,786.1171875,784.5054931640625,784.908447265625
862,786.923095703125,793.3699340820312,790.1465454101562,788.1318969726562
863,785.7142944335938,792.1611938476562,791.7582397460938,794.1758422851562
864,788.5347900390625,788.937744140625,788.5347900390625,794.5787353515625
865,794.1758422851562,790.1465454101562,785.3113403320312,792.967041015625
866,794.1758422851562,790.952392578125,784.1025390625,786.5201416015625
867,787.7289428710938,791.7582397460938,784.5054931640625,783.2966918945312
868,785.7142944335938,792.5640869140625,786.923095703125,786.1171875
869,788.937744140625,793.3699340820312,788.937744140625,787.3259887695312
870,801.8314819335938,796.996337890625,791.3552856445312,792.5640869140625
871,793.3699340820312,792.967041015625,794.981689453125,791.7582397460938
872,782.087890625,790.5494384765625,794.981689453125,793.3699340820312
873,785.7142944335938,794.5787353515625,791.7582397460938,790.5494384765625
874,782.893798828125,794.981689453125,793.7728881835938,788.5347900390625
875,783.6996459960938,794.981689453125,796.1904907226562,790.5494384765625
876,783.2966918945312,796.996337890625,792.967041015625,780.879150390625
877,780.879150390625,792.5640869140625,790.952392578125,777.6557006835938
878,779.6703491210938,788.1318969726562,788.937744140625,780.0732421875
879,784.908447265625,793.3699340820312,792.967041015625,788.1318969726562
880,792.967041015625,800.2197875976562,797.8021850585938,791.3552856445312
881,792.967041015625,800.6226806640625,797.3992919921875,790.5494384765625
882,790.5494384765625,801.4285888671875,796.1904907226562,790.5494384765625
883,790.1465454101562,801.025634765625,794.5787353515625,791.7582397460938
884,795.3846435546875,802.2344360351562,792.967041015625,792.967041015625
885,796.5933837890625,802.6373901367188,790.952392578125,781.6849975585938
886,792.967041015625,796.1904907226562,790.952392578125,778.8644409179688
887,789.7435913085938,796.1904907226562,787.7289428710938,781.2820434570312
888,786.5201416015625,796.1904907226562,793.3699340820312,780.0732421875
889,790.1465454101562,796.1904907226562,796.5933837890625,785.3113403320312
890,793.3699340820312,799.4139404296875,792.1611938476562,790.952392578125
891,791.3552856445312,795.7875366210938,792.967041015625,792.5640869140625
892,790.1465454101562,794.981689453125,792.1611938476562,794.5787353515625
893,788.937744140625,792.967041015625,792.5640869140625,796.996337890625
894,787.7289428710938,790.5494384765625,795.7875366210938,798.2051391601562
895,790.1465454101562,796.5933837890625,799.010986328125,802.6373901367188
896,788.937744140625,796.996337890625,799.010986328125,800.2197875976562
897,782.893798828125,793.3699340820312,798.6080322265625,796.1904907226562
898,781.6849975585938,792.1611938476562,795.7875366210938,801.8314819335938
899,779.6703491210938,790.1465454101562,794.5787353515625,801.8314819335938
900,777.6557006835938,791.7582397460938,796.5933837890625,791.3552856445312
901,780.879150390625,792.1611938476562,793.3699340820312,788.937744140625
902,785.7142944335938,790.1465454101562,791.3552856445312,792.1611938476562
903,791.3552856445312,792.967041015625,796.1904907226562,794.981689453125
904,790.5494384765625,790.952392578125,797.3992919921875,792.5640869140625
905,788.937744140625,785.7142944335938,797.3992919921875,794.1758422851562
906,795.7875366210938,786.1171875,798.2051391601562,801.025634765625
907,799.4139404296875,792.967041015625,799.4139404296875,798.6080322265625
908,797.3992919921875,796.996337890625,797.3992919921875,790.5494384765625
909,792.1611938476562,792.1611938476562,792.967041015625,782.087890625
910,795.3846435546875,790.952392578125,794.1758422851562,788.1318969726562
911,795.3846435546875,794.1758422851562,794.981689453125,789.7435913085938
912,787.3259887695312,796.5933837890625,793.3699340820312,783.2966918945312
913,787.3259887695312,796.1904907226562,796.1904907226562,780.879150390625
914,791.7582397460938,795.7875366210938,797.8021850585938,783.6996459960938
915,795.3846435546875,791.3552856445312,797.3992919921875,785.3113403320312
916,794.1758422851562,786.5201416015625,795.3846435546875,783.6996459960938
917,789.7435913085938,788.1318969726562,793.3699340820312,787.3259887695312
918,784.908447265625,790.1465454101562,796.1904907226562,786.5201416015625
919,783.6996459960938,794.981689453125,797.3992919921875,784.1025390625
920,783.6996459960938,796.996337890625,792.967041015625,783.2966918945312
921,782.087890625,796.1904907226562,792.5640869140625,780.4761962890625
922,780.0732421875,794.981689453125,790.952392578125,776.8497924804688
923,778.4615478515625,794.5787353515625,786.1171875,772.0146484375
924,779.6703491210938,796.996337890625,786.923095703125,771.6116943359375
925,789.3406372070312,801.4285888671875,791.3552856445312,778.4615478515625
926,787.3259887695312,798.6080322265625,792.5640869140625,778.4615478515625
927,777.2527465820312,793.3699340820312,790.5494384765625,777.6557006835938
928,784.5054931640625,796.1904907226562,790.1465454101562,776.8497924804688
929,789.7435913085938,796.1904907226562,793.3699340820312,784.5054931640625
930,785.7142944335938,794.1758422851562,794.981689453125,801.8314819335938
931,791.3552856445312,798.6080322265625,794.1758422851562,794.981689453125
932,796.5933837890625,795.3846435546875,793.3699340820312,780.0732421875
933,796.5933837890625,790.952392578125,793.7728881835938,780.879150390625
934,790.952392578125,796.5933837890625,795.3846435546875,784.5054931640625
935,788.5347900390625,799.8168334960938,797.8021850585938,786.1171875
936,791.3552856445312,794.1758422851562,797.3992919921875,786.1171875
937,788.1318969726562,788.5347900390625,795.7875366210938,786.923095703125
938,789.3406372070312,786.5201416015625,790.1465454101562,785.7142944335938
939,789.3406372070312,786.923095703125,786.1171875,782.087890625
940,790.5494384765625,788.5347900390625,788.1318969726562,791.7582397460938
941,797.3992919921875,786.1171875,790.1465454101562,803.040283203125
942,797.8021850585938,787.7289428710938,788.5347900390625,796.996337890625
943,783.2966918945312,790.952392578125,786.5201416015625,783.2966918945312
944,774.8351440429688,791.3552856445312,788.5347900390625,783.6996459960938
945,784.5054931640625,789.7435913085938,794.981689453125,792.1611938476562
946,794.1758422851562,793.7728881835938,794.981689453125,789.3406372070312
947,799.8168334960938,797.3992919921875,792.1611938476562,790.1465454101562
948,792.1611938476562,793.3699340820312,796.996337890625,786.5201416015625
949,786.923095703125,789.7435913085938,800.6226806640625,783.6996459960938
950,789.3406372070312,787.3259887695312,798.6080322265625,783.6996459960938
951,787.7289428710938,784.5054931640625,798.2051391601562,779.2673950195312
952,795.7875366210938,783.6996459960938,794.981689453125,784.1025390625
953,801.4285888671875,786.923095703125,792.5640869140625,792.1611938476562
954,801.025634765625,788.5347900390625,792.967041015625,792.1611938476562
955,796.996337890625,790.5494384765625,792.5640869140625,791.3552856445312
956,797.3992919921875,793.3699340820312,796.5933837890625,794.5787353515625
957,807.87548828125,792.5640869140625,802.2344360351562,798.2051391601562
958,808.6813354492188,796.1904907226562,801.4285888671875,798.2051391601562
959,803.8461303710938,798.6080322265625,799.8168334960938,806.2637329101562
960,803.4432373046875,791.7582397460938,799.4139404296875,805.054931640625
961,797.3992919921875,790.5494384765625,800.2197875976562,802.6373901367188
962,798.2051391601562,795.7875366210938,803.8461303710938,811.5018310546875
963,794.5787353515625,793.7728881835938,804.6520385742188,809.89013671875
964,790.5494384765625,793.7728881835938,802.2344360351562,811.098876953125
965,787.3259887695312,788.937744140625,797.8021850585938,803.040283203125
966,785.3113403320312,786.1171875,794.1758422851562,788.5347900390625
967,794.1758422851562,789.3406372070312,793.7728881835938,788.937744140625
968,797.8021850585938,789.3406372070312,796.996337890625,792.1611938476562
969,788.1318969726562,793.7728881835938,797.3992919921875,788.937744140625
970,778.8644409179688,794.1758422851562,798.6080322265625,785.3113403320312
971,781.2820434570312,791.3552856445312,800.2197875976562,788.1318969726562
972,786.5201416015625,793.3699340820312,797.8021850585938,790.1465454101562
973,780.879150390625,793.3699340820312,794.5787353515625,788.937744140625
974,779.2673950195312,793.7728881835938,791.7582397460938,784.1025390625
975,787.3259887695312,795.7875366210938,793.7728881835938,777.6557006835938
976,793.7728881835938,799.010986328125,790.1465454101562,781.2820434570312
977,801.4285888671875,795.3846435546875,789.3406372070312,786.923095703125
978,805.054931640625,787.7289428710938,790.1465454101562,787.3259887695312
979,803.4432373046875,785.7142944335938,785.7142944335938,792.967041015625
980,803.040283203125,790.1465454101562,785.3113403320312,797.3992919921875
981,802.2344360351562,799.010986328125,789.3406372070312,801.025634765625
982,799.010986328125,800.2197875976562,785.7142944335938,806.6666870117188
983,801.4285888671875,797.8021850585938,783.6996459960938,805.4578857421875
984,796.1904907226562,795.7875366210938,788.1318969726562,803.4432373046875
985,790.952392578125,794.981689453125,788.1318969726562,797.8021850585938
986,790.5494384765625,795.3846435546875,790.952392578125,792.5640869140625
987,787.7289428710938,793.3699340820312,792.5640869140625,791.3552856445312
988,790.952392578125,793.7728881835938,797.3992919921875,794.1758422851562
989,796.1904907226562,789.3406372070312,801.8314819335938,793.3699340820312
990,794.981689453125,786.1171875,800.2197875976562,793.3699340820312
991,792.5640869140625,786.923095703125,800.6226806640625,794.1758422851562
992,791.3552856445312,786.923095703125,799.8168334960938,791.7582397460938
993,788.5347900390625,786.923095703125,799.010986328125,792.967041015625
994,784.5054931640625,783.2966918945312,796.5933837890625,796.5933837890625
995,776.8497924804688,784.908447265625,799.010986328125,795.3846435546875
996,774.4322509765625,785.3113403320312,798.6080322265625,787.7289428710938
997,788.1318969726562,784.5054931640625,794.1758422851562,788.1318969726562
998,799.4139404296875,788.1318969726562,796.996337890625,792.967041015625
999,801.8314819335938,785.7142944335938,800.2197875976562,790.5494384765625
1000,800.2197875976562,783.2966918945312,799.4139404296875,786.5201416015625
1001,796.996337890625,787.7289428710938,797.8021850585938,788.1318969726562
1002,790.1465454101562,791.3552856445312,797.8021850585938,791.3552856445312
1003,789.7435913085938,791.7582397460938,796.1904907226562,788.1318969726562
1004,796.5933837890625,794.5787353515625,803.040283203125,792.967041015625
1005,792.967041015625,795.3846435546875,803.4432373046875,790.5494384765625
1006,786.1171875,794.5787353515625,801.4285888671875,789.3406372070312
1007,787.7289428710938,795.3846435546875,804.2490844726562,790.952392578125
1008,791.7582397460938,796.1904907226562,803.040283203125,786.1171875
1009,797.8021850585938,794.1758422851562,803.4432373046875,791.3552856445312
1010,799.4139404296875,799.010986328125,803.8461303710938,796.1904907226562
1011,797.3992919921875,799.4139404296875,806.2637329101562,795.7875366210938
1012,797.8021850585938,797.8021850585938,805.8607788085938,796.996337890625
1013,797.3992919921875,802.2344360351562,801.025634765625,794.1758422851562
1014,790.5494384765625,801.4285888671875,796.1904907226562,791.7582397460938
1015,786.5201416015625,798.2051391601562,793.3699340820312,786.923095703125
1016,795.3846435546875,801.4285888671875,795.3846435546875,785.7142944335938
1017,797.8021850585938,802.6373901367188,793.7728881835938,793.7728881835938
1018,793.3699340820312,801.8314819335938,793.7728881835938,796.5933837890625
1019,796.996337890625,805.054931640625,796.5933837890625,794.1758422851562
1020,796.1904907226562,802.6373901367188,797.3992919921875,791.7582397460938
1021,791.3552856445312,798.2051391601562,795.3846435546875,790.5494384765625
1022,788.5347900390625,795.3846435546875,794.5787353515625,788.5347900390625
1023,794.5787353515625,794.981689453125,796.1904907226562,787.3259887695312
1024,802.6373901367188,798.6080322265625,794.1758422851562,788.1318969726562
1025,793.7728881835938,799.8168334960938,789.3406372070312,786.1171875
1026,789.7435913085938,795.7875366210938,791.3552856445312,786.5201416015625
1027,796.5933837890625,794.981689453125,793.7728881835938,785.3113403320312
1028,804.6520385742188,798.2051391601562,791.7582397460938,786.5201416015625
1029,804.6520385742188,798.6080322265625,790.952392578125,795.7875366210938
1030,799.010986328125,798.2051391601562,795.3846435546875,794.981689453125
1031,794.981689453125,800.6226806640625,793.7728881835938,782.4908447265625
1032,795.3846435546875,798.2051391601562,787.7289428710938,785.3113403320312
1033,794.981689453125,796.996337890625,791.3552856445312,786.5201416015625
1034,791.3552856445312,797.3992919921875,792.5640869140625,778.4615478515625
1035,792.967041015625,796.996337890625,787.7289428710938,780.0732421875
1036,795.7875366210938,796.5933837890625,785.7142944335938,779.6703491210938
1037,798.2051391601562,794.5787353515625,788.937744140625,780.4761962890625
1038,799.4139404296875,793.7728881835938,788.1318969726562,783.6996459960938
1039,798.2051391601562,793.3699340820312,791.3552856445312,782.893798828125
1040,796.5933837890625,793.3699340820312,799.010986328125,787.3259887695312
1041,796.5933837890625,798.2051391601562,799.4139404296875,793.3699340820312
1042,794.1758422851562,794.1758422851562,796.1904907226562,790.952392578125
1043,796.5933837890625,793.7728881835938,793.7728881835938,793.7728881835938
1044,794.1758422851562,798.2051391601562,793.3699340820312,790.952392578125
1045,788.937744140625,792.1611938476562,794.981689453125,785.7142944335938
1046,789.3406372070312,790.5494384765625,793.3699340820312,789.7435913085938
1047,789.7435913085938,788.5347900390625,793.3699340820312,789.3406372070312
1048,792.5640869140625,787.7289428710938,793.7728881835938,790.5494384765625
1049,793.7728881835938,788.1318969726562,791.3552856445312,791.7582397460938
1050,792.5640869140625,787.7289428710938,789.7435913085938,793.3699340820312
1051,799.4139404296875,794.5787353515625,792.967041015625,795.3846435546875
1052,801.025634765625,799.4139404296875,796.5933837890625,795.3846435546875
1053,800.6226806640625,796.1904907226562,797.3992919921875,796.5933837890625
1054,801.8314819335938,790.5494384765625,793.7728881835938,788.937744140625
1055,799.4139404296875,787.7289428710938,791.7582397460938,783.6996459960938
1056,801.025634765625,786.1171875,797.3992919921875,788.1318969726562
1057,798.2051391601562,788.5347900390625,803.040283203125,789.3406372070312
1058,792.5640869140625,786.1171875,800.6226806640625,788.937744140625
1059,792.967041015625,782.4908447265625,793.3699340820312,790.5494384765625
1060,792.967041015625,786.5201416015625,791.7582397460938,786.923095703125
1061,788.5347900390625,789.7435913085938,796.5933837890625,787.7289428710938
1062,788.1318969726562,788.937744140625,798.6080322265625,791.7582397460938
1063,790.1465454101562,785.7142944335938,798.6080322265625,793.7728881835938
1064,796.996337890625,784.1025390625,799.010986328125,802.2344360351562
1065,794.981689453125,785.3113403320312,799.010986328125,798.6080322265625
1066,784.5054931640625,782.087890625,792.5640869140625,786.5201416015625
1067,780.0732421875,782.087890625,786.923095703125,787.3259887695312
1068,783.6996459960938,784.908447265625,790.1465454101562,789.3406372070312
1069,787.7289428710938,786.5201416015625,791.7582397460938,788.1318969726562
1070,790.952392578125,788.937744140625,791.7582397460938,782.893798828125
1071,798.2051391601562,790.952392578125,796.996337890625,783.6996459960938
1072,792.1611938476562,791.3552856445312,796.5933837890625,785.3113403320312
1073,784.908447265625,790.952392578125,796.1904907226562,786.1171875
1074,787.7289428710938,786.923095703125,796.5933837890625,792.5640869140625
1075,793.3699340820312,789.3406372070312,792.967041015625,796.996337890625
1076,798.2051391601562,794.1758422851562,796.996337890625,791.7582397460938
1077,797.3992919921875,791.3552856445312,794.1758422851562,787.3259887695312
1078,792.967041015625,789.3406372070312,788.5347900390625,790.1465454101562
1079,792.1611938476562,792.5640869140625,790.5494384765625,787.7289428710938
1080,790.952392578125,790.5494384765625,794.1758422851562,786.5201416015625
1081,784.1025390625,783.2966918945312,792.1611938476562,778.8644409179688
1082,784.5054931640625,784.908447265625,791.7582397460938,781.2820434570312
1083,785.7142944335938,788.937744140625,793.7728881835938,790.5494384765625
1084,785.7142944335938,786.1171875,794.1758422851562,790.1465454101562
1085,789.3406372070312,788.5347900390625,793.7728881835938,795.3846435546875
1086,796.5933837890625,795.7875366210938,792.967041015625,805.054931640625
1087,793.7728881835938,797.3992919921875,797.8021850585938,801.025634765625
1088,780.879150390625,799.4139404296875,806.2637329101562,785.7142944335938
1089,778.4615478515625,796.5933837890625,807.069580078125,780.0732421875
1090,781.2820434570312,793.7728881835938,802.2344360351562,782.4908447265625
1091,785.3113403320312,794.5787353515625,797.3992919921875,785.7142944335938
1092,787.3259887695312,793.7728881835938,791.3552856445312,783.2966918945312
1093,790.5494384765625,792.967041015625,791.3552856445312,783.6996459960938
1094,794.1758422851562,790.5494384765625,790.952392578125,783.6996459960938
1095,793.7728881835938,789.3406372070312,792.967041015625,784.5054931640625
1096,788.1318969726562,790.5494384765625,797.8021850585938,786.1171875
1097,789.3406372070312,794.1758422851562,797.3992919921875,785.7142944335938
1098,802.6373901367188,799.010986328125,796.996337890625,795.3846435546875
1099,803.8461303710938,805.4578857421875,799.010986328125,798.2051391601562
1100,801.8314819335938,807.4725341796875,799.8168334960938,795.3846435546875
1101,805.054931640625,803.4432373046875,799.010986328125,799.010986328125
1102,800.2197875976562,803.8461303710938,797.8021850585938,799.4139404296875
1103,793.3699340820312,801.8314819335938,794.5787353515625,794.981689453125
1104,795.3846435546875,794.981689453125,797.3992919921875,794.981689453125
1105,798.2051391601562,797.3992919921875,794.5787353515625,796.1904907226562
1106,794.5787353515625,800.6226806640625,784.1025390625,790.5494384765625
1107,789.7435913085938,796.996337890625,785.7142944335938,786.5201416015625
1108,785.7142944335938,794.5787353515625,788.5347900390625,789.3406372070312
1109,784.5054931640625,795.3846435546875,788.937744140625,794.981689453125
1110,788.937744140625,798.2051391601562,792.5640869140625,799.4139404296875
1111,794.981689453125,798.6080322265625,793.7728881835938,793.3699340820312
1112,799.4139404296875,801.8314819335938,792.1611938476562,787.3259887695312
1113,798.6080322265625,798.6080322265625,794.5787353515625,794.5787353515625
1114,797.3992919921875,794.5787353515625,794.981689453125,798.6080322265625
1115,792.1611938476562,796.996337890625,793.7728881835938,787.7289428710938
1116,792.1611938476562,794.1758422851562,796.1904907226562,786.5201416015625
1117,796.5933837890625,792.1611938476562,796.1904907226562,789.7435913085938
1118,790.5494384765625,794.1758422851562,796.1904907226562,791.3552856445312
1119,784.908447265625,794.1758422851562,794.5787353515625,792.5640869140625
1120,790.1465454101562,793.3699340820312,792.1611938476562,788.937744140625
1121,794.1758422851562,795.3846435546875,795.3846435546875,789.7435913085938
1122,797.8021850585938,801.4285888671875,802.2344360351562,799.8168334960938
1123,801.8314819335938,801.025634765625,802.2344360351562,799.4139404296875
1124,799.4139404296875,796.1904907226562,795.7875366210938,796.5933837890625
1125,791.3552856445312,799.010986328125,793.3699340820312,792.5640869140625
1126,793.3699340820312,801.4285888671875,794.1758422851562,788.1318969726562
1127,792.5640869140625,795.3846435546875,791.3552856445312,786.5201416015625
1128,786.923095703125,789.7435913085938,790.1465454101562,779.6703491210938
1129,787.3259887695312,788.1318969726562,791.7582397460938,775.6410522460938
1130,782.893798828125,790.1465454101562,788.1318969726562,779.2673950195312
1131,779.6703491210938,789.3406372070312,787.3259887695312,781.2820434570312
1132,781.6849975585938,789.3406372070312,788.937744140625,778.05859375
1133,782.4908447265625,796.1904907226562,784.908447265625,785.3113403320312
1134,783.2966918945312,798.6080322265625,784.908447265625,788.5347900390625
1135,784.908447265625,796.5933837890625,787.7289428710938,779.6703491210938
1136,793.7728881835938,795.3846435546875,789.7435913085938,782.893798828125
1137,803.040283203125,792.967041015625,793.3699340820312,792.5640869140625
1138,797.8021850585938,787.7289428710938,794.5787353515625,787.3259887695312
1139,794.1758422851562,793.3699340820312,794.981689453125,783.6996459960938
1140,795.7875366210938,796.996337890625,794.981689453125,786.923095703125
1141,794.5787353515625,795.3846435546875,795.7875366210938,789.3406372070312
1142,794.1758422851562,797.3992919921875,797.3992919921875,788.937744140625
1143,790.1465454101562,795.3846435546875,795.3846435546875,786.1171875
1144,784.5054931640625,791.7582397460938,789.7435913085938,786.923095703125
1145,791.7582397460938,790.5494384765625,789.3406372070312,784.908447265625
1146,795.3846435546875,790.5494384765625,793.3699340820312,786.1171875
1147,795.3846435546875,790.952392578125,792.5640869140625,787.3259887695312
1148,794.5787353515625,792.1611938476562,792.5640869140625,792.5640869140625
1149,792.967041015625,790.952392578125,794.5787353515625,790.952392578125
1150,796.996337890625,788.937744140625,796.5933837890625,789.7435913085938
1151,791.3552856445312,787.3259887695312,790.952392578125,792.1611938476562
1152,786.5201416015625,785.3113403320312,786.923095703125,789.7435913085938
1153,783.6996459960938,786.5201416015625,788.1318969726562,788.1318969726562
1154,782.087890625,787.3259887695312,792.967041015625,787.3259887695312
1155,790.5494384765625,792.967041015625,797.8021850585938,792.1611938476562
1156,797.3992919921875,791.7582397460938,795.7875366210938,794.5787353515625
1157,793.3699340820312,786.5201416015625,793.3699340820312,791.3552856445312
1158,787.7289428710938,786.923095703125,792.5640869140625,789.3406372070312
1159,786.923095703125,780.0732421875,787.3259887695312,789.7435913085938
1160,786.923095703125,781.2820434570312,784.908447265625,791.7582397460938
1161,794.981689453125,791.7582397460938,788.937744140625,795.3846435546875
1162,799.4139404296875,790.1465454101562,790.1465454101562,792.1611938476562
1163,794.5787353515625,788.937744140625,792.967041015625,789.3406372070312
1164,793.3699340820312,794.1758422851562,794.1758422851562,790.952392578125
1165,788.5347900390625,795.7875366210938,794.5787353515625,788.5347900390625
1166,794.5787353515625,788.5347900390625,799.8168334960938,790.952392578125
1167,800.6226806640625,786.1171875,794.981689453125,798.2051391601562
1168,790.1465454101562,792.1611938476562,795.3846435546875,794.1758422851562
1169,785.3113403320312,788.937744140625,796.1904907226562,787.7289428710938
1170,788.1318969726562,790.1465454101562,788.1318969726562,786.5201416015625
1171,793.3699340820312,799.010986328125,787.7289428710938,794.5787353515625
1172,804.6520385742188,799.4139404296875,788.5347900390625,801.025634765625
1173,809.4871826171875,801.4285888671875,792.5640869140625,797.8021850585938
1174,804.2490844726562,798.2051391601562,795.3846435546875,790.5494384765625
1175,800.6226806640625,791.3552856445312,794.981689453125,787.3259887695312
1176,796.1904907226562,795.7875366210938,797.8021850585938,792.1611938476562
1177,793.7728881835938,796.5933837890625,795.7875366210938,790.1465454101562
1178,788.1318969726562,793.7728881835938,792.5640869140625,780.879150390625
1179,788.1318969726562,793.7728881835938,794.5787353515625,782.087890625
1180,790.952392578125,796.1904907226562,799.8168334960938,787.7289428710938
1181,788.5347900390625,796.5933837890625,802.2344360351562,789.3406372070312
1182,793.7728881835938,798.2051391601562,798.2051391601562,791.7582397460938
1183,798.2051391601562,799.8168334960938,796.5933837890625,801.025634765625
1184,784.908447265625,798.6080322265625,795.3846435546875,790.1465454101562
1185,782.4908447265625,798.2051391601562,791.7582397460938,779.6703491210938
1186,789.3406372070312,794.5787353515625,794.5787353515625,792.1611938476562
1187,792.5640869140625,793.3699340820312,798.6080322265625,792.967041015625
1188,796.1904907226562,794.981689453125,800.2197875976562,788.1318969726562
1189,794.1758422851562,796.1904907226562,799.4139404296875,790.5494384765625
1190,796.5933837890625,797.8021850585938,793.7728881835938,789.7435913085938
1191,800.2197875976562,792.967041015625,790.952392578125,785.3113403320312
1192,794.5787353515625,790.952392578125,790.5494384765625,785.3113403320312
1193,791.3552856445312,799.8168334960938,793.3699340820312,785.7142944335938
1194,790.952392578125,797.3992919921875,795.7875366210938,783.2966918945312
1195,782.893798828125,794.1758422851562,793.7728881835938,778.05859375
1196,774.8351440429688,797.3992919921875,794.1758422851562,781.2820434570312
1197,776.4468994140625,796.996337890625,793.7728881835938,779.6703491210938
1198,780.879150390625,791.7582397460938,791.7582397460938,781.2820434570312
1199,774.8351440429688,785.3113403320312,791.7582397460938,780.4761962890625
1200,770.4029541015625,784.1025390625,788.5347900390625,772.0146484375
1201,778.8644409179688,787.3259887695312,791.7582397460938,782.087890625
1202,787.3259887695312,790.952392578125,796.1904907226562,790.5494384765625
1203,787.3259887695312,790.952392578125,794.981689453125,786.1171875
1204,786.923095703125,788.1318969726562,794.981689453125,782.087890625
1205,791.7582397460938,790.5494384765625,798.2051391601562,789.3406372070312
1206,786.5201416015625,791.3552856445312,801.4285888671875,789.3406372070312
1207,785.7142944335938,790.1465454101562,800.2197875976562,786.923095703125
1208,786.5201416015625,790.5494384765625,796.5933837890625,782.893798828125
1209,786.5201416015625,785.3113403320312,795.3846435546875,785.7142944335938
1210,790.952392578125,789.3406372070312,796.5933837890625,795.7875366210938
1211,784.908447265625,798.6080322265625,800.6226806640625,788.5347900390625
1212,782.4908447265625,799.4139404296875,801.8314819335938,785.3113403320312
1213,785.3113403320312,799.8168334960938,801.4285888671875,790.1465454101562
1214,786.1171875,797.3992919921875,802.2344360351562,790.1465454101562
1215,789.7435913085938,796.1904907226562,801.8314819335938,790.952392578125
1216,792.1611938476562,795.7875366210938,800.6226806640625,791.3552856445312
1217,789.7435913085938,796.996337890625,795.3846435546875,786.5201416015625
1218,786.5201416015625,798.6080322265625,795.7875366210938,784.5054931640625
1219,787.3259887695312,796.5933837890625,799.4139404296875,789.7435913085938
1220,788.1318969726562,796.996337890625,803.040283203125,788.5347900390625
1221,783.2966918945312,796.996337890625,803.040283203125,791.3552856445312
1222,780.4761962890625,798.2051391601562,799.8168334960938,795.7875366210938
1223,786.5201416015625,800.6226806640625,801.4285888671875,790.1465454101562
1224,793.7728881835938,799.8168334960938,802.6373901367188,788.1318969726562
1225,791.3552856445312,796.5933837890625,801.8314819335938,786.5201416015625
1226,789.7435913085938,792.5640869140625,802.6373901367188,783.2966918945312
1227,789.3406372070312,794.1758422851562,801.025634765625,783.2966918945312
1228,786.923095703125,794.5787353515625,798.6080322265625,783.2966918945312
1229,788.937744140625,791.7582397460938,799.4139404296875,783.2966918945312
1230,789.3406372070312,788.1318969726562,791.7582397460938,782.087890625
1231,788.5347900390625,789.7435913085938,790.952392578125,784.5054931640625
1232,793.7728881835938,792.1611938476562,797.3992919921875,795.3846435546875
1233,798.6080322265625,791.3552856445312,799.010986328125,806.6666870117188
1234,793.3699340820312,792.5640869140625,801.4285888671875,799.4139404296875
1235,793.3699340820312,794.1758422851562,799.8168334960938,791.3552856445312
1236,792.5640869140625,795.7875366210938,792.5640869140625,792.5640869140625
1237,786.1171875,796.996337890625,795.7875366210938,790.952392578125
1238,788.937744140625,798.6080322265625,804.6520385742188,794.5787353515625
1239,795.7875366210938,803.4432373046875,804.2490844726562,792.5640869140625
1240,796.1904907226562,808.2783813476562,803.4432373046875,788.937744140625
1241,794.1758422851562,808.2783813476562,803.040283203125,793.7728881835938
1242,798.6080322265625,807.069580078125,799.010986328125,792.967041015625
1243,799.8168334960938,806.2637329101562,794.5787353515625,787.3259887695312
1244,796.5933837890625,807.4725341796875,794.5787353515625,793.7728881835938
1245,794.5787353515625,805.8607788085938,795.3846435546875,794.981689453125
1246,789.7435913085938,799.8168334960938,791.7582397460938,785.3113403320312
1247,792.5640869140625,800.2197875976562,793.3699340820312,787.3259887695312
1248,795.7875366210938,801.025634765625,796.996337890625,791.3552856445312
1249,791.7582397460938,797.3992919921875,795.3846435546875,789.7435913085938
1250,788.937744140625,794.981689453125,791.3552856445312,781.2820434570312
1251,784.908447265625,794.5787353515625,793.7728881835938,778.8644409179688
1252,786.923095703125,800.6226806640625,798.2051391601562,784.1025390625
1253,790.5494384765625,806.6666870117188,797.3992919921875,784.908447265625
1254,796.1904907226562,801.8314819335938,802.2344360351562,786.1171875
1255,799.010986328125,799.8168334960938,802.6373901367188,788.937744140625
1256,794.981689453125,802.2344360351562,797.8021850585938,793.3699340820312
1257,792.967041015625,799.4139404296875,801.4285888671875,792.967041015625
1258,792.5640869140625,796.996337890625,801.8314819335938,790.5494384765625
1259,791.3552856445312,800.2197875976562,799.8168334960938,789.7435913085938
1260,789.3406372070312,798.6080322265625,800.6226806640625,789.7435913085938
1261,794.5787353515625,805.054931640625,803.4432373046875,796.996337890625
1262,796.996337890625,809.084228515625,799.010986328125,793.7728881835938
1263,795.7875366210938,803.8461303710938,801.8314819335938,781.2820434570312
1264,793.7728881835938,799.8168334960938,801.4285888671875,782.4908447265625
1265,782.893798828125,800.6226806640625,797.3992919921875,780.879150390625
1266,778.05859375,813.113525390625,800.6226806640625,774.029296875
1267,778.05859375,817.5457763671875,798.2051391601562,782.087890625
1268,765.5677490234375,811.90478515625,790.952392578125,772.4176025390625
1269,746.2271118164062,816.3369750976562,778.4615478515625,744.2124633789062
1270,743.4066162109375,830.8424682617188,778.05859375,742.6007080078125
1271,738.974365234375,838.901123046875,779.2673950195312,729.7069702148438
1272,722.4542236328125,840.10986328125,779.2673950195312,709.1575317382812
1273,715.6043701171875,844.5421142578125,779.2673950195312,706.3369750976562
1274,717.6190185546875,854.2124633789062,779.6703491210938,702.7106323242188
1275,709.1575317382812,855.018310546875,780.879150390625,693.8461303710938
1276,696.2637329101562,851.7948608398438,777.6557006835938,677.3259887695312
1277,685.7875366210938,854.2124633789062,780.0732421875,666.4468994140625
1278,682.5640869140625,858.6447143554688,786.1171875,668.05859375
1279,686.5933837890625,861.062255859375,785.7142944335938,675.3113403320312
1280,689.010986328125,858.6447143554688,786.923095703125,679.7435913085938
1281,686.996337890625,854.2124633789062,787.3259887695312,676.1171875
1282,691.4285888671875,854.2124633789062,787.3259887695312,679.7435913085938
1283,701.5018310546875,857.8388061523438,791.3552856445312,692.2344360351562
1284,712.3809814453125,858.6447143554688,789.3406372070312,695.8607788085938
1285,722.4542236328125,855.8241577148438,787.7289428710938,706.7399291992188
1286,723.6630249023438,852.1978149414062,786.1171875,713.5897216796875
1287,723.2600708007812,848.5714111328125,785.3113403320312,716.00732421875
1288,736.959716796875,846.1538696289062,786.923095703125,731.3186645507812
1289,746.2271118164062,840.10986328125,785.3113403320312,746.6300659179688
1290,751.4652099609375,831.6483764648438,789.3406372070312,755.4945068359375
1291,755.8974609375,825.2014770507812,788.1318969726562,758.3150024414062
1292,762.3442993164062,818.3516235351562,787.7289428710938,764.3589477539062
1293,777.6557006835938,813.5164794921875,794.1758422851562,776.4468994140625
1294,783.2966918945312,807.069580078125,793.3699340820312,784.908447265625
1295,785.3113403320312,800.6226806640625,790.1465454101562,787.3259887695312
1296,801.025634765625,802.6373901367188,789.7435913085938,793.3699340820312
1297,807.069580078125,800.2197875976562,789.3406372070312,799.010986328125
1298,805.4578857421875,792.5640869140625,788.1318969726562,801.8314819335938
1299,805.054931640625,788.937744140625,785.3113403320312,804.6520385742188
1300,811.098876953125,788.937744140625,790.952392578125,809.89013671875
1301,813.91943359375,787.7289428710938,796.5933837890625,807.4725341796875
1302,810.6959838867188,791.3552856445312,797.8021850585938,806.6666870117188
1303,815.1282348632812,788.5347900390625,797.3992919921875,813.113525390625
1304,817.1428833007812,780.879150390625,796.996337890625,807.069580078125
1305,823.1868286132812,779.2673950195312,793.3699340820312,811.098876953125
1306,826.00732421875,776.0439453125,786.923095703125,819.5604248046875
1307,822.3809814453125,770.4029541015625,786.5201416015625,812.3076782226562
1308,826.8131713867188,767.1795043945312,787.7289428710938,812.7106323242188
1309,824.7985229492188,769.5970458984375,792.967041015625,819.1575317382812
1310,817.1428833007812,764.3589477539062,792.5640869140625,813.91943359375
1311,811.5018310546875,764.7619018554688,790.5494384765625,814.3223266601562
1312,806.2637329101562,770.4029541015625,791.3552856445312,820.3662719726562
1313,804.2490844726562,767.1795043945312,789.3406372070312,822.3809814453125
1314,805.8607788085938,766.7765502929688,792.1611938476562,822.3809814453125
1315,811.5018310546875,767.9853515625,793.7728881835938,822.3809814453125
1316,817.94873046875,768.7911987304688,794.981689453125,825.2014770507812
1317,819.1575317382812,770.0,797.3992919921875,830.4395751953125
1318,813.5164794921875,772.4176025390625,795.7875366210938,830.8424682617188
1319,815.93408203125,772.0146484375,790.1465454101562,824.7985229492188
1320,820.3662719726562,772.0146484375,791.3552856445312,820.7692260742188
1321,814.3223266601562,773.6264038085938,793.3699340820312,819.96337890625
1322,815.93408203125,778.4615478515625,797.3992919921875,821.97802734375
1323,818.7545776367188,782.087890625,802.2344360351562,821.5750732421875
1324,819.96337890625,780.879150390625,799.010986328125,823.1868286132812
1325,828.4249267578125,779.6703491210938,797.3992919921875,827.6190185546875
1326,823.99267578125,780.4761962890625,797.8021850585938,822.7838745117188
1327,819.1575317382812,778.05859375,796.1904907226562,816.3369750976562
1328,821.97802734375,779.6703491210938,799.8168334960938,819.5604248046875
1329,813.113525390625,783.2966918945312,794.981689453125,821.1721801757812
1330,809.89013671875,780.879150390625,788.937744140625,817.5457763671875
1331,814.7252807617188,778.8644409179688,790.1465454101562,813.91943359375
1332,811.90478515625,778.05859375,792.5640869140625,808.2783813476562
1333,812.3076782226562,778.05859375,795.3846435546875,811.098876953125
1334,813.5164794921875,780.4761962890625,796.1904907226562,811.90478515625
1335,819.1575317382812,779.6703491210938,796.1904907226562,809.89013671875
1336,823.5897216796875,776.4468994140625,797.3992919921875,815.93408203125
1337,809.89013671875,779.2673950195312,796.5933837890625,813.113525390625
1338,801.4285888671875,782.893798828125,796.996337890625,814.3223266601562
1339,804.2490844726562,783.2966918945312,795.3846435546875,814.3223266601562
1340,807.87548828125,784.908447265625,796.1904907226562,813.113525390625
1341,807.069580078125,786.923095703125,800.2197875976562,812.3076782226562
1342,806.2637329101562,789.3406372070312,798.2051391601562,812.7106323242188
1343,809.084228515625,789.7435913085938,794.5787353515625,812.7106323242188
1344,804.6520385742188,787.3259887695312,790.1465454101562,808.6813354492188
1345,805.4578857421875,784.908447265625,790.952392578125,817.94873046875
1346,807.87548828125,786.923095703125,793.3699340820312,817.94873046875
1347,813.113525390625,785.7142944335938,793.3699340820312,812.7106323242188
1348,817.94873046875,784.908447265625,790.5494384765625,807.87548828125
1349,817.5457763671875,788.1318969726562,790.1465454101562,808.6813354492188
1350,818.7545776367188,783.2966918945312,795.3846435546875,810.2930297851562
1351,813.91943359375,784.908447265625,793.3699340820312,805.4578857421875
1352,816.3369750976562,791.7582397460938,796.5933837890625,811.5018310546875
1353,810.6959838867188,790.5494384765625,800.2197875976562,802.2344360351562
1354,800.6226806640625,787.7289428710938,794.1758422851562,791.7582397460938
1355,803.040283203125,786.923095703125,796.996337890625,797.8021850585938
1356,802.6373901367188,791.3552856445312,799.010986328125,797.8021850585938
1357,807.069580078125,792.967041015625,803.8461303710938,801.025634765625
1358,807.4725341796875,788.5347900390625,803.8461303710938,804.2490844726562
1359,804.6520385742188,787.7289428710938,796.1904907226562,802.2344360351562
1360,801.025634765625,789.7435913085938,797.3992919921875,796.5933837890625
1361,793.3699340820312,788.5347900390625,801.025634765625,787.3259887695312
1362,803.040283203125,794.5787353515625,802.6373901367188,790.952392578125
1363,807.4725341796875,794.5787353515625,801.8314819335938,799.8168334960938
1364,801.4285888671875,791.3552856445312,797.8021850585938,796.5933837890625
1365,803.4432373046875,791.7582397460938,792.5640869140625,788.5347900390625
1366,807.87548828125,788.1318969726562,792.967041015625,792.5640869140625
1367,803.040283203125,787.7289428710938,794.981689453125,796.1904907226562
1368,799.8168334960938,787.7289428710938,796.1904907226562,791.3552856445312
1369,804.6520385742188,789.3406372070312,793.7728881835938,787.7289428710938
1370,808.2783813476562,790.1465454101562,793.3699340820312,788.937744140625
1371,815.93408203125,788.5347900390625,797.3992919921875,794.5787353515625
1372,813.113525390625,782.4908447265625,797.8021850585938,794.1758422851562
1373,794.981689453125,777.2527465820312,800.6226806640625,790.5494384765625
1374,785.7142944335938,778.8644409179688,797.8021850585938,791.7582397460938
1375,783.6996459960938,780.0732421875,796.996337890625,791.7582397460938
1376,784.908447265625,778.05859375,801.025634765625,790.1465454101562
1377,786.923095703125,778.4615478515625,799.4139404296875,787.3259887695312
1378,787.3259887695312,780.879150390625,797.8021850585938,790.5494384765625
1379,784.5054931640625,781.2820434570312,796.5933837890625,794.1758422851562
1380,783.2966918945312,783.2966918945312,794.981689453125,785.7142944335938
1381,790.5494384765625,783.6996459960938,794.5787353515625,782.087890625
1382,798.2051391601562,782.893798828125,793.3699340820312,782.893798828125
1383,801.8314819335938,788.1318969726562,796.5933837890625,784.5054931640625
1384,799.4139404296875,794.5787353515625,799.010986328125,782.4908447265625
1385,789.3406372070312,790.5494384765625,792.1611938476562,782.4908447265625
1386,779.6703491210938,782.4908447265625,789.3406372070312,783.6996459960938
1387,780.879150390625,786.1171875,786.923095703125,784.908447265625
1388,787.7289428710938,786.5201416015625,791.7582397460938,790.5494384765625
1389,787.7289428710938,784.5054931640625,793.3699340820312,794.981689453125
1390,792.967041015625,789.3406372070312,793.7728881835938,802.2344360351562
1391,798.2051391601562,784.5054931640625,798.2051391601562,798.2051391601562
1392,799.010986328125,782.893798828125,794.981689453125,791.3552856445312
1393,800.2197875976562,789.7435913085938,794.1758422851562,792.5640869140625
1394,796.5933837890625,792.1611938476562,799.010986328125,798.6080322265625
1395,787.7289428710938,794.1758422851562,799.4139404296875,795.7875366210938
1396,792.5640869140625,790.5494384765625,793.7728881835938,792.967041015625
1397,801.025634765625,788.5347900390625,791.3552856445312,803.040283203125
1398,800.6226806640625,791.3552856445312,792.5640869140625,805.4578857421875
1399,795.3846435546875,798.2051391601562,795.7875366210938,795.3846435546875
1400,791.3552856445312,797.3992919921875,796.996337890625,788.1318969726562
1401,802.6373901367188,794.1758422851562,798.6080322265625,794.981689453125
1402,803.040283203125,797.8021850585938,795.3846435546875,803.4432373046875
1403,802.6373901367188,799.4139404296875,792.5640869140625,803.4432373046875
1404,808.6813354492188,799.8168334960938,797.3992919921875,801.8314819335938
1405,798.2051391601562,796.1904907226562,798.6080322265625,794.1758422851562
1406,792.5640869140625,792.1611938476562,794.1758422851562,786.1171875
1407,789.3406372070312,789.3406372070312,788.937744140625,781.2820434570312
1408,786.5201416015625,791.7582397460938,789.3406372070312,783.2966918945312
1409,791.7582397460938,791.7582397460938,792.1611938476562,789.3406372070312
1410,792.5640869140625,792.1611938476562,789.3406372070312,787.7289428710938
1411,791.3552856445312,794.1758422851562,789.7435913085938,787.7289428710938
1412,798.6080322265625,788.937744140625,789.3406372070312,789.3406372070312
1413,800.6226806640625,786.1171875,785.7142944335938,787.7289428710938
1414,795.3846435546875,788.5347900390625,784.908447265625,789.3406372070312
1415,788.1318969726562,790.952392578125,786.5201416015625,783.6996459960938
1416,788.5347900390625,792.5640869140625,788.937744140625,782.893798828125
1417,792.5640869140625,794.981689453125,789.7435913085938,784.5054931640625
1418,793.7728881835938,794.981689453125,790.5494384765625,788.5347900390625
1419,786.5201416015625,791.3552856445312,790.5494384765625,790.1465454101562
1420,782.4908447265625,790.952392578125,787.7289428710938,789.7435913085938
1421,790.1465454101562,796.5933837890625,785.7142944335938,794.981689453125
1422,789.7435913085938,794.5787353515625,788.1318969726562,792.1611938476562
1423,791.3552856445312,795.3846435546875,790.952392578125,791.7582397460938
1424,797.3992919921875,797.3992919921875,788.937744140625,795.3846435546875
1425,796.1904907226562,796.996337890625,790.5494384765625,805.8607788085938
1426,793.7728881835938,801.025634765625,798.2051391601562,807.4725341796875
1427,788.1318969726562,797.3992919921875,793.7728881835938,794.981689453125
1428,782.893798828125,798.2051391601562,791.3552856445312,798.2051391601562
1429,784.1025390625,799.4139404296875,793.7728881835938,797.8021850585938
1430,788.1318969726562,797.3992919921875,789.3406372070312,792.1611938476562
1431,794.5787353515625,799.4139404296875,783.6996459960938,798.6080322265625
1432,792.1611938476562,797.8021850585938,783.2966918945312,800.2197875976562
1433,789.3406372070312,797.8021850585938,788.1318969726562,801.8314819335938
1434,792.5640869140625,801.8314819335938,792.967041015625,804.2490844726562
1435,792.1611938476562,800.6226806640625,794.5787353515625,800.2197875976562
1436,798.6080322265625,799.8168334960938,797.3992919921875,806.6666870117188
1437,803.4432373046875,804.2490844726562,799.4139404296875,810.6959838867188
1438,803.4432373046875,802.2344360351562,804.6520385742188,805.4578857421875
1439,803.4432373046875,798.2051391601562,805.054931640625,801.8314819335938
1440,795.3846435546875,794.981689453125,799.4139404296875,792.1611938476562
1441,794.5787353515625,791.3552856445312,798.2051391601562,787.3259887695312
1442,800.6226806640625,795.7875366210938,800.6226806640625,793.3699340820312
1443,801.025634765625,798.6080322265625,798.6080322265625,796.1904907226562
1444,797.3992919921875,796.1904907226562,794.981689453125,792.967041015625
1445,800.2197875976562,799.8168334960938,796.996337890625,791.7582397460938
1446,804.2490844726562,805.054931640625,801.8314819335938,794.5787353515625
1447,802.6373901367188,807.069580078125,804.6520385742188,798.2051391601562
1448,796.1904907226562,799.8168334960938,799.4139404296875,799.4139404296875
1449,791.3552856445312,792.967041015625,799.010986328125,792.967041015625
1450,793.3699340820312,799.010986328125,800.2197875976562,787.7289428710938
1451,792.5640869140625,798.2051391601562,794.5787353515625,787.7289428710938
1452,792.1611938476562,798.2051391601562,791.7582397460938,786.923095703125
1453,794.981689453125,802.6373901367188,795.3846435546875,789.7435913085938
1454,796.1904907226562,800.6226806640625,796.1904907226562,796.5933837890625
1455,790.5494384765625,796.996337890625,796.1904907226562,792.967041015625
1456,786.923095703125,798.6080322265625,796.5933837890625,792.1611938476562
1457,789.7435913085938,802.2344360351562,794.1758422851562,793.3699340820312
1458,790.952392578125,801.025634765625,793.7728881835938,792.1611938476562
1459,796.1904907226562,795.3846435546875,793.7728881835938,798.6080322265625
1460,800.6226806640625,792.967041015625,788.937744140625,795.3846435546875
1461,794.1758422851562,790.952392578125,787.3259887695312,782.4908447265625
1462,786.923095703125,790.1465454101562,788.5347900390625,782.087890625
1463,786.1171875,797.3992919921875,789.7435913085938,788.1318969726562
1464,789.7435913085938,799.010986328125,787.7289428710938,790.5494384765625
1465,793.3699340820312,796.996337890625,785.7142944335938,788.5347900390625
1466,788.937744140625,792.1611938476562,783.6996459960938,783.2966918945312
1467,777.6557006835938,788.1318969726562,782.893798828125,778.4615478515625
1468,777.2527465820312,786.5201416015625,784.908447265625,780.879150390625
1469,786.1171875,786.923095703125,787.7289428710938,788.1318969726562
1470,784.5054931640625,792.5640869140625,788.937744140625,790.1465454101562
1471,778.05859375,795.7875366210938,786.5201416015625,790.952392578125
1472,778.8644409179688,800.2197875976562,789.7435913085938,791.7582397460938
1473,783.2966918945312,799.4139404296875,797.3992919921875,793.7728881835938
1474,788.1318969726562,794.981689453125,796.5933837890625,797.3992919921875
1475,786.923095703125,795.3846435546875,792.967041015625,796.5933837890625
1476,788.5347900390625,797.8021850585938,793.3699340820312,796.1904907226562
1477,792.1611938476562,794.1758422851562,795.3846435546875,792.5640869140625
1478,793.7728881835938,790.952392578125,793.7728881835938,786.5201416015625
1479,799.010986328125,792.1611938476562,794.5787353515625,787.3259887695312
1480,799.4139404296875,794.981689453125,798.6080322265625,787.7289428710938
1481,795.7875366210938,792.967041015625,795.3846435546875,792.967041015625
1482,794.1758422851562,790.952392578125,794.1758422851562,799.4139404296875
1483,791.3552856445312,790.952392578125,794.1758422851562,796.5933837890625
1484,793.7728881835938,791.7582397460938,791.3552856445312,789.7435913085938
1485,806.2637329101562,792.5640869140625,791.3552856445312,790.1465454101562
1486,807.4725341796875,792.1611938476562,788.937744140625,796.5933837890625
1487,799.4139404296875,794.981689453125,787.7289428710938,795.3846435546875
1488,792.5640869140625,796.996337890625,793.7728881835938,791.3552856445312
1489,788.5347900390625,791.7582397460938,791.7582397460938,790.5494384765625
1490,791.7582397460938,786.1171875,788.1318969726562,788.1318969726562
1491,786.923095703125,789.3406372070312,791.7582397460938,784.1025390625
1492,782.4908447265625,788.5347900390625,793.3699340820312,782.4908447265625
1493,781.6849975585938,786.923095703125,794.1758422851562,783.6996459960938
1494,783.6996459960938,790.5494384765625,798.2051391601562,788.5347900390625
1495,787.7289428710938,784.5054931640625,798.2051391601562,786.5201416015625
1496,786.923095703125,782.087890625,791.3552856445312,785.7142944335938
1497,790.952392578125,787.7289428710938,787.3259887695312,792.967041015625
1498,789.7435913085938,785.7142944335938,794.1758422851562,793.3699340820312
1499,790.1465454101562,785.7142944335938,792.1611938476562,785.3113403320312
1500,797.8021850585938,789.3406372070312,787.7289428710938,780.4761962890625
1501,781.2820434570312,786.1171875,785.7142944335938,780.879150390625
1502,772.4176025390625,782.4908447265625,785.3113403320312,783.2966918945312
1503,780.4761962890625,788.937744140625,792.967041015625,785.7142944335938
1504,786.923095703125,790.952392578125,798.2051391601562,787.3259887695312
1505,790.1465454101562,787.3259887695312,797.8021850585938,789.3406372070312
1506,789.7435913085938,792.5640869140625,795.7875366210938,792.5640869140625
1507,788.937744140625,793.3699340820312,794.1758422851562,788.1318969726562
1508,786.923095703125,790.1465454101562,790.952392578125,781.6849975585938
1509,787.3259887695312,788.1318969726562,792.5640869140625,782.4908447265625
1510,790.5494384765625,787.7289428710938,794.1758422851562,786.1171875
1511,796.996337890625,792.5640869140625,794.1758422851562,790.952392578125
1512,791.7582397460938,791.3552856445312,792.967041015625,791.3552856445312
1513,788.937744140625,791.7582397460938,790.5494384765625,792.5640869140625
1514,788.937744140625,794.1758422851562,793.3699340820312,794.981689453125
1515,784.5054931640625,791.7582397460938,794.981689453125,790.5494384765625
1516,790.1465454101562,794.981689453125,793.7728881835938,789.3406372070312
1517,793.3699340820312,796.5933837890625,792.967041015625,796.5933837890625
1518,789.7435913085938,793.3699340820312,795.3846435546875,796.1904907226562
1519,786.1171875,793.3699340820312,794.5787353515625,786.1171875
1520,786.923095703125,790.952392578125,793.7728881835938,781.6849975585938
1521,791.7582397460938,792.1611938476562,797.8021850585938,789.3406372070312
1522,790.5494384765625,795.7875366210938,797.8021850585938,786.923095703125
1523,785.7142944335938,791.3552856445312,794.1758422851562,783.2966918945312
1524,785.7142944335938,789.3406372070312,794.5787353515625,785.3113403320312
1525,790.952392578125,792.967041015625,796.5933837890625,789.3406372070312
1526,797.8021850585938,791.7582397460938,796.996337890625,792.1611938476562
1527,798.2051391601562,786.923095703125,796.5933837890625,789.7435913085938
1528,792.5640869140625,787.7289428710938,795.3846435546875,786.5201416015625
1529,795.7875366210938,794.5787353515625,794.981689453125,786.923095703125
1530,802.6373901367188,801.025634765625,795.3846435546875,792.967041015625
1531,799.010986328125,798.6080322265625,790.952392578125,792.5640869140625
1532,788.937744140625,793.3699340820312,786.1171875,792.967041015625
1533,782.4908447265625,790.5494384765625,785.3113403320312,789.7435913085938
1534,786.923095703125,786.1171875,786.5201416015625,783.6996459960938
1535,794.5787353515625,784.5054931640625,789.7435913085938,785.7142944335938
1536,797.3992919921875,788.1318969726562,792.5640869140625,788.5347900390625
1537,800.2197875976562,791.7582397460938,797.3992919921875,788.5347900390625
1538,792.967041015625,792.1611938476562,797.3992919921875,784.908447265625
1539,784.908447265625,788.937744140625,794.1758422851562,785.3113403320312
1540,788.5347900390625,790.952392578125,794.981689453125,784.5054931640625
1541,789.3406372070312,787.7289428710938,790.952392578125,780.0732421875
1542,786.923095703125,785.7142944335938,790.5494384765625,780.879150390625
1543,784.908447265625,784.908447265625,793.3699340820312,788.1318969726562
1544,781.6849975585938,785.3113403320312,789.3406372070312,789.3406372070312
1545,792.1611938476562,790.5494384765625,795.7875366210938,790.952392578125
1546,799.010986328125,791.7582397460938,799.4139404296875,793.3699340820312
1547,791.7582397460938,792.1611938476562,796.5933837890625,792.5640869140625
1548,785.3113403320312,788.5347900390625,792.5640869140625,792.5640869140625
1549,778.4615478515625,786.1171875,784.908447265625,789.3406372070312
1550,778.8644409179688,786.923095703125,783.2966918945312,784.908447265625
1551,783.2966918945312,785.7142944335938,783.6996459960938,781.6849975585938
1552,782.087890625,784.5054931640625,786.5201416015625,778.05859375
1553,780.0732421875,781.6849975585938,784.908447265625,776.8497924804688
1554,786.1171875,784.5054931640625,783.2966918945312,778.4615478515625
1555,789.7435913085938,790.952392578125,784.1025390625,784.5054931640625
1556,791.3552856445312,794.981689453125,782.087890625,789.3406372070312
1557,788.937744140625,794.1758422851562,787.3259887695312,787.3259887695312
1558,780.4761962890625,794.5787353515625,790.952392578125,780.4761962890625
1559,780.0732421875,792.5640869140625,785.7142944335938,775.2380981445312
1560,790.5494384765625,789.3406372070312,782.893798828125,777.6557006835938
1561,799.010986328125,794.5787353515625,786.1171875,782.893798828125
1562,794.981689453125,792.967041015625,790.1465454101562,785.3113403320312
1563,793.3699340820312,790.1465454101562,790.5494384765625,786.5201416015625
1564,790.1465454101562,796.1904907226562,789.7435913085938,784.908447265625
1565,788.1318969726562,799.8168334960938,790.1465454101562,783.2966918945312
1566,790.5494384765625,794.981689453125,787.7289428710938,786.923095703125
1567,786.1171875,789.7435913085938,784.1025390625,785.7142944335938
1568,781.2820434570312,788.1318969726562,783.6996459960938,780.879150390625
1569,783.6996459960938,788.1318969726562,790.1465454101562,785.3113403320312
1570,788.937744140625,791.3552856445312,792.5640869140625,792.1611938476562
1571,792.967041015625,796.5933837890625,791.3552856445312,797.8021850585938
1572,790.5494384765625,797.8021850585938,792.5640869140625,794.5787353515625
1573,790.1465454101562,794.981689453125,791.3552856445312,790.952392578125
1574,788.5347900390625,794.1758422851562,791.3552856445312,789.7435913085938
1575,790.1465454101562,796.5933837890625,791.7582397460938,789.7435913085938
1576,793.3699340820312,796.5933837890625,792.967041015625,788.937744140625
1577,790.1465454101562,792.5640869140625,790.5494384765625,784.5054931640625
1578,794.5787353515625,793.7728881835938,790.952392578125,793.7728881835938
1579,793.7728881835938,796.5933837890625,794.1758422851562,794.981689453125
1580,789.3406372070312,800.6226806640625,797.3992919921875,790.1465454101562
1581,791.3552856445312,800.2197875976562,796.5933837890625,788.937744140625
1582,792.1611938476562,794.981689453125,791.7582397460938,787.7289428710938
1583,788.937744140625,791.3552856445312,790.952392578125,787.7289428710938
