timestamp,RAW_TP9,RAW_AF7,RAW_AF8,RAW_TP10
1,791.3552856445312,786.1171875,795.3846435546875,786.1171875
2,788.1318969726562,789.3406372070312,797.3992919921875,779.6703491210938
3,780.879150390625,790.5494384765625,794.1758422851562,777.2527465820312
4,775.6410522460938,791.3552856445312,792.5640869140625,779.6703491210938
5,774.8351440429688,786.5201416015625,788.937744140625,779.2673950195312
6,777.2527465820312,786.1171875,786.923095703125,779.2673950195312
7,780.0732421875,784.1025390625,787.7289428710938,774.029296875
8,777.6557006835938,784.1025390625,783.6996459960938,764.7619018554688
9,783.2966918945312,785.3113403320312,782.4908447265625,775.6410522460938
10,789.3406372070312,779.2673950195312,784.5054931640625,779.6703491210938
11,783.2966918945312,776.8497924804688,784.5054931640625,768.7911987304688
12,783.6996459960938,779.6703491210938,787.7289428710938,776.0439453125
13,782.893798828125,783.6996459960938,790.952392578125,782.4908447265625
14,780.4761962890625,783.2966918945312,789.3406372070312,777.6557006835938
15,783.6996459960938,781.2820434570312,786.1171875,772.0146484375
16,783.6996459960938,780.4761962890625,788.1318969726562,774.4322509765625
17,784.908447265625,782.087890625,789.7435913085938,777.6557006835938
18,780.879150390625,780.0732421875,792.5640869140625,780.0732421875
19,767.9853515625,777.6557006835938,790.1465454101562,781.6849975585938
20,776.0439453125,783.2966918945312,784.908447265625,777.2527465820312
21,787.3259887695312,788.1318969726562,785.7142944335938,778.8644409179688
22,780.879150390625,782.893798828125,788.1318969726562,779.2673950195312
23,780.0732421875,781.2820434570312,786.5201416015625,776.4468994140625
24,779.6703491210938,782.087890625,787.3259887695312,777.6557006835938
25,783.2966918945312,784.908447265625,793.3699340820312,784.1025390625
26,787.7289428710938,788.937744140625,798.6080322265625,787.3259887695312
27,789.7435913085938,789.7435913085938,796.996337890625,780.4761962890625
28,786.923095703125,784.5054931640625,795.7875366210938,786.5201416015625
29,786.5201416015625,787.3259887695312,793.7728881835938,796.1904907226562
30,790.1465454101562,791.7582397460938,790.1465454101562,792.1611938476562
31,788.937744140625,787.3259887695312,791.7582397460938,786.923095703125
32,785.3113403320312,787.3259887695312,790.5494384765625,786.1171875
33,781.2820434570312,791.7582397460938,786.1171875,792.1611938476562
34,784.1025390625,794.981689453125,788.5347900390625,793.3699340820312
35,792.1611938476562,798.2051391601562,790.1465454101562,789.3406372070312
36,796.1904907226562,803.040283203125,791.3552856445312,789.3406372070312
37,801.025634765625,800.6226806640625,790.952392578125,793.3699340820312
38,800.6226806640625,798.2051391601562,785.7142944335938,790.1465454101562
39,793.7728881835938,796.1904907226562,789.3406372070312,784.5054931640625
40,787.7289428710938,790.1465454101562,787.7289428710938,782.893798828125
41,788.937744140625,790.1465454101562,788.1318969726562,778.8644409179688
42,794.981689453125,792.967041015625,793.3699340820312,778.8644409179688
43,793.7728881835938,792.1611938476562,786.923095703125,776.8497924804688
44,785.7142944335938,786.923095703125,785.3113403320312,774.029296875
45,779.6703491210938,781.6849975585938,788.937744140625,771.2088012695312
46,785.3113403320312,782.087890625,789.3406372070312,769.5970458984375
47,797.8021850585938,787.3259887695312,792.5640869140625,782.893798828125
48,790.5494384765625,787.3259887695312,794.5787353515625,787.7289428710938
49,781.6849975585938,782.4908447265625,796.5933837890625,778.8644409179688
50,777.6557006835938,777.6557006835938,796.996337890625,776.4468994140625
51,767.5823974609375,783.6996459960938,794.981689453125,776.0439453125
52,782.4908447265625,788.1318969726562,799.010986328125,783.2966918945312
53,795.3846435546875,789.3406372070312,800.6226806640625,789.3406372070312
54,791.3552856445312,789.3406372070312,802.6373901367188,790.952392578125
55,788.937744140625,786.1171875,799.4139404296875,789.3406372070312
56,790.952392578125,788.5347900390625,795.7875366210938,796.5933837890625
57,792.967041015625,788.1318969726562,795.7875366210938,796.5933837890625
58,795.3846435546875,785.7142944335938,797.8021850585938,791.3552856445312
59,794.1758422851562,784.1025390625,796.5933837890625,786.923095703125
60,790.952392578125,783.6996459960938,795.7875366210938,779.2673950195312
61,794.981689453125,784.908447265625,796.5933837890625,782.087890625
62,804.2490844726562,790.952392578125,799.010986328125,790.5494384765625
63,807.4725341796875,796.5933837890625,802.6373901367188,788.937744140625
64,803.040283203125,801.4285888671875,802.2344360351562,789.3406372070312
65,804.6520385742188,802.2344360351562,802.2344360351562,790.5494384765625
66,801.025634765625,796.5933837890625,800.6226806640625,789.7435913085938
67,796.996337890625,788.1318969726562,794.981689453125,800.2197875976562
68,784.1025390625,794.5787353515625,788.5347900390625,792.5640869140625
69,769.1941528320312,799.010986328125,788.5347900390625,775.6410522460938
70,766.3735961914062,794.5787353515625,788.937744140625,780.879150390625
71,773.6264038085938,794.5787353515625,787.7289428710938,782.4908447265625
72,781.6849975585938,796.1904907226562,784.5054931640625,780.879150390625
73,787.3259887695312,798.2051391601562,782.087890625,788.937744140625
74,792.967041015625,802.2344360351562,781.2820434570312,794.1758422851562
75,788.5347900390625,802.2344360351562,781.6849975585938,790.1465454101562
76,781.6849975585938,799.4139404296875,780.879150390625,780.4761962890625
77,786.5201416015625,795.7875366210938,782.893798828125,777.2527465820312
78,794.1758422851562,798.2051391601562,781.2820434570312,784.5054931640625
79,790.952392578125,804.6520385742188,781.6849975585938,790.5494384765625
80,791.7582397460938,803.8461303710938,783.2966918945312,786.1171875
81,796.5933837890625,797.3992919921875,779.6703491210938,783.6996459960938
82,795.7875366210938,794.5787353515625,781.6849975585938,782.087890625
83,799.8168334960938,794.1758422851562,783.6996459960938,785.7142944335938
84,805.054931640625,792.1611938476562,788.5347900390625,792.1611938476562
85,802.6373901367188,793.3699340820312,792.967041015625,794.1758422851562
86,801.025634765625,794.1758422851562,794.1758422851562,791.3552856445312
87,807.4725341796875,791.3552856445312,796.996337890625,790.1465454101562
88,814.3223266601562,796.1904907226562,798.2051391601562,796.5933837890625
89,815.5311279296875,799.010986328125,795.3846435546875,797.8021850585938
90,803.4432373046875,791.3552856445312,792.967041015625,790.952392578125
91,799.4139404296875,794.5787353515625,791.3552856445312,786.5201416015625
92,802.2344360351562,797.8021850585938,790.1465454101562,782.087890625
93,802.2344360351562,793.3699340820312,791.7582397460938,784.908447265625
94,800.2197875976562,791.7582397460938,790.1465454101562,792.5640869140625
95,787.3259887695312,794.5787353515625,787.7289428710938,784.908447265625
96,779.2673950195312,792.1611938476562,794.1758422851562,776.8497924804688
97,784.5054931640625,789.7435913085938,788.5347900390625,780.0732421875
98,787.7289428710938,786.5201416015625,782.087890625,774.8351440429688
99,786.923095703125,781.2820434570312,784.5054931640625,774.4322509765625
100,783.6996459960938,789.3406372070312,786.1171875,774.029296875
101,778.05859375,791.3552856445312,780.4761962890625,766.7765502929688
102,776.4468994140625,786.1171875,780.0732421875,770.0
103,776.0439453125,782.4908447265625,786.1171875,778.05859375
104,776.0439453125,778.8644409179688,783.6996459960938,774.4322509765625
105,776.8497924804688,776.0439453125,778.8644409179688,774.029296875
106,775.6410522460938,778.05859375,780.879150390625,778.8644409179688
107,780.4761962890625,781.6849975585938,786.1171875,771.6116943359375
108,785.3113403320312,784.5054931640625,789.3406372070312,773.2234497070312
109,785.7142944335938,786.5201416015625,789.3406372070312,779.6703491210938
110,789.7435913085938,791.3552856445312,788.5347900390625,781.2820434570312
111,791.3552856445312,790.952392578125,790.952392578125,778.05859375
112,796.996337890625,788.5347900390625,794.981689453125,778.4615478515625
113,799.8168334960938,790.1465454101562,793.7728881835938,777.6557006835938
114,796.5933837890625,788.937744140625,790.5494384765625,777.2527465820312
115,790.5494384765625,789.3406372070312,790.952392578125,776.4468994140625
116,787.7289428710938,794.5787353515625,795.3846435546875,774.8351440429688
117,786.1171875,794.981689453125,794.981689453125,784.908447265625
118,784.5054931640625,790.5494384765625,788.937744140625,784.908447265625
119,788.1318969726562,793.3699340820312,790.5494384765625,779.6703491210938
120,786.923095703125,794.981689453125,796.5933837890625,783.6996459960938
121,779.2673950195312,788.5347900390625,792.967041015625,784.1025390625
122,779.2673950195312,788.5347900390625,793.7728881835938,777.6557006835938
123,781.6849975585938,788.5347900390625,796.1904907226562,778.05859375
124,781.6849975585938,790.1465454101562,794.5787353515625,782.087890625
125,780.879150390625,788.1318969726562,796.1904907226562,780.879150390625
126,778.05859375,786.1171875,792.5640869140625,781.6849975585938
127,781.2820434570312,783.6996459960938,794.1758422851562,783.6996459960938
128,790.5494384765625,781.2820434570312,801.025634765625,792.1611938476562
129,799.4139404296875,786.5201416015625,797.3992919921875,803.8461303710938
130,798.6080322265625,791.3552856445312,791.7582397460938,797.3992919921875
131,793.3699340820312,792.967041015625,793.3699340820312,789.7435913085938
132,791.7582397460938,791.3552856445312,795.7875366210938,790.1465454101562
133,787.3259887695312,792.967041015625,794.1758422851562,786.923095703125
134,791.7582397460938,794.981689453125,796.5933837890625,788.937744140625
135,794.981689453125,791.7582397460938,792.1611938476562,790.5494384765625
136,791.3552856445312,788.937744140625,787.3259887695312,793.3699340820312
137,791.7582397460938,792.1611938476562,784.5054931640625,788.1318969726562
138,793.3699340820312,790.952392578125,786.1171875,785.7142944335938
139,799.8168334960938,789.7435913085938,790.1465454101562,788.1318969726562
140,804.2490844726562,793.7728881835938,790.5494384765625,792.967041015625
141,792.967041015625,796.5933837890625,783.2966918945312,782.087890625
142,778.8644409179688,793.3699340820312,784.1025390625,766.7765502929688
143,780.879150390625,792.967041015625,784.5054931640625,776.4468994140625
144,789.7435913085938,794.5787353515625,783.2966918945312,777.6557006835938
145,794.1758422851562,800.2197875976562,789.3406372070312,778.05859375
146,790.952392578125,799.8168334960938,788.1318969726562,777.2527465820312
147,783.2966918945312,792.5640869140625,786.923095703125,773.6264038085938
148,781.6849975585938,793.3699340820312,790.952392578125,780.0732421875
149,782.893798828125,793.3699340820312,790.1465454101562,785.7142944335938
150,780.4761962890625,791.3552856445312,788.1318969726562,782.4908447265625
151,777.2527465820312,785.3113403320312,784.908447265625,775.2380981445312
152,781.2820434570312,785.7142944335938,778.8644409179688,781.2820434570312
153,787.3259887695312,791.3552856445312,782.4908447265625,780.879150390625
154,792.5640869140625,794.981689453125,790.1465454101562,788.5347900390625
155,791.7582397460938,790.952392578125,789.7435913085938,794.981689453125
156,785.7142944335938,783.2966918945312,787.3259887695312,788.1318969726562
157,786.5201416015625,788.5347900390625,787.3259887695312,784.1025390625
158,792.5640869140625,790.1465454101562,786.1171875,786.5201416015625
159,798.6080322265625,785.3113403320312,786.1171875,788.5347900390625
160,796.5933837890625,780.879150390625,781.6849975585938,785.3113403320312
161,788.5347900390625,781.6849975585938,783.2966918945312,782.893798828125
162,787.3259887695312,785.7142944335938,788.1318969726562,784.908447265625
163,784.1025390625,787.3259887695312,786.5201416015625,788.1318969726562
164,786.923095703125,788.5347900390625,789.3406372070312,787.7289428710938
165,798.6080322265625,792.5640869140625,792.967041015625,786.1171875
166,801.025634765625,787.7289428710938,794.1758422851562,784.5054931640625
167,797.8021850585938,782.893798828125,794.1758422851562,784.5054931640625
168,788.937744140625,786.5201416015625,792.5640869140625,783.2966918945312
169,792.5640869140625,787.7289428710938,791.3552856445312,787.3259887695312
170,787.7289428710938,783.6996459960938,793.3699340820312,788.5347900390625
171,771.6116943359375,784.908447265625,793.7728881835938,788.5347900390625
172,775.6410522460938,788.1318969726562,794.981689453125,788.937744140625
173,778.8644409179688,789.7435913085938,798.6080322265625,785.3113403320312
174,774.8351440429688,787.7289428710938,796.1904907226562,786.923095703125
175,780.4761962890625,785.3113403320312,794.981689453125,791.7582397460938
176,786.5201416015625,787.3259887695312,798.2051391601562,788.5347900390625
177,786.5201416015625,788.1318969726562,801.025634765625,780.0732421875
178,786.1171875,787.3259887695312,801.8314819335938,788.937744140625
179,785.3113403320312,789.3406372070312,804.2490844726562,796.5933837890625
180,783.2966918945312,790.5494384765625,801.025634765625,786.5201416015625
181,779.6703491210938,790.952392578125,800.2197875976562,785.3113403320312
182,778.05859375,790.5494384765625,800.6226806640625,788.5347900390625
183,783.6996459960938,789.7435913085938,796.5933837890625,784.908447265625
184,789.7435913085938,792.5640869140625,798.6080322265625,787.3259887695312
185,792.1611938476562,790.1465454101562,799.4139404296875,790.5494384765625
186,794.1758422851562,784.1025390625,792.967041015625,789.7435913085938
187,797.3992919921875,794.5787353515625,793.7728881835938,788.937744140625
188,791.7582397460938,801.025634765625,799.4139404296875,786.1171875
189,792.967041015625,795.7875366210938,799.4139404296875,794.1758422851562
190,796.1904907226562,797.3992919921875,794.5787353515625,796.5933837890625
191,797.8021850585938,795.7875366210938,792.1611938476562,789.7435913085938
192,792.967041015625,791.7582397460938,788.5347900390625,784.1025390625
193,790.952392578125,792.5640869140625,788.1318969726562,786.923095703125
194,789.3406372070312,791.7582397460938,786.5201416015625,787.7289428710938
195,784.1025390625,793.7728881835938,786.923095703125,794.5787353515625
196,791.3552856445312,789.3406372070312,789.7435913085938,798.6080322265625
197,791.7582397460938,786.923095703125,790.5494384765625,792.5640869140625
198,784.5054931640625,788.937744140625,792.967041015625,795.7875366210938
199,783.2966918945312,786.5201416015625,795.7875366210938,794.981689453125
200,787.3259887695312,786.923095703125,797.3992919921875,788.1318969726562
201,788.5347900390625,790.1465454101562,792.1611938476562,788.937744140625
202,788.5347900390625,790.1465454101562,794.1758422851562,787.3259887695312
203,793.3699340820312,791.7582397460938,797.3992919921875,784.908447265625
204,792.967041015625,791.3552856445312,796.5933837890625,787.3259887695312
205,796.1904907226562,790.952392578125,800.2197875976562,791.7582397460938
206,803.8461303710938,788.1318969726562,794.1758422851562,788.937744140625
207,809.4871826171875,784.908447265625,791.3552856445312,790.1465454101562
208,805.054931640625,787.3259887695312,793.3699340820312,790.1465454101562
209,800.6226806640625,792.5640869140625,794.1758422851562,794.1758422851562
210,800.6226806640625,793.7728881835938,792.967041015625,799.4139404296875
211,803.4432373046875,792.5640869140625,790.5494384765625,793.7728881835938
212,802.2344360351562,789.7435913085938,787.3259887695312,789.7435913085938
213,800.2197875976562,792.967041015625,785.3113403320312,788.5347900390625
214,799.8168334960938,798.2051391601562,783.6996459960938,783.6996459960938
215,800.6226806640625,796.5933837890625,789.3406372070312,784.1025390625
216,801.8314819335938,795.7875366210938,791.3552856445312,789.3406372070312
217,794.981689453125,792.1611938476562,788.1318969726562,788.5347900390625
218,787.7289428710938,788.1318969726562,792.5640869140625,788.5347900390625
219,785.7142944335938,790.5494384765625,791.3552856445312,784.5054931640625
220,790.952392578125,792.1611938476562,789.7435913085938,787.7289428710938
221,794.5787353515625,795.7875366210938,794.5787353515625,792.967041015625
222,790.5494384765625,798.6080322265625,794.981689453125,790.952392578125
223,796.1904907226562,796.1904907226562,793.7728881835938,790.1465454101562
224,799.010986328125,794.5787353515625,790.952392578125,788.1318969726562
225,796.5933837890625,797.8021850585938,788.5347900390625,792.1611938476562
226,791.3552856445312,797.3992919921875,788.5347900390625,788.5347900390625
227,786.923095703125,791.3552856445312,788.1318969726562,784.1025390625
228,788.5347900390625,790.5494384765625,787.7289428710938,790.5494384765625
229,788.1318969726562,796.5933837890625,790.952392578125,793.7728881835938
230,785.7142944335938,799.4139404296875,795.3846435546875,787.7289428710938
231,788.1318969726562,799.010986328125,792.1611938476562,781.6849975585938
232,793.3699340820312,796.5933837890625,792.1611938476562,789.7435913085938
233,790.5494384765625,795.7875366210938,794.5787353515625,790.952392578125
234,788.5347900390625,791.7582397460938,793.7728881835938,786.923095703125
235,796.1904907226562,792.1611938476562,794.5787353515625,791.7582397460938
236,798.6080322265625,794.5787353515625,796.996337890625,792.967041015625
237,794.981689453125,788.5347900390625,792.1611938476562,788.1318969726562
238,783.6996459960938,786.1171875,792.967041015625,784.1025390625
239,776.0439453125,787.7289428710938,793.7728881835938,784.908447265625
240,784.5054931640625,792.5640869140625,790.5494384765625,789.3406372070312
241,794.1758422851562,796.5933837890625,791.7582397460938,787.7289428710938
242,799.8168334960938,796.996337890625,794.981689453125,791.7582397460938
243,796.1904907226562,799.4139404296875,798.2051391601562,794.5787353515625
244,793.7728881835938,797.3992919921875,797.3992919921875,790.5494384765625
245,786.923095703125,796.1904907226562,792.967041015625,783.6996459960938
246,785.3113403320312,796.1904907226562,792.1611938476562,782.893798828125
247,793.7728881835938,789.3406372070312,790.1465454101562,786.1171875
248,791.7582397460938,786.923095703125,787.7289428710938,789.7435913085938
249,785.3113403320312,788.5347900390625,788.937744140625,787.7289428710938
250,792.5640869140625,788.1318969726562,794.1758422851562,786.5201416015625
251,803.8461303710938,785.7142944335938,795.3846435546875,786.923095703125
252,799.8168334960938,790.952392578125,797.3992919921875,790.952392578125
253,790.1465454101562,795.7875366210938,796.5933837890625,792.967041015625
254,786.923095703125,790.952392578125,791.7582397460938,786.1171875
255,791.7582397460938,785.3113403320312,790.952392578125,785.7142944335938
256,792.5640869140625,789.3406372070312,793.7728881835938,788.1318969726562
257,791.3552856445312,790.952392578125,794.981689453125,790.1465454101562
258,788.5347900390625,786.5201416015625,790.5494384765625,788.937744140625
259,779.2673950195312,785.3113403320312,790.5494384765625,793.3699340820312
260,776.8497924804688,784.908447265625,796.5933837890625,796.5933837890625
261,779.2673950195312,787.7289428710938,795.3846435546875,792.967041015625
262,781.6849975585938,792.5640869140625,796.1904907226562,792.5640869140625
263,784.5054931640625,792.967041015625,797.3992919921875,790.952392578125
264,778.4615478515625,786.923095703125,794.981689453125,782.4908447265625
265,770.4029541015625,780.879150390625,791.3552856445312,777.6557006835938
266,774.029296875,780.879150390625,790.1465454101562,779.6703491210938
267,781.6849975585938,785.7142944335938,793.7728881835938,786.5201416015625
268,780.0732421875,788.937744140625,794.981689453125,782.4908447265625
269,777.6557006835938,786.923095703125,790.5494384765625,776.8497924804688
270,778.4615478515625,787.3259887695312,793.3699340820312,779.2673950195312
271,781.6849975585938,787.3259887695312,796.996337890625,778.05859375
272,790.5494384765625,784.1025390625,790.5494384765625,775.2380981445312
273,792.5640869140625,793.3699340820312,788.1318969726562,778.4615478515625
274,785.3113403320312,796.1904907226562,791.7582397460938,778.4615478515625
275,781.2820434570312,789.3406372070312,790.952392578125,777.6557006835938
276,779.2673950195312,785.3113403320312,786.923095703125,773.2234497070312
277,781.6849975585938,785.7142944335938,790.5494384765625,780.4761962890625
278,786.923095703125,790.5494384765625,793.3699340820312,785.7142944335938
279,785.7142944335938,795.3846435546875,788.1318969726562,778.05859375
280,777.2527465820312,794.1758422851562,786.1171875,773.6264038085938
281,779.2673950195312,792.967041015625,787.3259887695312,773.2234497070312
282,784.1025390625,790.5494384765625,787.7289428710938,776.0439453125
283,787.3259887695312,786.923095703125,788.1318969726562,773.6264038085938
284,780.879150390625,791.7582397460938,785.3113403320312,774.4322509765625
285,774.4322509765625,791.3552856445312,780.4761962890625,781.2820434570312
286,777.2527465820312,784.908447265625,779.2673950195312,784.1025390625
287,779.6703491210938,789.3406372070312,782.893798828125,777.6557006835938
288,786.923095703125,792.5640869140625,787.3259887695312,780.4761962890625
289,790.952392578125,792.5640869140625,790.5494384765625,789.7435913085938
290,788.5347900390625,793.3699340820312,794.1758422851562,792.1611938476562
291,784.908447265625,789.3406372070312,794.5787353515625,788.5347900390625
292,784.908447265625,790.5494384765625,790.5494384765625,782.087890625
293,786.923095703125,792.967041015625,789.3406372070312,779.2673950195312
294,785.3113403320312,787.3259887695312,789.7435913085938,776.0439453125
295,781.2820434570312,788.1318969726562,788.1318969726562,778.8644409179688
296,778.8644409179688,788.937744140625,790.1465454101562,776.0439453125
297,784.908447265625,788.5347900390625,792.1611938476562,778.8644409179688
298,784.908447265625,789.7435913085938,790.952392578125,789.7435913085938
299,788.5347900390625,793.7728881835938,796.1904907226562,785.7142944335938
300,792.1611938476562,789.7435913085938,798.6080322265625,785.3113403320312
301,788.937744140625,786.1171875,796.1904907226562,790.5494384765625
302,789.3406372070312,789.7435913085938,795.7875366210938,792.5640869140625
303,791.3552856445312,789.3406372070312,793.3699340820312,788.1318969726562
304,797.3992919921875,790.5494384765625,788.5347900390625,781.6849975585938
305,796.5933837890625,793.7728881835938,788.937744140625,784.5054931640625
306,791.3552856445312,796.996337890625,795.3846435546875,790.1465454101562
307,793.7728881835938,793.3699340820312,793.3699340820312,791.3552856445312
308,792.5640869140625,790.952392578125,788.1318969726562,785.3113403320312
309,786.1171875,790.1465454101562,785.7142944335938,787.3259887695312
310,786.5201416015625,786.5201416015625,786.923095703125,784.5054931640625
311,788.1318969726562,788.1318969726562,789.7435913085938,776.0439453125
312,788.937744140625,788.937744140625,792.967041015625,782.4908447265625
313,792.1611938476562,780.0732421875,794.5787353515625,784.908447265625
314,792.1611938476562,778.8644409179688,795.7875366210938,785.3113403320312
315,788.1318969726562,782.893798828125,794.5787353515625,788.1318969726562
316,786.5201416015625,783.2966918945312,790.5494384765625,790.952392578125
317,786.923095703125,786.923095703125,791.3552856445312,786.1171875
318,788.1318969726562,786.923095703125,792.967041015625,782.893798828125
319,782.087890625,781.6849975585938,790.952392578125,783.6996459960938
320,786.5201416015625,783.6996459960938,788.937744140625,785.7142944335938
321,794.981689453125,788.1318969726562,786.5201416015625,788.5347900390625
322,797.3992919921875,790.952392578125,787.7289428710938,784.908447265625
323,801.4285888671875,792.5640869140625,788.937744140625,787.7289428710938
324,793.3699340820312,789.7435913085938,791.3552856445312,791.3552856445312
325,791.7582397460938,789.7435913085938,798.2051391601562,795.3846435546875
326,794.5787353515625,792.967041015625,801.4285888671875,793.3699340820312
327,788.937744140625,789.7435913085938,799.4139404296875,786.1171875
328,790.5494384765625,786.5201416015625,793.3699340820312,782.087890625
329,799.4139404296875,787.7289428710938,790.1465454101562,781.2820434570312
330,798.6080322265625,792.1611938476562,788.1318969726562,785.3113403320312
331,790.1465454101562,792.967041015625,788.1318969726562,786.1171875
332,785.7142944335938,786.1171875,784.908447265625,781.6849975585938
333,788.5347900390625,792.1611938476562,786.1171875,787.3259887695312
334,795.7875366210938,793.7728881835938,792.1611938476562,792.967041015625
335,788.1318969726562,785.3113403320312,790.5494384765625,787.3259887695312
336,779.2673950195312,788.1318969726562,788.1318969726562,800.2197875976562
337,776.8497924804688,786.5201416015625,786.923095703125,801.025634765625
338,783.2966918945312,784.1025390625,787.3259887695312,794.1758422851562
339,785.7142944335938,783.6996459960938,790.1465454101562,797.3992919921875
340,779.6703491210938,789.3406372070312,791.7582397460938,799.4139404296875
341,780.0732421875,789.3406372070312,790.1465454101562,796.996337890625
342,787.7289428710938,789.7435913085938,788.5347900390625,789.3406372070312
343,797.3992919921875,795.7875366210938,786.5201416015625,788.5347900390625
344,805.054931640625,794.5787353515625,786.1171875,798.2051391601562
345,798.2051391601562,791.3552856445312,784.5054931640625,789.7435913085938
346,792.967041015625,792.967041015625,783.6996459960938,782.893798828125
347,794.1758422851562,792.1611938476562,779.6703491210938,782.893798828125
348,786.923095703125,791.7582397460938,780.0732421875,780.0732421875
349,786.5201416015625,791.3552856445312,781.6849975585938,776.4468994140625
350,795.7875366210938,788.5347900390625,778.8644409179688,775.6410522460938
351,799.8168334960938,786.1171875,782.4908447265625,780.0732421875
352,799.4139404296875,781.6849975585938,785.3113403320312,782.4908447265625
353,809.084228515625,787.3259887695312,786.923095703125,782.087890625
354,813.5164794921875,789.7435913085938,789.3406372070312,778.8644409179688
355,803.8461303710938,788.1318969726562,790.1465454101562,778.4615478515625
356,796.5933837890625,787.7289428710938,788.5347900390625,778.4615478515625
357,785.3113403320312,786.1171875,792.5640869140625,778.8644409179688
358,788.937744140625,784.908447265625,794.981689453125,779.2673950195312
359,805.8607788085938,784.1025390625,793.3699340820312,782.087890625
360,804.2490844726562,786.5201416015625,797.8021850585938,781.2820434570312
361,795.3846435546875,793.7728881835938,799.010986328125,783.6996459960938
362,782.087890625,798.6080322265625,792.967041015625,780.4761962890625
363,789.3406372070312,796.5933837890625,793.3699340820312,783.2966918945312
364,793.7728881835938,790.952392578125,794.1758422851562,784.908447265625
365,788.5347900390625,791.3552856445312,789.3406372070312,786.1171875
366,786.923095703125,793.3699340820312,790.5494384765625,789.7435913085938
367,778.05859375,791.7582397460938,792.1611938476562,790.5494384765625
368,777.2527465820312,786.923095703125,790.5494384765625,788.5347900390625
369,784.908447265625,789.7435913085938,793.7728881835938,788.5347900390625
370,786.923095703125,794.5787353515625,794.5787353515625,790.952392578125
371,784.5054931640625,792.1611938476562,793.3699340820312,793.3699340820312
372,782.893798828125,790.952392578125,788.937744140625,788.5347900390625
373,788.937744140625,790.5494384765625,786.1171875,787.7289428710938
374,789.3406372070312,789.3406372070312,792.1611938476562,797.3992919921875
375,788.1318969726562,782.4908447265625,788.937744140625,797.8021850585938
376,787.3259887695312,782.4908447265625,783.6996459960938,787.3259887695312
377,792.5640869140625,782.087890625,788.1318969726562,785.7142944335938
378,797.3992919921875,784.1025390625,783.6996459960938,792.5640869140625
379,796.5933837890625,789.3406372070312,782.087890625,794.981689453125
380,798.6080322265625,788.5347900390625,784.1025390625,797.8021850585938
381,797.8021850585938,791.7582397460938,780.0732421875,793.3699340820312
382,798.6080322265625,792.967041015625,780.879150390625,791.7582397460938
383,805.054931640625,793.7728881835938,787.7289428710938,793.3699340820312
384,807.4725341796875,796.5933837890625,790.1465454101562,795.3846435546875
385,799.4139404296875,795.3846435546875,792.967041015625,794.1758422851562
386,799.4139404296875,790.952392578125,793.7728881835938,790.5494384765625
387,795.3846435546875,786.923095703125,793.7728881835938,788.937744140625
388,792.5640869140625,788.1318969726562,794.981689453125,788.5347900390625
389,799.4139404296875,787.3259887695312,794.1758422851562,793.3699340820312
390,794.1758422851562,785.3113403320312,794.5787353515625,799.4139404296875
391,786.923095703125,784.5054931640625,796.996337890625,793.7728881835938
392,778.05859375,784.1025390625,792.1611938476562,782.087890625
393,778.4615478515625,788.5347900390625,789.7435913085938,782.4908447265625
394,780.879150390625,785.7142944335938,794.5787353515625,787.3259887695312
395,785.7142944335938,784.1025390625,795.7875366210938,785.3113403320312
396,792.1611938476562,789.7435913085938,797.8021850585938,787.3259887695312
397,789.3406372070312,791.3552856445312,796.5933837890625,789.3406372070312
398,789.3406372070312,793.3699340820312,795.3846435546875,785.3113403320312
399,795.3846435546875,797.3992919921875,793.7728881835938,783.2966918945312
400,801.025634765625,796.996337890625,793.3699340820312,781.6849975585938
401,804.2490844726562,796.1904907226562,792.5640869140625,782.4908447265625
402,804.2490844726562,798.6080322265625,793.7728881835938,787.3259887695312
403,797.8021850585938,799.8168334960938,794.981689453125,789.3406372070312
404,801.4285888671875,802.2344360351562,790.1465454101562,789.7435913085938
405,804.2490844726562,800.2197875976562,786.923095703125,790.1465454101562
406,805.4578857421875,797.3992919921875,787.7289428710938,786.923095703125
407,808.2783813476562,799.8168334960938,786.1171875,789.7435913085938
408,800.6226806640625,798.2051391601562,785.3113403320312,788.937744140625
409,801.025634765625,803.040283203125,788.5347900390625,782.893798828125
410,803.8461303710938,803.040283203125,790.5494384765625,787.3259887695312
411,795.7875366210938,794.5787353515625,787.7289428710938,787.3259887695312
412,788.1318969726562,789.7435913085938,788.937744140625,784.5054931640625
413,785.3113403320312,790.5494384765625,789.3406372070312,789.3406372070312
414,786.1171875,789.7435913085938,790.5494384765625,786.1171875
415,789.7435913085938,785.3113403320312,791.7582397460938,783.6996459960938
416,786.1171875,785.3113403320312,794.1758422851562,785.3113403320312
417,780.879150390625,787.7289428710938,791.7582397460938,787.7289428710938
418,786.1171875,790.952392578125,792.1611938476562,788.5347900390625
419,794.5787353515625,796.1904907226562,797.3992919921875,790.1465454101562
420,798.2051391601562,798.2051391601562,795.3846435546875,791.7582397460938
421,794.981689453125,793.7728881835938,790.5494384765625,786.5201416015625
422,786.5201416015625,790.1465454101562,788.937744140625,780.879150390625
423,780.879150390625,789.7435913085938,789.3406372070312,785.7142944335938
424,784.1025390625,791.3552856445312,790.1465454101562,785.3113403320312
425,792.5640869140625,791.7582397460938,793.3699340820312,784.1025390625
426,797.3992919921875,791.7582397460938,790.1465454101562,785.3113403320312
427,795.7875366210938,792.1611938476562,784.5054931640625,786.923095703125
428,799.4139404296875,789.7435913085938,786.923095703125,789.3406372070312
429,798.2051391601562,790.5494384765625,788.1318969726562,789.3406372070312
430,799.8168334960938,792.5640869140625,792.5640869140625,789.3406372070312
431,798.6080322265625,794.5787353515625,796.1904907226562,792.5640869140625
432,787.7289428710938,787.3259887695312,788.5347900390625,795.3846435546875
433,781.2820434570312,782.893798828125,788.937744140625,788.937744140625
434,772.8204956054688,786.923095703125,791.7582397460938,780.0732421875
435,780.4761962890625,790.952392578125,789.7435913085938,782.087890625
436,784.1025390625,786.5201416015625,793.3699340820312,780.0732421875
437,783.2966918945312,782.4908447265625,798.2051391601562,782.893798828125
438,789.7435913085938,782.893798828125,794.5787353515625,784.1025390625
439,790.952392578125,787.7289428710938,790.952392578125,781.6849975585938
440,784.5054931640625,792.5640869140625,790.952392578125,786.1171875
441,783.2966918945312,788.1318969726562,791.7582397460938,779.2673950195312
442,788.1318969726562,786.1171875,791.7582397460938,778.05859375
443,788.1318969726562,788.5347900390625,794.981689453125,777.2527465820312
444,784.5054931640625,785.7142944335938,790.5494384765625,772.4176025390625
445,792.967041015625,784.5054931640625,790.952392578125,775.6410522460938
446,795.3846435546875,783.2966918945312,789.7435913085938,779.6703491210938
447,792.967041015625,782.893798828125,784.5054931640625,782.087890625
448,795.3846435546875,786.1171875,781.2820434570312,780.4761962890625
449,795.7875366210938,784.908447265625,780.879150390625,777.2527465820312
450,797.8021850585938,786.1171875,786.1171875,783.6996459960938
451,801.8314819335938,787.7289428710938,788.937744140625,796.1904907226562
452,804.2490844726562,788.5347900390625,789.7435913085938,799.8168334960938
453,804.6520385742188,790.1465454101562,793.3699340820312,799.010986328125
454,798.2051391601562,790.5494384765625,792.1611938476562,800.6226806640625
455,798.6080322265625,787.3259887695312,789.7435913085938,801.4285888671875
456,796.996337890625,788.5347900390625,786.923095703125,799.8168334960938
457,790.952392578125,789.3406372070312,786.923095703125,791.3552856445312
458,793.3699340820312,791.7582397460938,790.1465454101562,789.7435913085938
459,790.1465454101562,792.1611938476562,786.5201416015625,792.5640869140625
460,791.3552856445312,792.1611938476562,789.7435913085938,795.3846435546875
461,796.1904907226562,795.3846435546875,792.967041015625,792.967041015625
462,797.3992919921875,795.7875366210938,789.7435913085938,791.3552856445312
463,798.2051391601562,793.3699340820312,786.1171875,799.4139404296875
464,794.981689453125,792.1611938476562,784.5054931640625,791.3552856445312
465,797.3992919921875,794.1758422851562,788.1318969726562,783.2966918945312
466,801.4285888671875,794.981689453125,789.7435913085938,786.1171875
467,796.5933837890625,794.981689453125,787.7289428710938,782.087890625
468,797.8021850585938,792.967041015625,788.5347900390625,780.4761962890625
469,803.4432373046875,793.7728881835938,789.3406372070312,782.4908447265625
470,801.025634765625,796.5933837890625,795.7875366210938,787.3259887695312
471,799.8168334960938,795.7875366210938,796.1904907226562,794.1758422851562
472,799.4139404296875,791.3552856445312,789.7435913085938,788.5347900390625
473,794.981689453125,787.7289428710938,790.5494384765625,786.923095703125
474,794.981689453125,785.7142944335938,794.981689453125,796.1904907226562
475,794.1758422851562,788.1318969726562,792.1611938476562,794.5787353515625
476,794.981689453125,787.3259887695312,790.1465454101562,794.981689453125
477,791.3552856445312,782.893798828125,792.967041015625,796.5933837890625
478,788.5347900390625,785.7142944335938,791.3552856445312,798.6080322265625
479,790.5494384765625,792.1611938476562,792.1611938476562,796.5933837890625
480,790.1465454101562,792.967041015625,794.5787353515625,786.923095703125
481,795.3846435546875,790.1465454101562,793.7728881835938,787.3259887695312
482,805.4578857421875,791.7582397460938,793.3699340820312,795.7875366210938
483,809.084228515625,790.5494384765625,791.3552856445312,795.7875366210938
484,803.040283203125,790.5494384765625,791.3552856445312,787.3259887695312
485,798.6080322265625,792.1611938476562,791.3552856445312,790.1465454101562
486,791.7582397460938,791.7582397460938,780.879150390625,786.923095703125
487,786.5201416015625,789.7435913085938,776.8497924804688,783.6996459960938
488,780.879150390625,789.3406372070312,786.1171875,782.087890625
489,774.029296875,787.7289428710938,790.5494384765625,777.6557006835938
490,774.029296875,788.937744140625,786.1171875,781.2820434570312
491,775.2380981445312,790.1465454101562,782.087890625,773.6264038085938
492,782.4908447265625,789.7435913085938,784.5054931640625,769.1941528320312
493,788.937744140625,792.1611938476562,789.7435913085938,777.2527465820312
494,789.7435913085938,790.1465454101562,787.7289428710938,781.2820434570312
495,790.5494384765625,790.952392578125,786.1171875,781.6849975585938
496,795.7875366210938,795.7875366210938,788.5347900390625,788.1318969726562
497,797.8021850585938,796.996337890625,785.3113403320312,791.3552856445312
498,794.981689453125,792.5640869140625,783.2966918945312,790.1465454101562
499,792.5640869140625,789.7435913085938,787.3259887695312,788.1318969726562
500,796.1904907226562,790.5494384765625,791.7582397460938,788.937744140625
501,799.010986328125,788.5347900390625,791.7582397460938,800.2197875976562
502,804.6520385742188,790.952392578125,793.7728881835938,800.6226806640625
503,815.93408203125,796.1904907226562,791.7582397460938,792.1611938476562
504,815.5311279296875,792.5640869140625,788.5347900390625,785.3113403320312
505,807.4725341796875,795.3846435546875,786.1171875,782.893798828125
506,804.2490844726562,798.2051391601562,788.5347900390625,789.3406372070312
507,800.6226806640625,797.8021850585938,789.3406372070312,790.952392578125
508,799.010986328125,800.6226806640625,788.5347900390625,792.5640869140625
509,793.3699340820312,799.010986328125,788.5347900390625,788.937744140625
510,790.952392578125,791.7582397460938,790.5494384765625,789.3406372070312
511,790.5494384765625,788.937744140625,788.5347900390625,789.7435913085938
512,793.7728881835938,796.996337890625,785.3113403320312,792.1611938476562
513,800.2197875976562,799.4139404296875,788.1318969726562,798.6080322265625
514,801.025634765625,796.5933837890625,789.7435913085938,797.8021850585938
515,796.996337890625,796.1904907226562,786.923095703125,795.3846435546875
516,792.5640869140625,798.2051391601562,786.5201416015625,797.8021850585938
517,792.5640869140625,796.5933837890625,787.3259887695312,800.6226806640625
518,793.7728881835938,794.981689453125,788.1318969726562,796.1904907226562
519,792.5640869140625,791.7582397460938,790.1465454101562,794.1758422851562
520,792.5640869140625,781.6849975585938,788.937744140625,790.952392578125
521,790.1465454101562,783.2966918945312,786.5201416015625,790.952392578125
522,792.5640869140625,787.3259887695312,786.5201416015625,790.1465454101562
523,801.025634765625,786.5201416015625,790.1465454101562,794.1758422851562
524,798.6080322265625,786.923095703125,790.5494384765625,798.6080322265625
525,792.5640869140625,788.5347900390625,787.3259887695312,790.5494384765625
526,788.937744140625,785.3113403320312,786.5201416015625,784.908447265625
527,792.967041015625,785.7142944335938,787.3259887695312,790.1465454101562
528,799.8168334960938,790.1465454101562,789.3406372070312,792.5640869140625
529,799.4139404296875,792.1611938476562,788.5347900390625,790.5494384765625
530,791.7582397460938,790.952392578125,790.1465454101562,786.923095703125
531,791.3552856445312,792.5640869140625,792.967041015625,784.908447265625
532,798.6080322265625,790.1465454101562,796.5933837890625,787.7289428710938
533,797.8021850585938,793.7728881835938,796.1904907226562,789.3406372070312
534,791.7582397460938,795.3846435546875,792.5640869140625,789.7435913085938
535,798.6080322265625,791.3552856445312,794.981689453125,796.5933837890625
536,800.2197875976562,793.3699340820312,796.5933837890625,797.3992919921875
537,793.7728881835938,796.5933837890625,796.5933837890625,787.3259887695312
538,790.952392578125,796.1904907226562,794.5787353515625,787.7289428710938
539,791.7582397460938,795.7875366210938,795.3846435546875,788.937744140625
540,794.981689453125,798.6080322265625,800.2197875976562,793.3699340820312
541,785.3113403320312,794.5787353515625,796.996337890625,786.923095703125
542,787.3259887695312,791.3552856445312,795.7875366210938,787.7289428710938
543,796.1904907226562,793.3699340820312,797.8021850585938,797.3992919921875
544,793.3699340820312,793.7728881835938,804.2490844726562,790.952392578125
545,790.952392578125,792.5640869140625,805.4578857421875,784.908447265625
546,785.3113403320312,785.7142944335938,799.8168334960938,784.5054931640625
547,781.2820434570312,786.1171875,797.8021850585938,787.7289428710938
548,783.6996459960938,790.1465454101562,795.7875366210938,791.3552856445312
549,792.1611938476562,788.937744140625,801.4285888671875,788.937744140625
550,796.1904907226562,787.7289428710938,799.010986328125,784.1025390625
551,801.8314819335938,790.5494384765625,792.967041015625,787.7289428710938
552,803.040283203125,791.3552856445312,793.7728881835938,786.923095703125
553,798.6080322265625,792.967041015625,791.3552856445312,786.5201416015625
554,792.5640869140625,792.5640869140625,791.3552856445312,788.1318969726562
555,785.7142944335938,787.3259887695312,788.937744140625,784.908447265625
556,782.893798828125,784.908447265625,786.1171875,777.6557006835938
557,783.6996459960938,791.7582397460938,788.1318969726562,776.0439453125
558,787.3259887695312,792.5640869140625,786.923095703125,784.908447265625
559,790.5494384765625,791.3552856445312,788.1318969726562,782.893798828125
560,793.7728881835938,791.3552856445312,788.937744140625,781.6849975585938
561,787.3259887695312,790.5494384765625,786.1171875,781.2820434570312
562,782.087890625,792.1611938476562,784.908447265625,778.8644409179688
563,789.7435913085938,793.3699340820312,786.923095703125,786.1171875
564,789.3406372070312,792.5640869140625,790.1465454101562,786.1171875
565,784.5054931640625,788.5347900390625,793.3699340820312,779.2673950195312
566,784.5054931640625,789.3406372070312,790.5494384765625,782.893798828125
567,784.908447265625,793.7728881835938,788.937744140625,788.937744140625
568,786.923095703125,795.3846435546875,795.7875366210938,788.1318969726562
569,793.3699340820312,795.7875366210938,799.4139404296875,788.1318969726562
570,792.1611938476562,796.5933837890625,791.3552856445312,785.3113403320312
571,783.6996459960938,793.3699340820312,786.5201416015625,781.6849975585938
572,790.952392578125,796.5933837890625,792.967041015625,784.5054931640625
573,797.3992919921875,796.996337890625,794.981689453125,790.5494384765625
574,796.996337890625,792.1611938476562,794.1758422851562,797.8021850585938
575,802.6373901367188,798.2051391601562,792.5640869140625,794.981689453125
576,801.025634765625,801.025634765625,792.967041015625,785.7142944335938
577,800.2197875976562,795.3846435546875,793.3699340820312,787.7289428710938
578,805.8607788085938,792.967041015625,792.967041015625,790.952392578125
579,806.6666870117188,796.1904907226562,795.7875366210938,792.5640869140625
580,802.2344360351562,794.1758422851562,792.1611938476562,787.7289428710938
581,798.2051391601562,792.1611938476562,789.3406372070312,787.7289428710938
582,800.6226806640625,802.6373901367188,791.3552856445312,792.5640869140625
583,803.040283203125,806.2637329101562,789.7435913085938,793.3699340820312
584,798.2051391601562,798.6080322265625,788.1318969726562,793.7728881835938
585,794.5787353515625,795.3846435546875,790.952392578125,789.3406372070312
586,795.7875366210938,796.996337890625,796.1904907226562,789.3406372070312
587,793.3699340820312,797.3992919921875,798.6080322265625,787.7289428710938
588,790.1465454101562,795.3846435546875,793.7728881835938,786.923095703125
589,795.7875366210938,795.3846435546875,794.1758422851562,791.3552856445312
590,801.8314819335938,799.4139404296875,796.5933837890625,790.1465454101562
591,802.6373901367188,804.2490844726562,794.981689453125,793.7728881835938
592,796.996337890625,797.3992919921875,790.1465454101562,794.1758422851562
593,800.2197875976562,790.952392578125,784.1025390625,792.967041015625
594,804.2490844726562,788.937744140625,782.087890625,799.4139404296875
595,803.4432373046875,786.5201416015625,790.1465454101562,795.3846435546875
596,799.8168334960938,786.5201416015625,788.5347900390625,785.7142944335938
597,800.2197875976562,786.5201416015625,786.1171875,790.952392578125
598,803.4432373046875,790.1465454101562,788.5347900390625,788.937744140625
599,806.2637329101562,795.7875366210938,790.952392578125,792.967041015625
600,802.6373901367188,792.1611938476562,790.1465454101562,799.010986328125
601,795.7875366210938,789.7435913085938,788.5347900390625,792.5640869140625
602,794.5787353515625,788.1318969726562,788.5347900390625,790.1465454101562
603,796.1904907226562,791.3552856445312,788.1318969726562,795.7875366210938
604,799.8168334960938,792.5640869140625,789.3406372070312,797.8021850585938
605,800.2197875976562,794.5787353515625,789.3406372070312,796.5933837890625
606,801.4285888671875,794.5787353515625,790.5494384765625,797.8021850585938
607,793.3699340820312,786.923095703125,792.967041015625,788.937744140625
608,787.7289428710938,786.1171875,794.5787353515625,786.1171875
609,794.1758422851562,785.7142944335938,793.7728881835938,790.952392578125
610,800.6226806640625,782.4908447265625,797.8021850585938,788.5347900390625
611,799.8168334960938,781.6849975585938,794.981689453125,784.1025390625
612,787.7289428710938,784.5054931640625,784.5054931640625,780.4761962890625
613,781.6849975585938,782.087890625,780.4761962890625,780.0732421875
614,788.5347900390625,779.6703491210938,786.1171875,782.4908447265625
615,792.1611938476562,779.2673950195312,789.3406372070312,779.6703491210938
616,790.5494384765625,774.8351440429688,786.1171875,785.3113403320312
617,782.087890625,779.6703491210938,788.5347900390625,784.5054931640625
618,782.087890625,784.1025390625,792.5640869140625,783.6996459960938
619,792.967041015625,783.2966918945312,792.5640869140625,790.952392578125
620,794.981689453125,784.908447265625,788.937744140625,793.7728881835938
621,786.923095703125,785.7142944335938,782.893798828125,792.1611938476562
622,787.3259887695312,787.3259887695312,787.3259887695312,786.5201416015625
623,792.967041015625,787.7289428710938,792.1611938476562,783.2966918945312
624,793.7728881835938,784.5054931640625,787.3259887695312,786.923095703125
625,796.996337890625,784.1025390625,781.2820434570312,788.1318969726562
626,789.7435913085938,782.4908447265625,781.2820434570312,785.3113403320312
627,788.5347900390625,783.2966918945312,785.7142944335938,789.3406372070312
628,790.5494384765625,784.908447265625,786.1171875,788.5347900390625
629,787.7289428710938,780.0732421875,785.7142944335938,786.1171875
630,791.3552856445312,782.087890625,785.3113403320312,790.952392578125
631,787.7289428710938,782.087890625,784.1025390625,792.5640869140625
632,784.5054931640625,785.3113403320312,791.3552856445312,789.7435913085938
633,783.6996459960938,786.923095703125,796.5933837890625,781.2820434570312
634,782.087890625,784.5054931640625,790.1465454101562,778.8644409179688
635,788.5347900390625,784.5054931640625,786.5201416015625,782.893798828125
636,788.1318969726562,784.1025390625,787.3259887695312,790.5494384765625
637,779.6703491210938,783.6996459960938,789.7435913085938,787.3259887695312
638,781.2820434570312,787.3259887695312,792.967041015625,781.6849975585938
639,786.1171875,793.3699340820312,793.7728881835938,785.7142944335938
640,784.908447265625,792.1611938476562,796.996337890625,786.5201416015625
641,784.908447265625,788.937744140625,794.5787353515625,787.7289428710938
642,782.4908447265625,786.1171875,790.952392578125,786.5201416015625
643,784.5054931640625,788.5347900390625,788.937744140625,782.893798828125
644,790.1465454101562,789.3406372070312,788.1318969726562,782.4908447265625
645,792.5640869140625,792.5640869140625,790.1465454101562,784.1025390625
646,796.5933837890625,794.981689453125,791.7582397460938,789.3406372070312
647,796.5933837890625,792.5640869140625,794.1758422851562,795.3846435546875
648,791.3552856445312,795.3846435546875,794.1758422851562,784.908447265625
649,796.996337890625,793.7728881835938,794.5787353515625,782.893798828125
650,801.4285888671875,787.7289428710938,795.3846435546875,787.3259887695312
651,792.967041015625,785.3113403320312,790.1465454101562,786.1171875
652,787.7289428710938,785.3113403320312,788.1318969726562,787.3259887695312
653,791.3552856445312,785.7142944335938,791.7582397460938,788.1318969726562
654,793.3699340820312,787.3259887695312,793.7728881835938,790.952392578125
655,794.5787353515625,788.1318969726562,794.1758422851562,794.1758422851562
656,786.923095703125,788.937744140625,795.7875366210938,783.2966918945312
657,776.8497924804688,790.1465454101562,795.7875366210938,773.2234497070312
658,776.4468994140625,784.908447265625,793.7728881835938,778.8644409179688
659,778.05859375,781.6849975585938,792.5640869140625,782.087890625
660,785.7142944335938,783.6996459960938,790.5494384765625,776.8497924804688
661,791.7582397460938,788.5347900390625,788.937744140625,777.6557006835938
662,792.5640869140625,790.952392578125,790.1465454101562,776.8497924804688
663,788.937744140625,787.7289428710938,789.3406372070312,771.2088012695312
664,783.2966918945312,787.7289428710938,791.7582397460938,770.0
665,786.5201416015625,790.5494384765625,796.996337890625,776.0439453125
666,794.981689453125,790.952392578125,798.2051391601562,782.087890625
667,795.3846435546875,790.5494384765625,796.5933837890625,784.908447265625
668,792.5640869140625,790.1465454101562,794.5787353515625,785.3113403320312
669,789.7435913085938,788.1318969726562,795.3846435546875,783.2966918945312
670,789.3406372070312,780.0732421875,793.3699340820312,785.7142944335938
671,786.1171875,783.6996459960938,791.3552856445312,783.2966918945312
672,788.937744140625,788.937744140625,792.1611938476562,788.1318969726562
673,794.5787353515625,785.7142944335938,792.5640869140625,790.5494384765625
674,796.996337890625,789.3406372070312,795.7875366210938,787.3259887695312
675,799.010986328125,791.7582397460938,798.2051391601562,786.5201416015625
676,795.3846435546875,787.7289428710938,795.3846435546875,785.3113403320312
677,794.5787353515625,787.3259887695312,798.2051391601562,789.3406372070312
678,790.5494384765625,788.1318969726562,798.2051391601562,790.952392578125
679,783.2966918945312,789.7435913085938,796.996337890625,787.7289428710938
680,778.05859375,789.7435913085938,795.3846435546875,782.893798828125
681,783.6996459960938,785.7142944335938,790.952392578125,787.7289428710938
682,789.7435913085938,786.1171875,795.7875366210938,794.5787353515625
683,788.937744140625,789.7435913085938,802.2344360351562,788.937744140625
684,789.7435913085938,783.6996459960938,798.2051391601562,786.1171875
685,790.952392578125,778.4615478515625,793.7728881835938,786.1171875
686,788.937744140625,784.1025390625,793.7728881835938,786.923095703125
687,792.5640869140625,788.937744140625,791.3552856445312,794.1758422851562
688,794.5787353515625,787.3259887695312,792.967041015625,794.981689453125
689,793.3699340820312,787.3259887695312,790.952392578125,793.3699340820312
690,794.5787353515625,785.7142944335938,783.6996459960938,790.5494384765625
691,797.3992919921875,786.923095703125,786.1171875,792.967041015625
692,798.2051391601562,787.7289428710938,789.7435913085938,799.8168334960938
693,793.3699340820312,785.7142944335938,788.937744140625,800.6226806640625
694,792.1611938476562,780.879150390625,787.3259887695312,796.5933837890625
695,791.3552856445312,781.2820434570312,785.7142944335938,791.7582397460938
696,794.5787353515625,783.2966918945312,789.7435913085938,790.1465454101562
697,805.4578857421875,781.6849975585938,796.1904907226562,788.937744140625
698,801.4285888671875,780.0732421875,796.1904907226562,789.3406372070312
699,796.5933837890625,783.6996459960938,792.5640869140625,789.7435913085938
700,792.5640869140625,784.5054931640625,791.3552856445312,788.1318969726562
701,790.5494384765625,783.2966918945312,788.937744140625,786.5201416015625
702,791.3552856445312,781.6849975585938,786.1171875,788.1318969726562
703,785.3113403320312,777.6557006835938,783.2966918945312,786.5201416015625
704,787.7289428710938,780.879150390625,782.087890625,791.3552856445312
705,791.3552856445312,781.6849975585938,783.2966918945312,794.1758422851562
706,789.3406372070312,781.6849975585938,784.908447265625,785.3113403320312
707,792.5640869140625,779.6703491210938,786.5201416015625,788.1318969726562
708,795.7875366210938,782.087890625,782.4908447265625,788.1318969726562
709,789.3406372070312,789.7435913085938,784.908447265625,786.923095703125
710,787.3259887695312,786.923095703125,787.3259887695312,788.1318969726562
711,792.1611938476562,784.5054931640625,782.893798828125,784.1025390625
712,795.3846435546875,787.3259887695312,786.1171875,783.2966918945312
713,796.996337890625,786.923095703125,782.893798828125,786.5201416015625
714,793.7728881835938,786.5201416015625,780.4761962890625,785.3113403320312
715,792.1611938476562,785.3113403320312,780.0732421875,780.4761962890625
716,796.996337890625,784.908447265625,781.6849975585938,790.952392578125
717,794.5787353515625,789.7435913085938,788.937744140625,799.010986328125
718,792.967041015625,791.7582397460938,789.3406372070312,788.1318969726562
719,786.923095703125,786.5201416015625,784.5054931640625,780.879150390625
720,779.2673950195312,788.1318969726562,779.6703491210938,785.7142944335938
721,785.3113403320312,790.952392578125,784.5054931640625,788.1318969726562
722,796.1904907226562,788.5347900390625,787.3259887695312,784.908447265625
723,795.3846435546875,786.1171875,789.7435913085938,783.2966918945312
724,786.1171875,786.923095703125,787.7289428710938,778.05859375
725,789.3406372070312,786.5201416015625,784.908447265625,779.6703491210938
726,790.952392578125,783.2966918945312,786.5201416015625,785.3113403320312
727,788.1318969726562,789.7435913085938,789.3406372070312,791.7582397460938
728,787.3259887695312,790.1465454101562,792.1611938476562,801.4285888671875
729,790.5494384765625,784.5054931640625,788.1318969726562,792.1611938476562
730,787.3259887695312,782.4908447265625,785.7142944335938,777.2527465820312
731,787.3259887695312,782.4908447265625,790.952392578125,780.4761962890625
732,789.3406372070312,785.7142944335938,792.967041015625,783.2966918945312
733,784.908447265625,784.908447265625,789.7435913085938,784.5054931640625
734,787.3259887695312,781.2820434570312,794.1758422851562,790.5494384765625
735,784.5054931640625,784.5054931640625,795.7875366210938,787.3259887695312
736,783.2966918945312,789.7435913085938,792.1611938476562,786.5201416015625
737,786.1171875,782.087890625,786.5201416015625,792.967041015625
738,792.5640869140625,778.05859375,786.1171875,795.7875366210938
739,792.5640869140625,784.5054931640625,790.1465454101562,794.981689453125
740,792.967041015625,788.1318969726562,790.5494384765625,792.5640869140625
741,796.5933837890625,791.3552856445312,788.1318969726562,788.1318969726562
742,793.3699340820312,788.937744140625,788.1318969726562,788.937744140625
743,792.1611938476562,782.893798828125,787.3259887695312,792.5640869140625
744,788.937744140625,784.5054931640625,784.5054931640625,787.7289428710938
745,788.937744140625,787.7289428710938,784.5054931640625,786.5201416015625
746,792.5640869140625,789.7435913085938,786.1171875,787.7289428710938
747,792.967041015625,787.3259887695312,784.5054931640625,784.1025390625
748,793.3699340820312,786.1171875,782.087890625,784.908447265625
749,794.981689453125,784.908447265625,784.1025390625,790.952392578125
750,795.3846435546875,788.1318969726562,782.087890625,788.5347900390625
751,794.981689453125,791.7582397460938,784.1025390625,787.7289428710938
752,795.7875366210938,788.1318969726562,789.3406372070312,792.5640869140625
753,799.8168334960938,787.7289428710938,789.3406372070312,788.5347900390625
754,802.6373901367188,792.967041015625,790.5494384765625,790.952392578125
755,796.1904907226562,798.2051391601562,789.7435913085938,790.952392578125
756,786.923095703125,792.1611938476562,784.1025390625,782.4908447265625
757,787.3259887695312,787.7289428710938,782.893798828125,778.8644409179688
758,795.3846435546875,794.981689453125,787.3259887695312,781.6849975585938
759,796.996337890625,794.5787353515625,789.7435913085938,786.1171875
760,791.7582397460938,792.1611938476562,789.7435913085938,782.087890625
761,797.3992919921875,796.5933837890625,792.1611938476562,783.6996459960938
762,799.8168334960938,799.010986328125,796.1904907226562,788.1318969726562
763,793.3699340820312,795.7875366210938,797.8021850585938,785.7142944335938
764,793.3699340820312,796.5933837890625,796.5933837890625,786.5201416015625
765,792.1611938476562,794.981689453125,796.1904907226562,789.7435913085938
766,791.7582397460938,788.937744140625,793.3699340820312,791.3552856445312
767,794.1758422851562,790.1465454101562,790.5494384765625,785.7142944335938
768,788.5347900390625,790.952392578125,790.5494384765625,779.6703491210938
769,786.923095703125,791.3552856445312,790.5494384765625,783.2966918945312
770,789.7435913085938,792.1611938476562,796.5933837890625,788.5347900390625
771,789.7435913085938,792.967041015625,797.3992919921875,785.3113403320312
772,793.7728881835938,796.996337890625,793.3699340820312,788.1318969726562
773,795.7875366210938,797.8021850585938,795.3846435546875,791.7582397460938
774,792.967041015625,794.5787353515625,792.5640869140625,791.3552856445312
775,794.5787353515625,793.7728881835938,788.5347900390625,790.952392578125
776,791.7582397460938,794.1758422851562,790.5494384765625,795.7875366210938
777,788.1318969726562,791.3552856445312,793.3699340820312,792.967041015625
778,794.5787353515625,792.5640869140625,796.5933837890625,798.2051391601562
779,799.4139404296875,794.1758422851562,798.2051391601562,795.3846435546875
780,793.3699340820312,790.1465454101562,798.6080322265625,790.952392578125
781,787.3259887695312,790.1465454101562,796.996337890625,788.937744140625
782,789.7435913085938,796.1904907226562,797.8021850585938,786.5201416015625
783,796.5933837890625,797.3992919921875,801.025634765625,789.3406372070312
784,799.4139404296875,794.5787353515625,801.025634765625,790.1465454101562
785,792.5640869140625,792.1611938476562,797.3992919921875,790.1465454101562
786,791.7582397460938,793.7728881835938,795.3846435546875,791.7582397460938
787,799.4139404296875,792.1611938476562,794.981689453125,790.5494384765625
788,805.054931640625,790.5494384765625,792.1611938476562,788.1318969726562
789,807.069580078125,792.967041015625,793.3699340820312,793.7728881835938
790,803.8461303710938,796.1904907226562,795.7875366210938,791.7582397460938
791,793.3699340820312,793.7728881835938,794.5787353515625,784.908447265625
792,794.981689453125,789.7435913085938,792.5640869140625,786.923095703125
793,799.4139404296875,794.1758422851562,793.7728881835938,790.952392578125
794,800.6226806640625,795.7875366210938,790.5494384765625,792.967041015625
795,800.2197875976562,790.1465454101562,784.908447265625,791.3552856445312
796,789.7435913085938,787.7289428710938,783.2966918945312,788.5347900390625
797,783.6996459960938,782.4908447265625,786.1171875,785.7142944335938
798,787.7289428710938,784.908447265625,789.3406372070312,788.5347900390625
799,786.5201416015625,790.5494384765625,785.7142944335938,788.5347900390625
800,784.1025390625,790.952392578125,789.3406372070312,786.1171875
801,784.908447265625,792.5640869140625,791.3552856445312,786.923095703125
802,782.893798828125,791.3552856445312,794.1758422851562,787.3259887695312
803,784.908447265625,790.1465454101562,795.7875366210938,784.908447265625
804,791.7582397460938,790.1465454101562,796.996337890625,782.893798828125
805,792.1611938476562,793.3699340820312,799.4139404296875,786.923095703125
806,792.1611938476562,794.5787353515625,797.3992919921875,785.3113403320312
807,789.3406372070312,790.5494384765625,795.3846435546875,782.893798828125
808,786.1171875,791.7582397460938,793.7728881835938,788.1318969726562
809,785.7142944335938,787.7289428710938,797.3992919921875,792.5640869140625
810,785.3113403320312,783.2966918945312,799.8168334960938,792.1611938476562
811,785.7142944335938,783.6996459960938,794.981689453125,786.923095703125
812,786.1171875,780.879150390625,791.7582397460938,787.7289428710938
813,788.1318969726562,787.7289428710938,792.5640869140625,788.5347900390625
814,787.3259887695312,786.5201416015625,793.3699340820312,783.2966918945312
815,786.923095703125,786.5201416015625,790.5494384765625,786.1171875
816,787.3259887695312,792.5640869140625,790.952392578125,786.1171875
817,786.5201416015625,788.937744140625,792.1611938476562,778.05859375
818,787.7289428710938,784.1025390625,786.923095703125,777.2527465820312
819,788.937744140625,786.923095703125,785.3113403320312,785.7142944335938
820,793.7728881835938,790.952392578125,790.952392578125,793.3699340820312
821,793.7728881835938,784.1025390625,796.1904907226562,789.7435913085938
822,782.893798828125,782.893798828125,794.1758422851562,788.1318969726562
823,776.0439453125,791.3552856445312,792.1611938476562,787.3259887695312
824,778.4615478515625,790.952392578125,794.1758422851562,785.3113403320312
825,782.4908447265625,790.5494384765625,788.937744140625,782.4908447265625
826,783.6996459960938,787.7289428710938,786.1171875,774.8351440429688
827,786.923095703125,784.1025390625,793.7728881835938,780.879150390625
828,789.7435913085938,787.7289428710938,797.8021850585938,789.7435913085938
829,784.1025390625,785.7142944335938,793.7728881835938,783.6996459960938
830,786.1171875,782.893798828125,794.1758422851562,778.4615478515625
831,798.6080322265625,785.7142944335938,801.4285888671875,785.3113403320312
832,799.010986328125,790.952392578125,801.4285888671875,781.2820434570312
833,793.3699340820312,793.3699340820312,790.952392578125,777.6557006835938
834,794.981689453125,796.5933837890625,793.3699340820312,784.5054931640625
835,795.3846435546875,791.7582397460938,800.6226806640625,786.5201416015625
836,796.5933837890625,786.5201416015625,801.8314819335938,792.1611938476562
837,794.981689453125,793.3699340820312,801.025634765625,787.3259887695312
838,790.1465454101562,794.5787353515625,799.4139404296875,778.4615478515625
839,783.6996459960938,789.7435913085938,795.3846435546875,778.05859375
840,789.7435913085938,787.3259887695312,794.5787353515625,788.1318969726562
841,796.1904907226562,789.3406372070312,797.3992919921875,795.7875366210938
842,791.7582397460938,788.937744140625,796.996337890625,794.981689453125
843,796.1904907226562,792.5640869140625,795.7875366210938,798.6080322265625
844,795.3846435546875,794.1758422851562,793.7728881835938,794.5787353515625
845,800.6226806640625,792.5640869140625,792.967041015625,794.5787353515625
846,810.6959838867188,795.7875366210938,795.3846435546875,798.6080322265625
847,806.2637329101562,799.010986328125,793.7728881835938,790.1465454101562
848,792.5640869140625,797.3992919921875,792.967041015625,781.2820434570312
849,791.3552856445312,795.3846435546875,794.981689453125,782.4908447265625
850,798.2051391601562,792.1611938476562,796.1904907226562,789.3406372070312
851,798.2051391601562,789.7435913085938,796.996337890625,790.952392578125
852,791.3552856445312,792.5640869140625,794.5787353515625,781.6849975585938
853,792.967041015625,797.8021850585938,794.1758422851562,776.0439453125
854,795.7875366210938,791.7582397460938,792.5640869140625,772.4176025390625
855,796.1904907226562,789.7435913085938,788.5347900390625,773.2234497070312
856,794.5787353515625,792.967041015625,787.7289428710938,776.0439453125
857,793.7728881835938,792.1611938476562,788.937744140625,776.0439453125
858,788.1318969726562,787.3259887695312,792.1611938476562,781.2820434570312
859,790.952392578125,790.1465454101562,790.1465454101562,779.2673950195312
860,797.8021850585938,796.1904907226562,790.952392578125,776.4468994140625
861,795.3846435546875,799.4139404296875,791.7582397460938,784.1025390625
862,796.1904907226562,796.5933837890625,788.1318969726562,788.5347900390625
863,789.3406372070312,792.1611938476562,783.2966918945312,784.5054931640625
864,780.0732421875,788.937744140625,781.6849975585938,785.7142944335938
865,784.5054931640625,788.937744140625,787.3259887695312,788.937744140625
866,793.3699340820312,794.5787353515625,788.5347900390625,791.3552856445312
867,792.1611938476562,795.7875366210938,791.3552856445312,790.1465454101562
868,790.952392578125,792.967041015625,793.3699340820312,786.5201416015625
869,794.981689453125,794.981689453125,792.5640869140625,788.937744140625
870,793.3699340820312,795.7875366210938,791.3552856445312,788.5347900390625
871,792.1611938476562,796.1904907226562,786.5201416015625,790.952392578125
872,795.7875366210938,797.8021850585938,790.5494384765625,801.025634765625
873,786.1171875,793.7728881835938,795.7875366210938,800.6226806640625
874,782.893798828125,789.3406372070312,796.1904907226562,801.8314819335938
875,790.952392578125,787.3259887695312,792.1611938476562,794.1758422851562
876,788.937744140625,784.1025390625,788.1318969726562,787.3259887695312
877,787.7289428710938,783.6996459960938,784.5054931640625,785.7142944335938
878,787.7289428710938,786.5201416015625,783.6996459960938,782.4908447265625
879,790.952392578125,788.5347900390625,790.952392578125,782.4908447265625
880,794.981689453125,789.7435913085938,790.1465454101562,783.2966918945312
881,800.2197875976562,788.937744140625,790.952392578125,788.1318969726562
882,802.2344360351562,790.5494384765625,796.1904907226562,790.952392578125
883,796.1904907226562,787.7289428710938,793.3699340820312,792.1611938476562
884,792.5640869140625,788.5347900390625,791.7582397460938,795.7875366210938
885,795.3846435546875,791.7582397460938,790.1465454101562,800.2197875976562
886,794.981689453125,790.952392578125,790.952392578125,799.010986328125
887,792.5640869140625,790.1465454101562,793.7728881835938,792.5640869140625
888,793.3699340820312,789.7435913085938,790.5494384765625,790.1465454101562
889,787.7289428710938,787.3259887695312,791.3552856445312,786.923095703125
890,780.4761962890625,784.1025390625,797.8021850585938,785.7142944335938
891,780.4761962890625,786.1171875,796.996337890625,788.937744140625
892,784.908447265625,787.7289428710938,792.967041015625,791.7582397460938
893,781.6849975585938,784.1025390625,795.3846435546875,786.5201416015625
894,780.879150390625,780.4761962890625,797.8021850585938,786.1171875
895,787.7289428710938,786.1171875,798.6080322265625,786.1171875
896,792.5640869140625,787.7289428710938,799.010986328125,788.5347900390625
897,792.967041015625,791.3552856445312,796.1904907226562,795.7875366210938
898,785.7142944335938,795.7875366210938,796.5933837890625,787.3259887695312
899,781.2820434570312,789.3406372070312,797.8021850585938,787.7289428710938
900,786.923095703125,782.893798828125,791.7582397460938,792.967041015625
901,795.7875366210938,784.5054931640625,792.1611938476562,792.1611938476562
902,796.1904907226562,787.3259887695312,792.5640869140625,789.7435913085938
903,784.1025390625,786.1171875,786.5201416015625,781.6849975585938
904,781.6849975585938,790.1465454101562,784.1025390625,780.4761962890625
905,787.7289428710938,789.7435913085938,790.5494384765625,785.7142944335938
906,787.3259887695312,782.4908447265625,794.1758422851562,784.908447265625
907,785.3113403320312,789.3406372070312,788.5347900390625,783.6996459960938
908,784.1025390625,790.952392578125,784.908447265625,787.3259887695312
909,780.4761962890625,785.3113403320312,779.2673950195312,782.4908447265625
910,781.2820434570312,786.1171875,780.879150390625,784.908447265625
911,795.3846435546875,788.1318969726562,784.5054931640625,794.5787353515625
912,799.010986328125,789.7435913085938,784.1025390625,790.1465454101562
913,788.1318969726562,790.5494384765625,787.7289428710938,781.2820434570312
914,783.2966918945312,787.3259887695312,786.5201416015625,782.893798828125
915,778.8644409179688,783.6996459960938,781.6849975585938,782.087890625
916,778.4615478515625,786.5201416015625,784.908447265625,780.0732421875
917,786.923095703125,791.7582397460938,787.3259887695312,784.1025390625
918,790.952392578125,789.3406372070312,782.087890625,784.1025390625
919,786.5201416015625,787.7289428710938,782.087890625,788.5347900390625
920,789.3406372070312,791.3552856445312,789.3406372070312,799.4139404296875
921,792.967041015625,795.3846435546875,792.967041015625,797.8021850585938
922,794.1758422851562,795.7875366210938,797.8021850585938,796.5933837890625
923,793.7728881835938,799.4139404296875,798.6080322265625,795.3846435546875
924,792.1611938476562,795.7875366210938,798.2051391601562,789.7435913085938
925,789.3406372070312,790.5494384765625,797.8021850585938,786.5201416015625
926,791.7582397460938,794.1758422851562,795.3846435546875,786.1171875
927,798.6080322265625,792.5640869140625,793.7728881835938,787.7289428710938
928,793.3699340820312,789.7435913085938,793.7728881835938,786.5201416015625
929,784.5054931640625,788.937744140625,793.3699340820312,782.4908447265625
930,783.2966918945312,787.7289428710938,790.952392578125,781.6849975585938
931,785.3113403320312,788.5347900390625,793.7728881835938,786.1171875
932,786.1171875,786.5201416015625,797.8021850585938,785.7142944335938
933,787.3259887695312,789.3406372070312,799.010986328125,783.6996459960938
934,787.7289428710938,790.5494384765625,796.1904907226562,785.7142944335938
935,784.908447265625,789.3406372070312,792.1611938476562,783.2966918945312
936,782.893798828125,789.3406372070312,793.7728881835938,790.1465454101562
937,792.1611938476562,788.5347900390625,794.5787353515625,794.981689453125
938,794.981689453125,788.937744140625,791.3552856445312,789.3406372070312
939,789.7435913085938,787.3259887695312,791.7582397460938,791.3552856445312
940,788.1318969726562,788.1318969726562,796.1904907226562,791.3552856445312
941,793.7728881835938,787.7289428710938,797.3992919921875,786.5201416015625
942,796.996337890625,786.1171875,792.1611938476562,789.7435913085938
943,790.952392578125,789.3406372070312,786.923095703125,788.5347900390625
944,786.1171875,788.937744140625,787.7289428710938,784.1025390625
945,785.3113403320312,786.923095703125,789.3406372070312,781.6849975585938
946,792.5640869140625,784.5054931640625,788.1318969726562,784.908447265625
947,792.1611938476562,784.5054931640625,789.3406372070312,785.3113403320312
948,791.3552856445312,788.937744140625,789.3406372070312,784.1025390625
949,789.3406372070312,786.1171875,787.3259887695312,783.6996459960938
950,780.0732421875,788.5347900390625,788.5347900390625,782.893798828125
951,782.4908447265625,790.5494384765625,795.7875366210938,791.7582397460938
952,787.7289428710938,789.7435913085938,798.6080322265625,793.3699340820312
953,788.937744140625,792.967041015625,798.2051391601562,790.952392578125
954,787.7289428710938,792.967041015625,797.8021850585938,792.967041015625
955,788.5347900390625,790.5494384765625,793.3699340820312,793.7728881835938
956,791.3552856445312,794.1758422851562,794.1758422851562,794.5787353515625
957,796.5933837890625,798.2051391601562,798.2051391601562,795.3846435546875
958,801.4285888671875,796.1904907226562,797.3992919921875,796.5933837890625
959,799.8168334960938,795.3846435546875,794.981689453125,793.7728881835938
960,799.010986328125,790.952392578125,792.967041015625,787.7289428710938
961,803.4432373046875,787.7289428710938,792.5640869140625,784.5054931640625
962,807.87548828125,790.5494384765625,791.7582397460938,787.3259887695312
963,808.2783813476562,790.952392578125,788.5347900390625,792.1611938476562
964,803.8461303710938,788.937744140625,788.937744140625,791.7582397460938
965,797.8021850585938,788.1318969726562,791.7582397460938,786.923095703125
966,798.2051391601562,787.7289428710938,789.7435913085938,784.1025390625
967,799.8168334960938,787.3259887695312,785.7142944335938,786.1171875
968,800.2197875976562,789.3406372070312,783.6996459960938,786.923095703125
969,798.2051391601562,794.1758422851562,785.7142944335938,790.952392578125
970,791.3552856445312,796.5933837890625,786.5201416015625,784.908447265625
971,793.3699340820312,792.1611938476562,782.087890625,775.6410522460938
972,799.4139404296875,792.5640869140625,784.1025390625,777.2527465820312
973,800.6226806640625,795.3846435546875,788.937744140625,783.2966918945312
974,796.996337890625,794.981689453125,786.5201416015625,786.923095703125
975,794.5787353515625,796.5933837890625,786.923095703125,788.1318969726562
976,795.7875366210938,796.1904907226562,787.3259887695312,786.5201416015625
977,793.7728881835938,792.967041015625,788.1318969726562,786.5201416015625
978,794.5787353515625,790.1465454101562,786.923095703125,790.5494384765625
979,796.1904907226562,786.5201416015625,788.5347900390625,792.967041015625
980,794.981689453125,786.1171875,792.1611938476562,787.3259887695312
981,787.3259887695312,788.937744140625,788.5347900390625,791.7582397460938
982,785.7142944335938,788.937744140625,786.923095703125,792.967041015625
983,784.908447265625,786.923095703125,786.1171875,781.6849975585938
984,784.1025390625,786.5201416015625,786.923095703125,782.4908447265625
985,789.7435913085938,790.5494384765625,790.1465454101562,788.5347900390625
986,792.967041015625,796.996337890625,788.5347900390625,786.923095703125
987,795.3846435546875,795.7875366210938,787.7289428710938,786.5201416015625
988,792.1611938476562,790.1465454101562,786.923095703125,782.893798828125
989,789.3406372070312,788.1318969726562,791.7582397460938,781.6849975585938
990,794.1758422851562,789.3406372070312,797.3992919921875,789.3406372070312
991,792.967041015625,793.3699340820312,798.2051391601562,792.1611938476562
992,783.2966918945312,790.5494384765625,792.1611938476562,782.087890625
993,788.1318969726562,788.5347900390625,790.1465454101562,785.7142944335938
994,797.8021850585938,796.5933837890625,795.7875366210938,788.937744140625
995,789.7435913085938,792.967041015625,795.3846435546875,784.5054931640625
996,789.7435913085938,792.5640869140625,793.7728881835938,788.1318969726562
997,791.7582397460938,796.996337890625,798.2051391601562,785.7142944335938
998,792.967041015625,794.981689453125,800.6226806640625,783.2966918945312
999,796.1904907226562,792.5640869140625,798.6080322265625,788.1318969726562
1000,798.6080322265625,788.5347900390625,798.6080322265625,793.7728881835938
1001,795.3846435546875,787.7289428710938,796.996337890625,792.967041015625
1002,796.1904907226562,784.908447265625,794.981689453125,796.1904907226562
1003,797.8021850585938,781.6849975585938,788.937744140625,793.3699340820312
1004,796.996337890625,791.3552856445312,785.3113403320312,792.5640869140625
1005,792.5640869140625,796.1904907226562,790.1465454101562,792.967041015625
1006,787.7289428710938,792.967041015625,786.5201416015625,788.1318969726562
1007,795.3846435546875,797.3992919921875,782.4908447265625,787.7289428710938
1008,798.2051391601562,795.7875366210938,786.923095703125,784.5054931640625
1009,791.7582397460938,791.3552856445312,790.952392578125,785.7142944335938
1010,793.7728881835938,796.1904907226562,792.967041015625,788.1318969726562
1011,799.4139404296875,799.4139404296875,798.6080322265625,789.3406372070312
1012,793.3699340820312,798.6080322265625,797.3992919921875,790.1465454101562
1013,791.7582397460938,798.6080322265625,794.981689453125,797.8021850585938
1014,796.996337890625,793.7728881835938,799.4139404296875,796.996337890625
1015,792.967041015625,792.5640869140625,796.1904907226562,793.7728881835938
1016,788.937744140625,797.8021850585938,794.5787353515625,801.025634765625
1017,791.3552856445312,802.6373901367188,792.967041015625,797.8021850585938
1018,797.3992919921875,799.010986328125,792.5640869140625,797.3992919921875
1019,801.8314819335938,794.1758422851562,792.967041015625,801.8314819335938
1020,803.4432373046875,794.5787353515625,792.967041015625,801.8314819335938
1021,796.5933837890625,798.6080322265625,792.1611938476562,793.7728881835938
1022,794.5787353515625,796.5933837890625,794.5787353515625,794.1758422851562
1023,802.2344360351562,794.1758422851562,799.010986328125,800.2197875976562
1024,805.4578857421875,795.3846435546875,798.6080322265625,796.5933837890625
1025,804.6520385742188,794.5787353515625,796.996337890625,794.1758422851562
1026,803.8461303710938,788.937744140625,796.1904907226562,793.3699340820312
1027,804.2490844726562,786.1171875,797.8021850585938,799.010986328125
1028,806.2637329101562,793.3699340820312,798.6080322265625,799.8168334960938
1029,805.054931640625,794.1758422851562,796.5933837890625,791.3552856445312
1030,795.3846435546875,789.3406372070312,795.3846435546875,786.923095703125
1031,790.952392578125,785.3113403320312,794.5787353515625,788.1318969726562
1032,790.5494384765625,784.1025390625,795.3846435546875,788.1318969726562
1033,785.7142944335938,783.6996459960938,794.5787353515625,784.5054931640625
1034,788.1318969726562,782.4908447265625,794.1758422851562,784.908447265625
1035,788.937744140625,780.4761962890625,793.7728881835938,788.1318969726562
1036,785.3113403320312,780.0732421875,794.1758422851562,784.5054931640625
1037,784.908447265625,785.7142944335938,796.5933837890625,783.6996459960938
1038,785.7142944335938,785.3113403320312,797.8021850585938,790.952392578125
1039,788.937744140625,786.1171875,797.8021850585938,797.3992919921875
1040,792.1611938476562,787.7289428710938,797.3992919921875,797.3992919921875
1041,796.996337890625,788.5347900390625,797.3992919921875,795.3846435546875
1042,794.5787353515625,788.5347900390625,796.1904907226562,798.2051391601562
1043,792.5640869140625,787.7289428710938,796.5933837890625,799.4139404296875
1044,791.7582397460938,789.3406372070312,796.1904907226562,797.3992919921875
1045,788.1318969726562,791.3552856445312,799.4139404296875,800.2197875976562
1046,792.967041015625,791.3552856445312,802.2344360351562,801.025634765625
1047,796.1904907226562,788.937744140625,800.2197875976562,792.967041015625
1048,794.981689453125,791.7582397460938,797.3992919921875,788.1318969726562
1049,792.967041015625,794.5787353515625,798.2051391601562,786.1171875
1050,792.5640869140625,790.952392578125,796.1904907226562,786.5201416015625
1051,793.3699340820312,786.5201416015625,788.5347900390625,785.7142944335938
1052,793.7728881835938,790.5494384765625,788.937744140625,786.5201416015625
1053,798.2051391601562,795.3846435546875,790.1465454101562,790.1465454101562
1054,799.010986328125,790.5494384765625,786.1171875,797.8021850585938
1055,796.1904907226562,790.5494384765625,784.5054931640625,797.3992919921875
1056,799.8168334960938,792.5640869140625,788.937744140625,787.7289428710938
1057,799.010986328125,793.3699340820312,791.7582397460938,786.1171875
1058,799.8168334960938,794.5787353515625,795.3846435546875,784.1025390625
1059,811.098876953125,798.6080322265625,794.5787353515625,786.5201416015625
1060,804.2490844726562,794.981689453125,788.5347900390625,785.7142944335938
1061,795.3846435546875,787.3259887695312,790.1465454101562,787.3259887695312
1062,792.967041015625,791.3552856445312,796.996337890625,788.937744140625
1063,789.7435913085938,796.5933837890625,797.8021850585938,790.5494384765625
1064,795.7875366210938,795.3846435546875,797.3992919921875,792.1611938476562
1065,799.8168334960938,795.3846435546875,795.7875366210938,797.3992919921875
1066,798.6080322265625,796.1904907226562,798.2051391601562,800.2197875976562
1067,791.7582397460938,800.6226806640625,799.8168334960938,789.3406372070312
1068,790.952392578125,794.1758422851562,798.2051391601562,785.3113403320312
1069,794.5787353515625,789.7435913085938,795.7875366210938,784.5054931640625
1070,791.7582397460938,794.5787353515625,795.3846435546875,787.3259887695312
1071,798.2051391601562,794.1758422851562,795.3846435546875,785.7142944335938
1072,798.6080322265625,793.7728881835938,791.7582397460938,782.893798828125
1073,795.3846435546875,792.5640869140625,792.1611938476562,788.5347900390625
1074,798.6080322265625,794.5787353515625,793.3699340820312,790.5494384765625
1075,799.010986328125,795.3846435546875,795.3846435546875,788.5347900390625
1076,798.6080322265625,796.996337890625,796.996337890625,790.1465454101562
1077,799.4139404296875,801.025634765625,796.996337890625,795.7875366210938
1078,797.3992919921875,801.025634765625,798.2051391601562,796.1904907226562
1079,793.3699340820312,795.3846435546875,796.5933837890625,789.7435913085938
1080,793.3699340820312,789.7435913085938,795.3846435546875,795.3846435546875
1081,793.3699340820312,793.7728881835938,794.1758422851562,799.8168334960938
1082,791.7582397460938,792.5640869140625,796.1904907226562,791.3552856445312
1083,786.1171875,792.5640869140625,799.4139404296875,785.3113403320312
1084,785.3113403320312,795.3846435546875,797.8021850585938,787.3259887695312
1085,790.952392578125,796.996337890625,796.1904907226562,794.1758422851562
1086,796.1904907226562,796.996337890625,793.7728881835938,794.981689453125
1087,796.996337890625,798.6080322265625,790.5494384765625,789.3406372070312
1088,792.967041015625,802.2344360351562,791.7582397460938,789.3406372070312
1089,798.2051391601562,804.2490844726562,792.1611938476562,793.3699340820312
1090,800.2197875976562,795.7875366210938,789.3406372070312,787.7289428710938
1091,797.8021850585938,790.5494384765625,788.937744140625,786.5201416015625
1092,801.025634765625,799.4139404296875,790.5494384765625,791.3552856445312
1093,798.6080322265625,801.025634765625,792.1611938476562,791.3552856445312
1094,792.967041015625,792.1611938476562,786.5201416015625,781.2820434570312
1095,793.7728881835938,789.7435913085938,782.893798828125,777.2527465820312
1096,796.1904907226562,796.996337890625,786.1171875,779.6703491210938
1097,792.5640869140625,799.4139404296875,788.1318969726562,784.908447265625
1098,788.937744140625,794.981689453125,786.923095703125,786.923095703125
1099,787.3259887695312,792.5640869140625,786.1171875,782.087890625
1100,786.5201416015625,788.937744140625,786.5201416015625,785.3113403320312
1101,783.6996459960938,790.1465454101562,786.923095703125,787.3259887695312
1102,784.1025390625,789.3406372070312,786.5201416015625,782.4908447265625
1103,787.7289428710938,792.1611938476562,790.5494384765625,780.879150390625
1104,784.908447265625,794.5787353515625,792.5640869140625,780.4761962890625
1105,783.2966918945312,790.952392578125,793.7728881835938,780.4761962890625
1106,791.3552856445312,794.1758422851562,799.4139404296875,785.7142944335938
1107,803.040283203125,799.010986328125,802.6373901367188,796.5933837890625
1108,796.1904907226562,799.8168334960938,801.025634765625,794.1758422851562
1109,786.923095703125,795.3846435546875,799.010986328125,777.6557006835938
1110,793.7728881835938,789.7435913085938,798.2051391601562,779.2673950195312
1111,795.3846435546875,789.3406372070312,791.7582397460938,783.2966918945312
1112,801.025634765625,790.1465454101562,786.5201416015625,796.1904907226562
1113,799.010986328125,794.1758422851562,789.7435913085938,795.7875366210938
1114,790.5494384765625,796.5933837890625,788.1318969726562,776.4468994140625
1115,789.3406372070312,786.923095703125,785.3113403320312,774.029296875
1116,791.3552856445312,782.893798828125,785.7142944335938,780.0732421875
1117,793.7728881835938,787.3259887695312,781.6849975585938,781.2820434570312
1118,795.7875366210938,783.6996459960938,782.087890625,776.4468994140625
1119,791.7582397460938,786.1171875,785.7142944335938,778.4615478515625
1120,781.6849975585938,792.967041015625,783.6996459960938,781.6849975585938
1121,783.2966918945312,794.1758422851562,785.3113403320312,783.2966918945312
1122,784.908447265625,791.3552856445312,786.5201416015625,782.893798828125
1123,780.879150390625,790.952392578125,784.5054931640625,786.1171875
1124,778.4615478515625,792.967041015625,784.908447265625,785.7142944335938
1125,785.7142944335938,791.7582397460938,785.7142944335938,784.908447265625
1126,794.5787353515625,794.981689453125,786.5201416015625,799.4139404296875
1127,793.3699340820312,795.7875366210938,787.7289428710938,803.8461303710938
1128,788.937744140625,787.3259887695312,789.7435913085938,789.3406372070312
1129,792.5640869140625,788.1318969726562,791.3552856445312,782.087890625
1130,796.1904907226562,790.1465454101562,790.5494384765625,787.3259887695312
1131,794.5787353515625,789.7435913085938,793.3699340820312,788.1318969726562
1132,794.5787353515625,792.5640869140625,796.1904907226562,788.937744140625
1133,796.5933837890625,793.3699340820312,792.5640869140625,786.1171875
1134,791.3552856445312,797.8021850585938,788.937744140625,784.1025390625
1135,783.2966918945312,796.5933837890625,785.7142944335938,785.7142944335938
1136,782.087890625,792.967041015625,785.7142944335938,782.4908447265625
1137,790.952392578125,791.7582397460938,788.5347900390625,786.1171875
1138,794.981689453125,791.3552856445312,790.1465454101562,788.5347900390625
1139,792.5640869140625,793.3699340820312,789.7435913085938,781.2820434570312
1140,798.6080322265625,793.3699340820312,788.937744140625,782.087890625
1141,799.4139404296875,788.5347900390625,794.1758422851562,789.7435913085938
1142,797.8021850585938,782.893798828125,797.3992919921875,794.5787353515625
1143,793.7728881835938,782.893798828125,796.996337890625,791.7582397460938
1144,794.1758422851562,784.5054931640625,796.5933837890625,792.967041015625
1145,794.981689453125,786.5201416015625,791.3552856445312,793.3699340820312
1146,795.7875366210938,783.2966918945312,782.4908447265625,791.7582397460938
1147,796.5933837890625,783.2966918945312,781.6849975585938,790.1465454101562
1148,799.010986328125,789.7435913085938,790.1465454101562,792.967041015625
1149,795.3846435546875,788.5347900390625,790.1465454101562,795.3846435546875
1150,793.3699340820312,789.3406372070312,786.1171875,794.5787353515625
1151,794.981689453125,792.967041015625,790.5494384765625,793.7728881835938
1152,792.967041015625,790.5494384765625,790.1465454101562,788.1318969726562
1153,792.5640869140625,791.3552856445312,786.5201416015625,790.5494384765625
1154,793.3699340820312,796.1904907226562,793.7728881835938,796.996337890625
1155,794.5787353515625,798.2051391601562,800.6226806640625,791.3552856445312
1156,796.5933837890625,794.981689453125,798.6080322265625,793.3699340820312
1157,798.6080322265625,792.5640869140625,794.981689453125,796.1904907226562
1158,800.2197875976562,788.937744140625,792.1611938476562,788.937744140625
1159,799.010986328125,783.6996459960938,794.1758422851562,786.1171875
1160,796.5933837890625,790.952392578125,796.5933837890625,791.7582397460938
1161,792.1611938476562,796.1904907226562,795.3846435546875,796.996337890625
1162,789.3406372070312,797.8021850585938,798.6080322265625,804.6520385742188
1163,792.967041015625,800.6226806640625,799.8168334960938,799.8168334960938
1164,794.1758422851562,801.4285888671875,798.6080322265625,794.981689453125
1165,792.5640869140625,798.2051391601562,794.1758422851562,797.8021850585938
1166,788.1318969726562,789.3406372070312,792.967041015625,794.981689453125
1167,786.5201416015625,787.3259887695312,794.1758422851562,787.7289428710938
1168,794.1758422851562,787.7289428710938,790.5494384765625,785.3113403320312
1169,788.937744140625,787.3259887695312,790.5494384765625,786.923095703125
1170,780.879150390625,783.6996459960938,787.7289428710938,784.5054931640625
1171,784.5054931640625,782.087890625,783.6996459960938,779.6703491210938
1172,786.923095703125,786.923095703125,783.6996459960938,776.8497924804688
1173,789.3406372070312,785.7142944335938,787.7289428710938,786.923095703125
1174,783.6996459960938,786.923095703125,788.1318969726562,783.6996459960938
1175,776.8497924804688,790.5494384765625,787.3259887695312,773.6264038085938
1176,783.6996459960938,788.1318969726562,790.5494384765625,778.8644409179688
1177,787.7289428710938,786.923095703125,792.1611938476562,779.6703491210938
1178,786.5201416015625,788.937744140625,797.3992919921875,779.2673950195312
1179,790.952392578125,790.1465454101562,801.4285888671875,786.1171875
1180,788.1318969726562,789.3406372070312,796.1904907226562,785.3113403320312
1181,785.3113403320312,786.1171875,796.5933837890625,786.923095703125
1182,792.5640869140625,785.3113403320312,796.5933837890625,787.7289428710938
1183,796.1904907226562,788.1318969726562,796.996337890625,787.7289428710938
1184,796.5933837890625,786.5201416015625,797.3992919921875,793.7728881835938
1185,792.1611938476562,786.923095703125,796.5933837890625,799.4139404296875
1186,796.1904907226562,793.3699340820312,803.4432373046875,793.3699340820312
1187,800.2197875976562,795.7875366210938,798.2051391601562,786.1171875
1188,799.4139404296875,789.3406372070312,790.1465454101562,783.2966918945312
1189,802.2344360351562,787.3259887695312,792.967041015625,783.2966918945312
1190,792.5640869140625,793.3699340820312,794.5787353515625,784.908447265625
1191,786.5201416015625,795.7875366210938,794.1758422851562,784.908447265625
1192,786.1171875,791.7582397460938,794.5787353515625,785.7142944335938
1193,782.893798828125,788.1318969726562,788.1318969726562,778.8644409179688
1194,781.2820434570312,787.7289428710938,781.2820434570312,774.8351440429688
1195,776.4468994140625,788.5347900390625,782.893798828125,779.6703491210938
1196,776.0439453125,790.1465454101562,787.3259887695312,786.1171875
1197,780.4761962890625,788.1318969726562,789.7435913085938,787.3259887695312
1198,781.6849975585938,790.952392578125,796.5933837890625,784.1025390625
1199,788.1318969726562,791.3552856445312,802.2344360351562,782.087890625
1200,790.5494384765625,788.937744140625,798.2051391601562,777.6557006835938
1201,788.5347900390625,793.7728881835938,798.2051391601562,779.6703491210938
1202,794.1758422851562,798.6080322265625,802.2344360351562,790.952392578125
1203,798.2051391601562,797.3992919921875,806.6666870117188,790.1465454101562
1204,795.3846435546875,794.981689453125,803.4432373046875,783.2966918945312
1205,790.5494384765625,795.7875366210938,796.1904907226562,781.2820434570312
1206,787.3259887695312,790.5494384765625,798.6080322265625,778.4615478515625
1207,788.1318969726562,785.7142944335938,801.4285888671875,787.3259887695312
1208,792.967041015625,789.7435913085938,800.6226806640625,801.025634765625
1209,792.1611938476562,796.1904907226562,799.4139404296875,792.5640869140625
1210,792.967041015625,796.996337890625,801.8314819335938,786.923095703125
1211,794.981689453125,793.3699340820312,802.2344360351562,788.5347900390625
1212,794.1758422851562,792.967041015625,800.2197875976562,787.7289428710938
1213,800.2197875976562,792.967041015625,801.025634765625,789.3406372070312
1214,801.025634765625,796.5933837890625,799.4139404296875,794.1758422851562
1215,794.981689453125,795.3846435546875,796.1904907226562,796.5933837890625
1216,790.5494384765625,792.5640869140625,795.7875366210938,790.952392578125
1217,796.1904907226562,796.1904907226562,795.3846435546875,790.952392578125
1218,797.3992919921875,799.4139404296875,796.1904907226562,792.5640869140625
1219,792.1611938476562,800.2197875976562,795.3846435546875,796.1904907226562
1220,788.5347900390625,796.996337890625,792.967041015625,790.952392578125
1221,794.1758422851562,795.7875366210938,795.3846435546875,787.3259887695312
1222,793.7728881835938,796.996337890625,794.1758422851562,791.7582397460938
1223,794.981689453125,797.3992919921875,793.7728881835938,793.3699340820312
1224,797.3992919921875,796.1904907226562,793.3699340820312,793.7728881835938
1225,796.1904907226562,797.8021850585938,787.7289428710938,790.952392578125
1226,796.1904907226562,796.5933837890625,789.3406372070312,791.3552856445312
1227,796.1904907226562,797.3992919921875,790.1465454101562,793.3699340820312
1228,799.4139404296875,794.5787353515625,786.923095703125,796.1904907226562
1229,798.6080322265625,792.5640869140625,789.3406372070312,796.5933837890625
1230,797.3992919921875,795.7875366210938,794.1758422851562,794.5787353515625
1231,794.981689453125,797.3992919921875,792.967041015625,794.981689453125
1232,794.1758422851562,794.981689453125,790.5494384765625,792.967041015625
1233,794.1758422851562,793.7728881835938,792.967041015625,790.952392578125
1234,795.7875366210938,797.3992919921875,794.981689453125,793.3699340820312
1235,790.5494384765625,799.010986328125,794.981689453125,791.7582397460938
1236,788.1318969726562,796.5933837890625,795.7875366210938,782.893798828125
1237,789.7435913085938,795.3846435546875,792.1611938476562,780.0732421875
1238,790.952392578125,794.5787353515625,791.3552856445312,784.908447265625
1239,796.5933837890625,792.5640869140625,788.5347900390625,786.5201416015625
1240,795.7875366210938,790.952392578125,783.2966918945312,778.8644409179688
1241,786.5201416015625,787.3259887695312,782.4908447265625,773.6264038085938
1242,781.2820434570312,786.1171875,782.893798828125,774.8351440429688
1243,784.5054931640625,790.5494384765625,787.3259887695312,781.6849975585938
1244,785.7142944335938,794.5787353515625,790.5494384765625,780.879150390625
1245,786.5201416015625,797.8021850585938,790.5494384765625,783.6996459960938
1246,790.5494384765625,797.8021850585938,792.1611938476562,788.5347900390625
1247,786.1171875,793.7728881835938,794.981689453125,783.2966918945312
1248,783.2966918945312,799.4139404296875,789.3406372070312,782.4908447265625
1249,787.3259887695312,801.4285888671875,785.7142944335938,788.5347900390625
1250,787.3259887695312,794.981689453125,785.3113403320312,785.7142944335938
1251,782.893798828125,794.981689453125,785.3113403320312,780.879150390625
1252,788.1318969726562,795.3846435546875,789.3406372070312,788.937744140625
1253,790.5494384765625,798.2051391601562,789.7435913085938,789.3406372070312
1254,785.7142944335938,798.6080322265625,789.3406372070312,786.1171875
1255,791.7582397460938,797.3992919921875,790.1465454101562,793.3699340820312
1256,791.3552856445312,796.5933837890625,789.3406372070312,796.996337890625
1257,789.3406372070312,797.3992919921875,789.3406372070312,788.1318969726562
1258,794.1758422851562,794.5787353515625,792.5640869140625,789.3406372070312
1259,793.3699340820312,794.1758422851562,790.1465454101562,781.2820434570312
1260,787.3259887695312,792.1611938476562,786.5201416015625,776.8497924804688
1261,788.1318969726562,789.3406372070312,785.3113403320312,780.879150390625
1262,789.7435913085938,788.937744140625,788.1318969726562,776.0439453125
1263,787.3259887695312,790.952392578125,790.1465454101562,780.0732421875
1264,794.1758422851562,794.981689453125,788.937744140625,789.7435913085938
1265,799.010986328125,792.1611938476562,791.3552856445312,790.5494384765625
1266,794.5787353515625,791.3552856445312,793.7728881835938,794.5787353515625
1267,782.087890625,794.1758422851562,793.7728881835938,792.5640869140625
1268,779.2673950195312,792.5640869140625,798.6080322265625,786.923095703125
1269,785.3113403320312,788.937744140625,796.1904907226562,791.7582397460938
1270,789.7435913085938,790.1465454101562,794.981689453125,793.3699340820312
1271,793.7728881835938,795.3846435546875,797.3992919921875,788.5347900390625
1272,787.3259887695312,794.981689453125,791.7582397460938,784.908447265625
1273,784.908447265625,790.5494384765625,796.5933837890625,784.1025390625
1274,790.1465454101562,787.7289428710938,793.7728881835938,790.1465454101562
1275,789.7435913085938,792.967041015625,790.952392578125,792.1611938476562
1276,793.3699340820312,793.7728881835938,795.3846435546875,790.952392578125
1277,795.7875366210938,791.7582397460938,793.3699340820312,788.5347900390625
1278,788.1318969726562,792.967041015625,794.981689453125,784.5054931640625
1279,787.3259887695312,795.3846435546875,795.3846435546875,785.7142944335938
1280,792.1611938476562,794.5787353515625,791.3552856445312,789.7435913085938
1281,799.4139404296875,794.1758422851562,789.7435913085938,797.8021850585938
1282,797.8021850585938,797.8021850585938,789.3406372070312,799.010986328125
1283,795.7875366210938,796.996337890625,790.1465454101562,794.5787353515625
1284,797.8021850585938,796.5933837890625,792.1611938476562,796.1904907226562
1285,799.4139404296875,801.8314819335938,794.1758422851562,792.5640869140625
1286,793.3699340820312,799.8168334960938,790.952392578125,784.5054931640625
1287,786.923095703125,793.3699340820312,792.5640869140625,780.879150390625
1288,788.937744140625,793.7728881835938,797.3992919921875,782.893798828125
1289,789.3406372070312,794.5787353515625,796.1904907226562,787.3259887695312
1290,787.7289428710938,786.1171875,793.3699340820312,787.3259887695312
1291,788.1318969726562,788.1318969726562,790.952392578125,788.1318969726562
1292,782.087890625,794.1758422851562,790.952392578125,788.1318969726562
1293,780.4761962890625,794.1758422851562,791.3552856445312,791.3552856445312
1294,786.5201416015625,800.2197875976562,788.5347900390625,792.1611938476562
1295,788.937744140625,798.2051391601562,788.937744140625,794.1758422851562
1296,785.7142944335938,794.1758422851562,791.3552856445312,792.5640869140625
1297,790.1465454101562,795.7875366210938,792.967041015625,788.5347900390625
1298,790.5494384765625,798.2051391601562,793.7728881835938,790.952392578125
1299,792.5640869140625,797.8021850585938,791.3552856445312,793.3699340820312
1300,799.4139404296875,798.2051391601562,796.5933837890625,794.1758422851562
1301,796.996337890625,796.5933837890625,799.010986328125,790.1465454101562
1302,792.1611938476562,789.3406372070312,792.5640869140625,785.3113403320312
1303,789.3406372070312,790.952392578125,785.3113403320312,784.1025390625
1304,790.5494384765625,796.5933837890625,784.908447265625,792.1611938476562
1305,793.7728881835938,794.5787353515625,788.1318969726562,791.3552856445312
1306,797.8021850585938,794.981689453125,788.1318969726562,790.952392578125
1307,791.7582397460938,796.1904907226562,791.7582397460938,791.3552856445312
1308,788.937744140625,796.996337890625,794.1758422851562,784.1025390625
1309,793.3699340820312,797.8021850585938,791.3552856445312,779.6703491210938
1310,792.967041015625,796.996337890625,786.1171875,773.2234497070312
1311,787.7289428710938,794.5787353515625,782.893798828125,774.029296875
1312,786.1171875,790.952392578125,785.3113403320312,775.6410522460938
1313,788.1318969726562,792.967041015625,787.7289428710938,776.4468994140625
1314,793.7728881835938,798.6080322265625,790.5494384765625,784.908447265625
1315,789.7435913085938,794.1758422851562,786.5201416015625,790.952392578125
1316,782.893798828125,787.7289428710938,785.3113403320312,791.3552856445312
1317,787.7289428710938,790.5494384765625,788.1318969726562,788.5347900390625
1318,789.3406372070312,794.5787353515625,784.1025390625,786.923095703125
1319,791.3552856445312,795.3846435546875,786.923095703125,788.1318969726562
1320,790.952392578125,796.5933837890625,790.952392578125,787.7289428710938
1321,790.5494384765625,796.5933837890625,790.1465454101562,789.3406372070312
1322,796.1904907226562,796.1904907226562,793.7728881835938,789.3406372070312
1323,794.5787353515625,797.8021850585938,794.981689453125,790.952392578125
1324,787.7289428710938,794.5787353515625,792.5640869140625,787.7289428710938
1325,794.981689453125,790.1465454101562,790.1465454101562,787.7289428710938
1326,797.8021850585938,788.937744140625,792.1611938476562,791.7582397460938
1327,791.3552856445312,794.1758422851562,794.1758422851562,792.1611938476562
1328,788.937744140625,796.5933837890625,792.967041015625,790.1465454101562
1329,795.3846435546875,796.1904907226562,792.967041015625,791.3552856445312
1330,802.2344360351562,799.8168334960938,794.1758422851562,795.3846435546875
1331,803.4432373046875,802.6373901367188,794.5787353515625,792.967041015625
1332,809.89013671875,807.069580078125,797.3992919921875,792.967041015625
1333,805.4578857421875,808.2783813476562,794.5787353515625,792.1611938476562
1334,796.1904907226562,800.2197875976562,788.937744140625,794.5787353515625
1335,792.967041015625,795.3846435546875,789.3406372070312,803.4432373046875
1336,790.952392578125,794.981689453125,790.5494384765625,797.8021850585938
1337,792.967041015625,797.3992919921875,794.1758422851562,798.6080322265625
1338,789.7435913085938,795.7875366210938,795.7875366210938,800.6226806640625
1339,789.7435913085938,792.1611938476562,794.5787353515625,798.2051391601562
1340,793.7728881835938,792.967041015625,794.981689453125,799.4139404296875
1341,798.6080322265625,792.967041015625,794.5787353515625,801.8314819335938
1342,803.4432373046875,797.3992919921875,791.7582397460938,807.4725341796875
1343,799.8168334960938,799.010986328125,789.3406372070312,802.2344360351562
1344,792.967041015625,798.6080322265625,788.5347900390625,796.5933837890625
1345,795.3846435546875,797.3992919921875,792.1611938476562,798.6080322265625
1346,800.2197875976562,801.025634765625,796.5933837890625,797.8021850585938
1347,799.010986328125,805.4578857421875,795.3846435546875,794.981689453125
1348,793.7728881835938,804.2490844726562,794.1758422851562,789.3406372070312
1349,790.5494384765625,803.8461303710938,795.3846435546875,790.1465454101562
1350,792.5640869140625,803.8461303710938,796.996337890625,790.952392578125
1351,796.1904907226562,800.2197875976562,794.1758422851562,787.7289428710938
1352,794.1758422851562,799.010986328125,791.7582397460938,787.3259887695312
1353,789.3406372070312,798.2051391601562,794.5787353515625,780.879150390625
1354,785.3113403320312,790.1465454101562,796.1904907226562,784.5054931640625
1355,785.7142944335938,791.7582397460938,798.2051391601562,786.923095703125
1356,783.2966918945312,795.7875366210938,794.5787353515625,778.4615478515625
1357,786.923095703125,797.3992919921875,794.1758422851562,780.0732421875
1358,793.7728881835938,799.010986328125,800.2197875976562,781.6849975585938
1359,794.1758422851562,794.981689453125,798.2051391601562,776.4468994140625
1360,790.5494384765625,794.981689453125,792.1611938476562,775.2380981445312
1361,793.3699340820312,800.6226806640625,794.5787353515625,777.2527465820312
1362,796.1904907226562,798.2051391601562,798.2051391601562,782.087890625
1363,789.3406372070312,792.5640869140625,797.3992919921875,778.8644409179688
1364,785.7142944335938,786.5201416015625,795.7875366210938,774.4322509765625
1365,787.3259887695312,781.2820434570312,787.7289428710938,782.087890625
1366,790.1465454101562,785.7142944335938,790.5494384765625,786.5201416015625
1367,794.981689453125,791.3552856445312,798.6080322265625,790.952392578125
1368,790.5494384765625,789.3406372070312,798.2051391601562,788.5347900390625
1369,786.1171875,788.937744140625,796.5933837890625,784.908447265625
1370,786.5201416015625,791.3552856445312,795.3846435546875,786.5201416015625
1371,786.5201416015625,789.3406372070312,794.1758422851562,786.5201416015625
1372,783.2966918945312,788.1318969726562,792.5640869140625,784.908447265625
1373,782.893798828125,793.7728881835938,790.1465454101562,783.2966918945312
1374,786.1171875,794.5787353515625,789.3406372070312,783.6996459960938
1375,783.2966918945312,794.1758422851562,788.937744140625,783.2966918945312
1376,782.4908447265625,791.3552856445312,786.5201416015625,779.2673950195312
1377,782.893798828125,785.3113403320312,787.7289428710938,784.1025390625
1378,780.0732421875,789.3406372070312,788.5347900390625,778.05859375
1379,782.893798828125,798.2051391601562,790.1465454101562,774.4322509765625
1380,785.7142944335938,798.2051391601562,794.1758422851562,782.087890625
1381,786.923095703125,801.8314819335938,794.1758422851562,780.0732421875
1382,793.3699340820312,801.8314819335938,789.7435913085938,777.2527465820312
1383,796.996337890625,796.5933837890625,790.1465454101562,783.6996459960938
1384,791.7582397460938,792.967041015625,792.1611938476562,785.3113403320312
1385,786.1171875,797.3992919921875,791.7582397460938,778.8644409179688
1386,784.908447265625,795.3846435546875,793.7728881835938,774.029296875
1387,796.5933837890625,792.1611938476562,795.3846435546875,780.4761962890625
1388,800.6226806640625,792.967041015625,796.1904907226562,790.952392578125
1389,799.4139404296875,796.5933837890625,799.010986328125,794.5787353515625
1390,800.6226806640625,795.7875366210938,802.2344360351562,790.5494384765625
1391,797.3992919921875,794.5787353515625,799.4139404296875,786.1171875
1392,795.7875366210938,796.1904907226562,801.8314819335938,790.1465454101562
1393,789.3406372070312,798.2051391601562,801.8314819335938,791.3552856445312
1394,785.3113403320312,798.2051391601562,802.2344360351562,790.1465454101562
1395,784.908447265625,801.025634765625,802.6373901367188,790.5494384765625
1396,785.7142944335938,795.3846435546875,796.996337890625,787.7289428710938
1397,786.923095703125,791.7582397460938,794.5787353515625,787.3259887695312
1398,783.2966918945312,791.7582397460938,792.5640869140625,786.5201416015625
1399,782.4908447265625,789.3406372070312,791.7582397460938,783.6996459960938
1400,787.7289428710938,794.1758422851562,793.7728881835938,791.3552856445312
1401,786.923095703125,792.1611938476562,794.981689453125,787.7289428710938
1402,792.967041015625,790.952392578125,797.8021850585938,788.937744140625
1403,795.7875366210938,791.7582397460938,795.7875366210938,795.7875366210938
1404,788.5347900390625,788.937744140625,793.7728881835938,794.1758422851562
1405,786.923095703125,782.087890625,794.981689453125,794.1758422851562
1406,779.6703491210938,781.2820434570312,790.1465454101562,790.952392578125
1407,783.6996459960938,785.3113403320312,791.3552856445312,793.7728881835938
1408,796.1904907226562,787.3259887695312,795.3846435546875,796.996337890625
1409,793.7728881835938,788.5347900390625,791.3552856445312,792.1611938476562
1410,787.3259887695312,795.7875366210938,788.1318969726562,786.5201416015625
1411,784.1025390625,796.1904907226562,791.3552856445312,788.937744140625
1412,788.937744140625,789.7435913085938,793.3699340820312,794.981689453125
1413,795.7875366210938,789.7435913085938,794.1758422851562,788.1318969726562
1414,796.996337890625,789.3406372070312,794.1758422851562,788.937744140625
1415,795.7875366210938,789.7435913085938,797.8021850585938,788.937744140625
1416,795.3846435546875,792.967041015625,794.981689453125,786.923095703125
1417,796.1904907226562,795.7875366210938,792.1611938476562,789.3406372070312
1418,797.3992919921875,795.7875366210938,794.1758422851562,790.1465454101562
1419,798.6080322265625,799.010986328125,797.3992919921875,787.3259887695312
1420,795.7875366210938,802.2344360351562,796.5933837890625,785.3113403320312
1421,795.3846435546875,795.7875366210938,792.1611938476562,784.908447265625
1422,798.6080322265625,792.1611938476562,792.1611938476562,787.3259887695312
1423,800.2197875976562,792.967041015625,796.5933837890625,795.7875366210938
1424,803.4432373046875,794.5787353515625,799.4139404296875,792.1611938476562
1425,799.010986328125,798.2051391601562,794.5787353515625,780.0732421875
1426,787.7289428710938,792.967041015625,788.5347900390625,776.0439453125
1427,781.6849975585938,789.3406372070312,785.7142944335938,780.879150390625
1428,785.7142944335938,790.952392578125,789.7435913085938,784.1025390625
1429,787.3259887695312,791.3552856445312,788.5347900390625,786.923095703125
1430,787.3259887695312,788.937744140625,782.087890625,782.893798828125
1431,784.1025390625,787.3259887695312,784.1025390625,781.2820434570312
1432,786.1171875,790.952392578125,791.7582397460938,791.3552856445312
1433,793.7728881835938,793.3699340820312,790.952392578125,796.1904907226562
1434,794.1758422851562,793.7728881835938,789.3406372070312,796.5933837890625
1435,791.3552856445312,792.967041015625,793.7728881835938,791.7582397460938
1436,787.3259887695312,790.5494384765625,792.967041015625,790.952392578125
1437,781.6849975585938,788.5347900390625,792.5640869140625,796.996337890625
1438,785.3113403320312,786.923095703125,793.7728881835938,798.2051391601562
1439,786.1171875,788.1318969726562,793.7728881835938,792.967041015625
1440,783.6996459960938,788.1318969726562,791.7582397460938,788.937744140625
1441,780.4761962890625,786.5201416015625,792.1611938476562,791.7582397460938
1442,779.2673950195312,788.5347900390625,796.1904907226562,794.981689453125
1443,786.1171875,790.1465454101562,796.1904907226562,791.3552856445312
1444,790.952392578125,792.5640869140625,794.5787353515625,786.1171875
1445,793.7728881835938,796.5933837890625,795.7875366210938,781.6849975585938
1446,795.3846435546875,796.996337890625,792.1611938476562,782.087890625
1447,796.996337890625,792.5640869140625,793.3699340820312,788.937744140625
1448,796.996337890625,796.1904907226562,797.3992919921875,785.3113403320312
1449,801.025634765625,802.2344360351562,795.7875366210938,786.5201416015625
1450,800.2197875976562,800.6226806640625,795.7875366210938,797.8021850585938
1451,792.5640869140625,795.3846435546875,799.010986328125,796.5933837890625
1452,789.3406372070312,793.3699340820312,799.8168334960938,794.981689453125
1453,794.5787353515625,796.1904907226562,796.1904907226562,795.7875366210938
1454,794.981689453125,798.6080322265625,793.3699340820312,795.3846435546875
1455,791.7582397460938,795.3846435546875,790.952392578125,791.7582397460938
1456,790.5494384765625,796.5933837890625,790.952392578125,794.981689453125
1457,786.5201416015625,794.5787353515625,793.7728881835938,796.5933837890625
1458,785.3113403320312,790.952392578125,793.7728881835938,799.010986328125
1459,794.5787353515625,792.1611938476562,792.967041015625,800.6226806640625
1460,791.3552856445312,792.1611938476562,792.1611938476562,792.1611938476562
1461,788.1318969726562,796.5933837890625,791.3552856445312,794.1758422851562
1462,792.1611938476562,799.8168334960938,793.3699340820312,792.5640869140625
1463,795.7875366210938,800.6226806640625,795.7875366210938,790.1465454101562
1464,803.4432373046875,799.010986328125,791.7582397460938,794.981689453125
1465,804.6520385742188,795.7875366210938,790.1465454101562,793.7728881835938
1466,792.967041015625,792.1611938476562,793.7728881835938,788.1318969726562
1467,791.7582397460938,793.7728881835938,791.3552856445312,789.7435913085938
1468,800.6226806640625,799.010986328125,793.3699340820312,796.5933837890625
1469,797.8021850585938,802.2344360351562,792.1611938476562,792.967041015625
1470,794.981689453125,801.8314819335938,787.3259887695312,788.5347900390625
1471,797.8021850585938,791.3552856445312,788.5347900390625,786.1171875
1472,796.996337890625,794.1758422851562,790.5494384765625,785.3113403320312
1473,799.4139404296875,795.3846435546875,791.3552856445312,793.7728881835938
1474,795.7875366210938,796.996337890625,796.5933837890625,790.5494384765625
1475,792.5640869140625,801.025634765625,799.8168334960938,787.7289428710938
1476,794.981689453125,798.2051391601562,801.4285888671875,791.3552856445312
1477,781.2820434570312,801.025634765625,800.2197875976562,784.5054931640625
1478,777.2527465820312,801.8314819335938,798.6080322265625,788.1318969726562
1479,787.7289428710938,796.5933837890625,794.5787353515625,792.1611938476562
1480,792.5640869140625,793.7728881835938,792.967041015625,791.3552856445312
1481,789.7435913085938,796.1904907226562,794.981689453125,786.1171875
1482,787.3259887695312,794.1758422851562,798.2051391601562,777.2527465820312
1483,788.1318969726562,791.3552856445312,797.8021850585938,775.6410522460938
1484,786.923095703125,791.3552856445312,789.7435913085938,779.6703491210938
1485,792.967041015625,794.981689453125,793.7728881835938,784.1025390625
1486,801.8314819335938,796.1904907226562,797.8021850585938,788.937744140625
1487,796.996337890625,795.3846435546875,793.7728881835938,788.1318969726562
1488,790.952392578125,797.8021850585938,793.3699340820312,786.923095703125
1489,793.3699340820312,794.1758422851562,793.3699340820312,781.2820434570312
1490,796.1904907226562,792.967041015625,791.3552856445312,773.2234497070312
1491,794.981689453125,795.7875366210938,790.952392578125,776.8497924804688
1492,795.3846435546875,794.5787353515625,793.7728881835938,789.7435913085938
1493,791.7582397460938,792.967041015625,797.8021850585938,787.3259887695312
1494,791.7582397460938,795.3846435546875,795.7875366210938,780.0732421875
1495,788.937744140625,797.3992919921875,795.3846435546875,780.4761962890625
1496,780.0732421875,796.1904907226562,790.952392578125,784.1025390625
1497,778.05859375,794.981689453125,787.7289428710938,786.1171875
1498,784.5054931640625,793.7728881835938,790.5494384765625,790.1465454101562
1499,788.937744140625,796.996337890625,791.3552856445312,795.7875366210938
1500,794.1758422851562,798.2051391601562,793.7728881835938,792.1611938476562
1501,799.010986328125,794.981689453125,796.1904907226562,789.3406372070312
1502,790.952392578125,792.5640869140625,792.1611938476562,790.5494384765625
1503,788.5347900390625,788.5347900390625,788.5347900390625,790.1465454101562
1504,795.7875366210938,786.923095703125,791.3552856445312,790.5494384765625
1505,799.4139404296875,796.1904907226562,792.1611938476562,792.1611938476562
1506,803.4432373046875,799.010986328125,796.1904907226562,796.1904907226562
1507,805.8607788085938,799.8168334960938,799.4139404296875,803.8461303710938
1508,800.6226806640625,802.2344360351562,794.981689453125,800.2197875976562
1509,799.8168334960938,796.5933837890625,791.7582397460938,795.7875366210938
1510,803.8461303710938,795.7875366210938,785.3113403320312,792.967041015625
1511,799.4139404296875,799.4139404296875,784.1025390625,787.3259887695312
1512,794.1758422851562,799.010986328125,790.952392578125,785.3113403320312
1513,794.981689453125,799.8168334960938,796.1904907226562,783.6996459960938
1514,793.7728881835938,798.6080322265625,794.5787353515625,780.4761962890625
1515,794.5787353515625,798.2051391601562,791.7582397460938,784.908447265625
1516,799.8168334960938,802.2344360351562,790.952392578125,794.1758422851562
1517,794.1758422851562,799.8168334960938,786.1171875,788.1318969726562
1518,787.7289428710938,794.5787353515625,787.3259887695312,785.3113403320312
1519,786.5201416015625,792.5640869140625,791.7582397460938,788.937744140625
1520,786.5201416015625,795.3846435546875,792.1611938476562,787.3259887695312
1521,789.7435913085938,795.7875366210938,792.1611938476562,788.5347900390625
1522,789.7435913085938,793.3699340820312,795.7875366210938,795.3846435546875
1523,786.5201416015625,788.1318969726562,796.5933837890625,790.5494384765625
1524,788.5347900390625,787.7289428710938,797.3992919921875,781.2820434570312
1525,793.3699340820312,788.937744140625,798.2051391601562,789.7435913085938
1526,794.981689453125,789.3406372070312,799.010986328125,791.7582397460938
1527,794.981689453125,792.5640869140625,803.4432373046875,786.5201416015625
1528,790.5494384765625,788.5347900390625,803.040283203125,789.3406372070312
1529,792.967041015625,788.937744140625,805.054931640625,795.7875366210938
1530,792.5640869140625,792.1611938476562,801.4285888671875,791.7582397460938
1531,795.3846435546875,792.967041015625,796.5933837890625,790.1465454101562
1532,792.967041015625,790.1465454101562,796.5933837890625,788.5347900390625
1533,788.937744140625,791.3552856445312,788.1318969726562,787.3259887695312
1534,787.7289428710938,794.981689453125,783.2966918945312,787.7289428710938
1535,790.952392578125,797.3992919921875,786.1171875,789.7435913085938
1536,797.8021850585938,800.6226806640625,786.923095703125,787.3259887695312
1537,792.967041015625,795.7875366210938,786.923095703125,782.893798828125
1538,790.1465454101562,799.4139404296875,786.923095703125,788.5347900390625
1539,792.5640869140625,803.4432373046875,793.7728881835938,786.5201416015625
1540,784.5054931640625,798.2051391601562,795.3846435546875,778.05859375
1541,779.2673950195312,797.8021850585938,794.981689453125,784.1025390625
1542,777.2527465820312,804.2490844726562,797.8021850585938,780.4761962890625
1543,768.7911987304688,804.2490844726562,789.3406372070312,770.4029541015625
1544,765.1648559570312,803.040283203125,791.7582397460938,765.1648559570312
1545,767.1795043945312,815.93408203125,796.996337890625,762.3442993164062
1546,764.7619018554688,823.5897216796875,791.7582397460938,756.7033081054688
1547,745.4212646484375,828.4249267578125,786.5201416015625,733.3333129882812
1548,728.901123046875,832.05126953125,788.5347900390625,715.2014770507812
1549,716.4102783203125,834.06591796875,796.996337890625,702.3076782226562
1550,691.025634765625,841.7216186523438,797.8021850585938,679.7435913085938
1551,676.5201416015625,844.1392211914062,795.3846435546875,668.4615478515625
1552,677.3259887695312,854.6153564453125,794.5787353515625,660.8058471679688
1553,662.4176025390625,858.2417602539062,794.981689453125,646.3003540039062
1554,632.1978149414062,848.5714111328125,802.6373901367188,630.989013671875
1555,617.6923217773438,852.1978149414062,801.8314819335938,612.05126953125
1556,625.7509155273438,856.2271118164062,800.6226806640625,610.4395751953125
1557,628.5714111328125,854.6153564453125,791.7582397460938,616.886474609375
1558,620.10986328125,859.047607421875,787.7289428710938,613.2600708007812
1559,616.08056640625,861.062255859375,792.5640869140625,608.02197265625
1560,608.4249267578125,855.4212646484375,794.5787353515625,603.1868286132812
1561,607.2161254882812,850.5860595703125,803.040283203125,611.2454223632812
1562,610.4395751953125,846.959716796875,795.7875366210938,606.8131713867188
1563,611.6483764648438,844.945068359375,790.5494384765625,598.3516235351562
1564,614.8717651367188,842.5274658203125,795.7875366210938,603.1868286132812
1565,620.10986328125,839.3040161132812,798.2051391601562,612.05126953125
1566,616.4835205078125,839.7069702148438,805.4578857421875,610.4395751953125
1567,612.05126953125,835.6776733398438,812.3076782226562,609.6337280273438
1568,620.5128173828125,834.06591796875,806.6666870117188,620.5128173828125
1569,641.8681030273438,832.8571166992188,801.4285888671875,645.4945068359375
1570,657.9853515625,832.4542236328125,802.6373901367188,658.3883056640625
1571,667.2527465820312,828.8278198242188,801.025634765625,668.05859375
1572,689.8168334960938,826.00732421875,805.054931640625,688.6080322265625
1573,698.6813354492188,828.8278198242188,807.4725341796875,696.2637329101562
1574,705.1282348632812,823.99267578125,805.054931640625,702.7106323242188
1575,717.6190185546875,821.5750732421875,803.8461303710938,712.3809814453125
1576,724.06591796875,825.6043701171875,802.6373901367188,721.6483764648438
1577,743.4066162109375,823.99267578125,801.8314819335938,738.974365234375
1578,756.3003540039062,825.6043701171875,794.981689453125,759.120849609375
1579,759.9267578125,823.5897216796875,790.5494384765625,769.5970458984375
1580,767.9853515625,818.7545776367188,793.3699340820312,774.8351440429688
1581,770.4029541015625,816.7399291992188,791.3552856445312,776.0439453125
1582,782.893798828125,815.1282348632812,791.7582397460938,781.2820434570312
1583,800.2197875976562,813.113525390625,784.5054931640625,791.7582397460938
1584,798.6080322265625,809.89013671875,772.8204956054688,793.7728881835938
1585,798.2051391601562,801.8314819335938,778.4615478515625,804.2490844726562
1586,811.90478515625,792.967041015625,785.3113403320312,822.7838745117188
1587,819.96337890625,792.5640869140625,780.4761962890625,824.3956298828125
1588,830.4395751953125,790.1465454101562,788.1318969726562,831.2454223632812
1589,837.2893676757812,786.923095703125,789.7435913085938,842.12451171875
