timestamp,RAW_TP9,RAW_AF7,RAW_AF8,RAW_TP10
1,792.967041015625,789.7435913085938,790.952392578125,792.5640869140625
2,795.3846435546875,791.7582397460938,792.1611938476562,794.5787353515625
3,794.1758422851562,789.7435913085938,791.7582397460938,791.7582397460938
4,793.7728881835938,788.937744140625,792.967041015625,792.967041015625
5,793.3699340820312,792.967041015625,790.952392578125,798.2051391601562
6,787.3259887695312,794.1758422851562,788.937744140625,797.3992919921875
7,789.3406372070312,793.7728881835938,786.923095703125,790.952392578125
8,796.5933837890625,795.3846435546875,790.952392578125,791.7582397460938
9,803.8461303710938,795.3846435546875,794.5787353515625,799.010986328125
10,799.010986328125,795.3846435546875,791.3552856445312,799.010986328125
11,791.7582397460938,792.1611938476562,785.7142944335938,794.981689453125
12,794.981689453125,792.5640869140625,787.3259887695312,796.1904907226562
13,797.3992919921875,797.3992919921875,795.7875366210938,801.8314819335938
14,796.5933837890625,789.3406372070312,798.6080322265625,802.2344360351562
15,799.010986328125,785.7142944335938,796.1904907226562,796.5933837890625
16,801.8314819335938,790.5494384765625,797.3992919921875,800.6226806640625
17,792.5640869140625,791.7582397460938,797.3992919921875,805.8607788085938
18,784.908447265625,796.5933837890625,794.5787353515625,794.1758422851562
19,788.5347900390625,800.6226806640625,792.967041015625,793.3699340820312
20,788.937744140625,796.5933837890625,793.3699340820312,799.4139404296875
21,792.967041015625,795.7875366210938,795.3846435546875,800.2197875976562
22,798.6080322265625,797.8021850585938,794.981689453125,802.2344360351562
23,797.3992919921875,796.5933837890625,794.5787353515625,799.010986328125
24,799.010986328125,793.7728881835938,799.4139404296875,805.4578857421875
25,801.4285888671875,790.1465454101562,799.4139404296875,808.2783813476562
26,799.4139404296875,790.952392578125,796.5933837890625,794.5787353515625
27,790.5494384765625,798.6080322265625,794.5787353515625,794.981689453125
28,788.1318969726562,797.3992919921875,791.3552856445312,809.4871826171875
29,790.952392578125,793.7728881835938,793.7728881835938,805.4578857421875
30,786.923095703125,799.4139404296875,798.2051391601562,793.7728881835938
31,788.1318969726562,802.6373901367188,796.996337890625,800.6226806640625
32,792.5640869140625,796.1904907226562,795.7875366210938,796.5933837890625
33,786.5201416015625,791.3552856445312,797.3992919921875,782.087890625
34,782.087890625,790.1465454101562,797.8021850585938,781.6849975585938
35,781.6849975585938,790.1465454101562,794.981689453125,783.6996459960938
36,778.4615478515625,784.908447265625,792.967041015625,782.893798828125
37,782.893798828125,788.1318969726562,792.967041015625,784.908447265625
38,784.5054931640625,790.952392578125,794.5787353515625,785.7142944335938
39,788.937744140625,785.7142944335938,799.4139404296875,790.5494384765625
40,796.1904907226562,793.7728881835938,800.6226806640625,791.3552856445312
41,789.3406372070312,803.040283203125,794.5787353515625,784.908447265625
42,786.923095703125,799.010986328125,792.5640869140625,788.937744140625
43,791.7582397460938,788.1318969726562,794.5787353515625,795.3846435546875
44,791.7582397460938,792.5640869140625,796.1904907226562,800.6226806640625
45,788.937744140625,802.2344360351562,801.4285888671875,800.2197875976562
46,789.3406372070312,798.2051391601562,799.4139404296875,790.952392578125
47,788.937744140625,799.010986328125,792.5640869140625,788.1318969726562
48,782.893798828125,797.8021850585938,793.3699340820312,785.7142944335938
49,783.2966918945312,794.5787353515625,798.2051391601562,784.5054931640625
50,788.5347900390625,799.010986328125,799.4139404296875,792.5640869140625
51,788.937744140625,799.8168334960938,796.5933837890625,797.8021850585938
52,787.3259887695312,792.967041015625,794.1758422851562,790.952392578125
53,787.3259887695312,793.3699340820312,792.967041015625,779.2673950195312
54,789.3406372070312,799.8168334960938,788.5347900390625,779.2673950195312
55,789.7435913085938,799.4139404296875,788.5347900390625,792.967041015625
56,788.5347900390625,795.3846435546875,794.5787353515625,798.6080322265625
57,790.952392578125,795.3846435546875,795.3846435546875,793.3699340820312
58,791.7582397460938,796.5933837890625,793.3699340820312,790.5494384765625
59,793.3699340820312,793.7728881835938,791.7582397460938,781.6849975585938
60,796.996337890625,792.1611938476562,790.952392578125,776.8497924804688
61,801.025634765625,795.3846435546875,792.967041015625,784.5054931640625
62,799.010986328125,792.5640869140625,796.996337890625,795.3846435546875
63,795.7875366210938,791.3552856445312,802.2344360351562,799.4139404296875
64,794.981689453125,791.3552856445312,802.2344360351562,791.3552856445312
65,792.967041015625,790.5494384765625,800.6226806640625,788.1318969726562
66,793.7728881835938,796.996337890625,799.4139404296875,801.025634765625
67,794.5787353515625,799.4139404296875,796.5933837890625,804.6520385742188
68,796.5933837890625,795.7875366210938,796.996337890625,807.87548828125
69,799.010986328125,790.5494384765625,799.010986328125,811.098876953125
70,802.6373901367188,793.7728881835938,799.8168334960938,812.3076782226562
71,804.6520385742188,797.3992919921875,795.7875366210938,811.5018310546875
72,799.8168334960938,799.4139404296875,794.1758422851562,800.2197875976562
73,801.4285888671875,802.6373901367188,795.7875366210938,796.5933837890625
74,801.025634765625,796.5933837890625,794.5787353515625,804.6520385742188
75,788.937744140625,791.7582397460938,793.3699340820312,799.8168334960938
76,784.908447265625,796.1904907226562,797.3992919921875,788.1318969726562
77,789.7435913085938,796.5933837890625,798.6080322265625,788.937744140625
78,791.3552856445312,791.3552856445312,793.7728881835938,792.1611938476562
79,790.952392578125,792.967041015625,792.5640869140625,785.3113403320312
80,789.3406372070312,795.7875366210938,795.7875366210938,786.1171875
81,788.937744140625,792.967041015625,795.3846435546875,789.3406372070312
82,794.5787353515625,793.3699340820312,791.3552856445312,786.5201416015625
83,794.1758422851562,791.3552856445312,790.5494384765625,789.3406372070312
84,788.5347900390625,790.1465454101562,792.967041015625,795.3846435546875
85,788.5347900390625,795.3846435546875,793.3699340820312,801.8314819335938
86,784.5054931640625,792.1611938476562,792.1611938476562,801.8314819335938
87,784.1025390625,788.937744140625,792.967041015625,798.2051391601562
88,786.5201416015625,785.3113403320312,786.5201416015625,792.5640869140625
89,788.1318969726562,789.3406372070312,785.3113403320312,793.7728881835938
90,787.3259887695312,794.5787353515625,786.923095703125,800.6226806640625
91,788.937744140625,790.952392578125,789.3406372070312,793.3699340820312
92,792.1611938476562,790.952392578125,791.3552856445312,798.2051391601562
93,792.967041015625,790.5494384765625,790.952392578125,801.8314819335938
94,790.1465454101562,790.952392578125,791.3552856445312,792.5640869140625
95,795.3846435546875,793.7728881835938,796.5933837890625,789.3406372070312
96,797.8021850585938,795.7875366210938,798.6080322265625,788.1318969726562
97,792.967041015625,793.7728881835938,794.981689453125,782.087890625
98,793.7728881835938,795.3846435546875,794.981689453125,780.0732421875
99,796.996337890625,794.5787353515625,797.3992919921875,785.3113403320312
100,795.7875366210938,790.952392578125,796.1904907226562,791.3552856445312
101,792.5640869140625,794.981689453125,796.996337890625,802.2344360351562
102,794.1758422851562,800.6226806640625,801.8314819335938,803.8461303710938
103,797.3992919921875,796.1904907226562,801.4285888671875,788.937744140625
104,802.2344360351562,796.996337890625,799.8168334960938,788.937744140625
105,798.2051391601562,799.8168334960938,800.2197875976562,794.981689453125
106,792.967041015625,793.7728881835938,799.8168334960938,796.996337890625
107,794.1758422851562,790.5494384765625,799.8168334960938,800.2197875976562
108,801.4285888671875,793.7728881835938,799.4139404296875,803.4432373046875
109,799.8168334960938,797.3992919921875,797.8021850585938,799.8168334960938
110,791.7582397460938,798.2051391601562,795.7875366210938,794.981689453125
111,796.5933837890625,798.2051391601562,795.3846435546875,796.1904907226562
112,798.6080322265625,794.1758422851562,794.5787353515625,800.6226806640625
113,797.3992919921875,799.010986328125,797.8021850585938,805.4578857421875
114,799.4139404296875,802.2344360351562,802.6373901367188,804.2490844726562
115,796.996337890625,797.8021850585938,801.4285888671875,798.2051391601562
116,795.3846435546875,793.3699340820312,797.3992919921875,793.7728881835938
117,794.1758422851562,790.952392578125,795.7875366210938,790.952392578125
118,796.1904907226562,796.1904907226562,795.3846435546875,788.5347900390625
119,798.2051391601562,796.1904907226562,797.8021850585938,793.7728881835938
120,789.7435913085938,789.3406372070312,796.1904907226562,793.3699340820312
121,788.937744140625,792.967041015625,793.7728881835938,786.923095703125
122,794.5787353515625,796.5933837890625,790.952392578125,785.3113403320312
123,796.996337890625,792.967041015625,787.7289428710938,791.7582397460938
124,799.8168334960938,791.7582397460938,788.937744140625,793.7728881835938
125,792.5640869140625,788.5347900390625,789.7435913085938,780.0732421875
126,789.7435913085938,788.937744140625,789.3406372070312,774.4322509765625
127,790.952392578125,790.5494384765625,792.967041015625,786.1171875
128,784.5054931640625,783.2966918945312,792.967041015625,790.1465454101562
129,786.923095703125,787.3259887695312,792.1611938476562,788.5347900390625
130,792.1611938476562,795.7875366210938,792.5640869140625,790.5494384765625
131,790.1465454101562,797.3992919921875,794.5787353515625,790.952392578125
132,788.937744140625,796.1904907226562,798.2051391601562,797.8021850585938
133,791.3552856445312,795.7875366210938,795.3846435546875,798.6080322265625
134,793.3699340820312,792.5640869140625,792.1611938476562,795.3846435546875
135,792.967041015625,787.3259887695312,792.5640869140625,798.2051391601562
136,794.981689453125,789.3406372070312,792.5640869140625,792.967041015625
137,792.967041015625,794.981689453125,790.5494384765625,788.937744140625
138,792.967041015625,792.1611938476562,789.7435913085938,794.5787353515625
139,797.8021850585938,790.952392578125,793.7728881835938,805.4578857421875
140,795.7875366210938,795.3846435546875,792.967041015625,804.2490844726562
141,793.3699340820312,796.5933837890625,787.3259887695312,794.5787353515625
142,790.952392578125,794.981689453125,792.5640869140625,794.981689453125
143,787.7289428710938,794.5787353515625,795.7875366210938,804.2490844726562
144,786.5201416015625,794.981689453125,795.7875366210938,806.2637329101562
145,789.3406372070312,792.1611938476562,798.6080322265625,798.2051391601562
146,790.5494384765625,787.3259887695312,795.7875366210938,794.981689453125
147,793.3699340820312,788.937744140625,795.3846435546875,796.5933837890625
148,790.952392578125,786.5201416015625,799.8168334960938,795.3846435546875
149,787.3259887695312,788.1318969726562,793.7728881835938,788.1318969726562
150,790.5494384765625,797.8021850585938,790.1465454101562,792.5640869140625
151,795.7875366210938,799.8168334960938,793.7728881835938,800.6226806640625
152,801.8314819335938,798.6080322265625,796.5933837890625,792.967041015625
153,801.025634765625,796.1904907226562,796.1904907226562,792.1611938476562
154,798.6080322265625,796.5933837890625,796.1904907226562,797.3992919921875
155,790.952392578125,796.996337890625,796.1904907226562,792.967041015625
156,787.3259887695312,794.981689453125,794.5787353515625,782.893798828125
157,791.7582397460938,797.8021850585938,797.3992919921875,783.6996459960938
158,794.1758422851562,795.3846435546875,795.7875366210938,786.1171875
159,791.7582397460938,791.3552856445312,788.937744140625,780.0732421875
160,788.1318969726562,794.981689453125,789.7435913085938,784.5054931640625
161,788.1318969726562,788.1318969726562,792.967041015625,787.7289428710938
162,793.7728881835938,789.3406372070312,793.7728881835938,792.1611938476562
163,792.1611938476562,797.8021850585938,794.1758422851562,798.6080322265625
164,783.2966918945312,793.3699340820312,795.3846435546875,793.3699340820312
165,783.6996459960938,790.952392578125,794.5787353515625,794.5787353515625
166,787.3259887695312,793.3699340820312,799.4139404296875,797.3992919921875
167,792.1611938476562,792.5640869140625,805.054931640625,796.5933837890625
168,794.1758422851562,790.1465454101562,800.6226806640625,791.7582397460938
169,794.981689453125,791.3552856445312,794.981689453125,788.937744140625
170,797.8021850585938,795.3846435546875,798.2051391601562,793.3699340820312
171,786.1171875,794.981689453125,799.8168334960938,794.981689453125
172,780.879150390625,793.3699340820312,799.8168334960938,792.5640869140625
173,786.5201416015625,795.3846435546875,799.4139404296875,793.3699340820312
174,793.3699340820312,794.981689453125,795.3846435546875,802.2344360351562
175,792.967041015625,794.1758422851562,796.996337890625,803.8461303710938
176,791.7582397460938,798.6080322265625,798.6080322265625,802.6373901367188
177,786.5201416015625,791.3552856445312,794.1758422851562,801.8314819335938
178,785.7142944335938,782.4908447265625,793.3699340820312,803.040283203125
179,794.5787353515625,789.3406372070312,794.981689453125,805.8607788085938
180,791.7582397460938,796.996337890625,792.5640869140625,796.5933837890625
181,792.5640869140625,792.967041015625,794.981689453125,794.5787353515625
182,792.5640869140625,794.1758422851562,797.8021850585938,792.1611938476562
183,796.996337890625,794.981689453125,796.996337890625,787.7289428710938
184,802.2344360351562,789.7435913085938,795.7875366210938,792.1611938476562
185,804.6520385742188,790.952392578125,792.1611938476562,805.8607788085938
186,803.040283203125,793.3699340820312,792.5640869140625,814.3223266601562
187,793.7728881835938,795.3846435546875,794.1758422851562,801.8314819335938
188,800.6226806640625,792.1611938476562,792.967041015625,799.8168334960938
189,808.6813354492188,785.3113403320312,796.5933837890625,803.8461303710938
190,806.2637329101562,782.4908447265625,791.3552856445312,801.8314819335938
191,805.054931640625,784.5054931640625,791.3552856445312,801.8314819335938
192,803.040283203125,791.7582397460938,798.2051391601562,795.7875366210938
193,799.4139404296875,794.1758422851562,796.996337890625,790.1465454101562
194,798.6080322265625,794.5787353515625,795.3846435546875,794.5787353515625
195,801.8314819335938,793.3699340820312,796.5933837890625,800.2197875976562
196,798.2051391601562,791.3552856445312,797.3992919921875,800.6226806640625
197,795.3846435546875,787.3259887695312,792.967041015625,803.040283203125
198,799.010986328125,791.3552856445312,793.7728881835938,807.069580078125
199,795.7875366210938,791.3552856445312,796.1904907226562,806.2637329101562
200,790.952392578125,786.1171875,792.1611938476562,808.6813354492188
201,795.7875366210938,783.6996459960938,793.3699340820312,807.87548828125
202,801.8314819335938,790.952392578125,798.6080322265625,801.025634765625
203,798.6080322265625,798.2051391601562,797.3992919921875,794.1758422851562
204,790.1465454101562,799.010986328125,790.952392578125,788.5347900390625
205,792.967041015625,802.2344360351562,791.7582397460938,789.3406372070312
206,795.7875366210938,804.6520385742188,795.3846435546875,793.7728881835938
207,791.7582397460938,802.2344360351562,799.8168334960938,795.7875366210938
208,797.3992919921875,796.5933837890625,799.010986328125,797.3992919921875
209,800.6226806640625,798.6080322265625,795.7875366210938,804.6520385742188
210,792.1611938476562,796.996337890625,796.5933837890625,792.967041015625
211,793.3699340820312,789.7435913085938,791.7582397460938,786.5201416015625
212,801.025634765625,790.5494384765625,791.7582397460938,800.2197875976562
213,801.025634765625,791.3552856445312,794.1758422851562,799.010986328125
214,796.996337890625,788.1318969726562,792.1611938476562,791.3552856445312
215,798.2051391601562,783.6996459960938,786.923095703125,787.7289428710938
216,799.8168334960938,782.893798828125,785.7142944335938,784.908447265625
217,792.967041015625,784.908447265625,790.1465454101562,780.879150390625
218,791.7582397460938,790.952392578125,794.1758422851562,782.4908447265625
219,799.4139404296875,794.981689453125,792.5640869140625,789.7435913085938
220,812.3076782226562,793.3699340820312,793.3699340820312,806.2637329101562
221,810.2930297851562,790.952392578125,793.7728881835938,811.098876953125
222,796.5933837890625,794.1758422851562,790.5494384765625,798.2051391601562
223,794.1758422851562,799.8168334960938,799.010986328125,790.952392578125
224,790.1465454101562,790.1465454101562,801.025634765625,791.7582397460938
225,784.908447265625,785.3113403320312,800.2197875976562,791.7582397460938
226,790.1465454101562,792.5640869140625,801.8314819335938,795.7875366210938
227,790.5494384765625,796.5933837890625,799.4139404296875,800.6226806640625
228,786.923095703125,791.7582397460938,798.2051391601562,799.010986328125
229,791.7582397460938,790.5494384765625,795.7875366210938,794.5787353515625
230,794.1758422851562,793.3699340820312,793.3699340820312,789.7435913085938
231,794.1758422851562,788.1318969726562,795.7875366210938,792.1611938476562
232,794.1758422851562,788.5347900390625,796.5933837890625,796.996337890625
233,790.5494384765625,794.981689453125,794.981689453125,791.7582397460938
234,787.3259887695312,791.3552856445312,797.8021850585938,792.5640869140625
235,791.3552856445312,787.3259887695312,799.8168334960938,802.2344360351562
236,804.6520385742188,790.5494384765625,796.5933837890625,815.5311279296875
237,805.4578857421875,796.1904907226562,796.1904907226562,818.3516235351562
238,790.952392578125,792.1611938476562,802.2344360351562,803.040283203125
239,787.3259887695312,786.923095703125,799.4139404296875,797.8021850585938
240,792.5640869140625,791.3552856445312,796.1904907226562,802.2344360351562
241,789.7435913085938,798.6080322265625,797.3992919921875,787.3259887695312
242,781.2820434570312,796.5933837890625,788.5347900390625,782.087890625
243,789.3406372070312,785.3113403320312,788.937744140625,799.8168334960938
244,799.4139404296875,790.5494384765625,799.010986328125,806.2637329101562
245,803.040283203125,793.3699340820312,801.8314819335938,802.6373901367188
246,802.6373901367188,789.7435913085938,796.5933837890625,800.6226806640625
247,799.4139404296875,788.5347900390625,790.5494384765625,799.8168334960938
248,794.5787353515625,788.937744140625,794.5787353515625,800.6226806640625
249,789.3406372070312,787.7289428710938,796.5933837890625,799.010986328125
250,788.1318969726562,787.7289428710938,793.7728881835938,804.2490844726562
251,793.7728881835938,786.5201416015625,793.7728881835938,807.069580078125
252,795.3846435546875,784.1025390625,795.7875366210938,799.4139404296875
253,792.5640869140625,786.923095703125,794.5787353515625,794.1758422851562
254,790.952392578125,782.893798828125,792.967041015625,795.7875366210938
255,792.967041015625,781.6849975585938,791.3552856445312,797.3992919921875
256,800.2197875976562,790.1465454101562,793.3699340820312,793.7728881835938
257,799.4139404296875,797.3992919921875,793.7728881835938,793.3699340820312
258,794.5787353515625,795.7875366210938,792.5640869140625,801.8314819335938
259,794.5787353515625,801.4285888671875,797.3992919921875,806.6666870117188
260,798.6080322265625,802.2344360351562,800.2197875976562,801.4285888671875
261,800.2197875976562,794.981689453125,799.010986328125,800.2197875976562
262,798.6080322265625,796.1904907226562,792.967041015625,799.8168334960938
263,795.7875366210938,802.6373901367188,790.5494384765625,798.2051391601562
264,796.5933837890625,803.4432373046875,794.5787353515625,796.1904907226562
265,803.8461303710938,792.5640869140625,796.996337890625,799.010986328125
266,805.8607788085938,787.3259887695312,795.3846435546875,802.6373901367188
267,799.4139404296875,790.952392578125,793.3699340820312,802.2344360351562
268,797.8021850585938,791.3552856445312,794.981689453125,802.6373901367188
269,799.4139404296875,792.1611938476562,796.996337890625,804.2490844726562
270,802.2344360351562,789.3406372070312,794.981689453125,809.084228515625
271,799.010986328125,793.3699340820312,796.1904907226562,804.2490844726562
272,794.981689453125,796.1904907226562,799.4139404296875,796.996337890625
273,797.3992919921875,790.5494384765625,796.1904907226562,795.7875366210938
274,792.5640869140625,789.7435913085938,794.1758422851562,796.996337890625
275,789.3406372070312,796.5933837890625,795.7875366210938,793.7728881835938
276,794.1758422851562,794.5787353515625,796.5933837890625,794.1758422851562
277,800.2197875976562,791.7582397460938,795.7875366210938,799.010986328125
278,795.7875366210938,793.7728881835938,794.5787353515625,793.3699340820312
279,794.5787353515625,794.981689453125,796.5933837890625,793.3699340820312
280,797.8021850585938,792.967041015625,796.996337890625,790.5494384765625
281,799.010986328125,792.1611938476562,796.5933837890625,791.7582397460938
282,798.6080322265625,793.7728881835938,800.2197875976562,803.4432373046875
283,792.967041015625,795.7875366210938,800.2197875976562,796.996337890625
284,789.7435913085938,794.1758422851562,795.7875366210938,786.5201416015625
285,790.952392578125,794.1758422851562,795.3846435546875,793.7728881835938
286,793.3699340820312,798.2051391601562,797.8021850585938,802.6373901367188
287,795.3846435546875,801.4285888671875,795.3846435546875,799.010986328125
288,796.5933837890625,794.981689453125,794.981689453125,792.1611938476562
289,796.996337890625,787.3259887695312,795.3846435546875,790.1465454101562
290,795.3846435546875,786.5201416015625,793.7728881835938,792.1611938476562
291,796.1904907226562,784.1025390625,794.981689453125,789.7435913085938
292,796.996337890625,786.1171875,798.2051391601562,790.5494384765625
293,798.2051391601562,788.1318969726562,794.981689453125,795.3846435546875
294,794.1758422851562,788.5347900390625,793.3699340820312,788.1318969726562
295,788.1318969726562,794.1758422851562,794.5787353515625,784.908447265625
296,794.1758422851562,790.952392578125,793.3699340820312,788.1318969726562
297,793.7728881835938,788.1318969726562,794.5787353515625,786.5201416015625
298,788.5347900390625,790.952392578125,796.5933837890625,786.5201416015625
299,789.7435913085938,788.937744140625,796.1904907226562,794.1758422851562
300,793.3699340820312,786.5201416015625,797.3992919921875,791.7582397460938
301,793.3699340820312,784.1025390625,800.6226806640625,788.1318969726562
302,790.952392578125,781.6849975585938,801.8314819335938,790.1465454101562
303,791.7582397460938,787.3259887695312,796.996337890625,789.7435913085938
304,791.7582397460938,795.3846435546875,793.7728881835938,792.967041015625
305,791.3552856445312,793.3699340820312,792.5640869140625,799.010986328125
306,789.3406372070312,789.3406372070312,792.5640869140625,794.5787353515625
307,789.7435913085938,791.3552856445312,797.8021850585938,788.1318969726562
308,790.5494384765625,791.7582397460938,801.4285888671875,788.5347900390625
309,787.3259887695312,792.1611938476562,803.4432373046875,787.3259887695312
310,787.7289428710938,795.3846435546875,799.4139404296875,780.4761962890625
311,792.967041015625,783.2966918945312,797.3992919921875,790.952392578125
312,799.010986328125,782.4908447265625,797.8021850585938,806.2637329101562
313,795.7875366210938,800.6226806640625,798.6080322265625,804.2490844726562
314,795.3846435546875,805.054931640625,803.8461303710938,797.8021850585938
315,793.7728881835938,796.996337890625,800.6226806640625,792.967041015625
316,791.7582397460938,792.967041015625,795.7875366210938,801.025634765625
317,794.981689453125,797.8021850585938,795.7875366210938,799.010986328125
318,796.1904907226562,794.981689453125,796.1904907226562,791.3552856445312
319,800.2197875976562,789.3406372070312,794.981689453125,794.5787353515625
320,799.4139404296875,789.7435913085938,794.981689453125,797.3992919921875
321,794.1758422851562,784.5054931640625,799.010986328125,795.7875366210938
322,792.967041015625,786.923095703125,798.2051391601562,796.996337890625
323,795.3846435546875,794.5787353515625,795.7875366210938,801.025634765625
324,795.3846435546875,792.5640869140625,792.967041015625,799.4139404296875
325,792.1611938476562,794.5787353515625,790.5494384765625,801.4285888671875
326,795.7875366210938,797.3992919921875,794.1758422851562,802.2344360351562
327,797.8021850585938,792.967041015625,792.5640869140625,799.4139404296875
328,798.2051391601562,793.3699340820312,789.3406372070312,804.2490844726562
329,798.2051391601562,801.025634765625,797.8021850585938,797.3992919921875
330,799.010986328125,800.2197875976562,797.8021850585938,788.5347900390625
331,798.6080322265625,793.7728881835938,790.952392578125,790.1465454101562
332,795.3846435546875,796.1904907226562,792.5640869140625,791.3552856445312
333,801.025634765625,796.1904907226562,794.1758422851562,796.5933837890625
334,800.6226806640625,793.3699340820312,792.5640869140625,796.996337890625
335,790.5494384765625,793.7728881835938,791.7582397460938,790.5494384765625
336,788.1318969726562,792.967041015625,793.3699340820312,794.5787353515625
337,792.5640869140625,786.923095703125,794.5787353515625,799.4139404296875
338,795.3846435546875,787.3259887695312,799.8168334960938,798.6080322265625
339,799.8168334960938,793.7728881835938,802.6373901367188,803.8461303710938
340,800.6226806640625,792.967041015625,798.2051391601562,805.8607788085938
341,794.981689453125,793.3699340820312,801.8314819335938,799.8168334960938
342,792.967041015625,792.5640869140625,804.6520385742188,796.5933837890625
343,795.3846435546875,790.952392578125,798.6080322265625,802.2344360351562
344,786.5201416015625,798.2051391601562,797.3992919921875,800.2197875976562
345,780.879150390625,799.010986328125,795.7875366210938,794.1758422851562
346,780.4761962890625,793.3699340820312,795.3846435546875,796.996337890625
347,784.1025390625,791.3552856445312,797.8021850585938,801.4285888671875
348,785.7142944335938,789.3406372070312,794.5787353515625,797.3992919921875
349,793.3699340820312,788.937744140625,794.1758422851562,789.7435913085938
350,798.6080322265625,786.923095703125,796.1904907226562,789.3406372070312
351,796.1904907226562,790.952392578125,791.7582397460938,788.5347900390625
352,805.4578857421875,794.981689453125,795.3846435546875,793.3699340820312
353,810.2930297851562,791.7582397460938,804.2490844726562,797.3992919921875
354,803.040283203125,790.1465454101562,801.4285888671875,799.4139404296875
355,790.952392578125,793.3699340820312,795.3846435546875,803.8461303710938
356,788.1318969726562,799.4139404296875,799.8168334960938,796.996337890625
357,790.1465454101562,800.2197875976562,796.1904907226562,789.7435913085938
358,790.952392578125,799.4139404296875,792.1611938476562,794.1758422851562
359,794.1758422851562,799.8168334960938,795.7875366210938,800.6226806640625
360,789.3406372070312,796.996337890625,795.3846435546875,798.6080322265625
361,785.3113403320312,794.981689453125,794.981689453125,797.3992919921875
362,790.5494384765625,796.1904907226562,798.2051391601562,800.2197875976562
363,799.010986328125,796.1904907226562,798.2051391601562,802.2344360351562
364,797.8021850585938,784.908447265625,794.5787353515625,791.7582397460938
365,789.7435913085938,787.3259887695312,790.5494384765625,779.6703491210938
366,792.967041015625,792.967041015625,788.937744140625,790.1465454101562
367,795.7875366210938,795.7875366210938,793.3699340820312,793.3699340820312
368,796.996337890625,803.4432373046875,799.8168334960938,790.5494384765625
369,798.6080322265625,802.6373901367188,797.3992919921875,794.981689453125
370,799.4139404296875,801.4285888671875,792.1611938476562,796.1904907226562
371,802.2344360351562,800.2197875976562,792.1611938476562,793.7728881835938
372,801.8314819335938,796.1904907226562,791.7582397460938,790.5494384765625
373,805.054931640625,792.967041015625,790.952392578125,789.3406372070312
374,807.069580078125,790.952392578125,793.3699340820312,793.3699340820312
375,805.8607788085938,794.5787353515625,793.3699340820312,790.1465454101562
376,812.3076782226562,798.2051391601562,792.967041015625,783.6996459960938
377,811.5018310546875,794.981689453125,790.5494384765625,790.5494384765625
378,799.010986328125,792.967041015625,790.952392578125,793.7728881835938
379,790.5494384765625,794.5787353515625,792.1611938476562,790.1465454101562
380,782.087890625,794.981689453125,791.3552856445312,786.5201416015625
381,780.4761962890625,797.8021850585938,789.7435913085938,786.5201416015625
382,786.923095703125,799.8168334960938,790.5494384765625,790.952392578125
383,789.7435913085938,797.8021850585938,791.7582397460938,789.3406372070312
384,788.1318969726562,796.5933837890625,794.981689453125,786.5201416015625
385,784.1025390625,797.3992919921875,797.8021850585938,786.1171875
386,778.4615478515625,796.1904907226562,794.1758422851562,789.3406372070312
387,776.0439453125,792.967041015625,797.3992919921875,792.967041015625
388,782.4908447265625,789.7435913085938,798.6080322265625,788.937744140625
389,784.1025390625,790.5494384765625,794.5787353515625,787.7289428710938
390,779.6703491210938,793.3699340820312,794.5787353515625,786.1171875
391,777.6557006835938,792.5640869140625,790.5494384765625,784.5054931640625
392,777.2527465820312,791.7582397460938,788.937744140625,782.087890625
393,781.6849975585938,791.7582397460938,793.7728881835938,784.1025390625
394,786.923095703125,790.1465454101562,796.5933837890625,794.981689453125
395,787.7289428710938,786.923095703125,795.7875366210938,796.1904907226562
396,785.3113403320312,788.5347900390625,789.7435913085938,790.952392578125
397,781.2820434570312,789.3406372070312,788.1318969726562,782.893798828125
398,785.3113403320312,788.1318969726562,789.7435913085938,784.5054931640625
399,784.908447265625,785.3113403320312,789.3406372070312,793.3699340820312
400,784.908447265625,782.893798828125,791.3552856445312,795.7875366210938
401,787.7289428710938,785.3113403320312,790.5494384765625,797.3992919921875
402,781.2820434570312,788.937744140625,792.1611938476562,791.3552856445312
403,782.4908447265625,794.981689453125,795.7875366210938,796.5933837890625
404,783.2966918945312,790.952392578125,790.1465454101562,802.6373901367188
405,785.7142944335938,787.3259887695312,788.1318969726562,797.8021850585938
406,786.1171875,790.5494384765625,790.1465454101562,795.3846435546875
407,784.1025390625,789.7435913085938,788.937744140625,793.3699340820312
408,786.1171875,790.1465454101562,786.923095703125,789.7435913085938
409,787.3259887695312,791.3552856445312,790.5494384765625,786.923095703125
410,784.908447265625,794.981689453125,792.967041015625,785.7142944335938
411,787.3259887695312,798.2051391601562,791.7582397460938,786.5201416015625
412,788.937744140625,794.5787353515625,793.7728881835938,786.1171875
413,786.1171875,789.7435913085938,794.1758422851562,782.4908447265625
414,789.3406372070312,793.3699340820312,792.1611938476562,783.2966918945312
415,793.7728881835938,797.3992919921875,792.967041015625,787.3259887695312
416,794.981689453125,793.7728881835938,796.1904907226562,794.981689453125
417,795.3846435546875,790.1465454101562,793.3699340820312,797.3992919921875
418,792.967041015625,788.1318969726562,792.1611938476562,793.3699340820312
419,787.3259887695312,791.3552856445312,791.3552856445312,796.1904907226562
420,790.952392578125,792.5640869140625,794.981689453125,805.054931640625
421,792.1611938476562,794.981689453125,796.996337890625,801.025634765625
422,792.967041015625,794.5787353515625,797.3992919921875,798.2051391601562
423,799.4139404296875,795.3846435546875,794.981689453125,796.996337890625
424,799.8168334960938,798.6080322265625,793.3699340820312,789.3406372070312
425,795.7875366210938,791.7582397460938,799.8168334960938,786.5201416015625
426,791.7582397460938,794.1758422851562,798.6080322265625,788.1318969726562
427,790.952392578125,794.5787353515625,792.1611938476562,794.981689453125
428,791.7582397460938,792.5640869140625,794.1758422851562,800.2197875976562
429,784.908447265625,795.7875366210938,794.1758422851562,792.1611938476562
430,786.1171875,792.967041015625,790.5494384765625,792.1611938476562
431,792.5640869140625,793.7728881835938,793.3699340820312,799.010986328125
432,792.1611938476562,794.5787353515625,795.7875366210938,798.2051391601562
433,794.1758422851562,800.6226806640625,798.6080322265625,794.981689453125
434,796.5933837890625,799.8168334960938,796.996337890625,788.937744140625
435,800.2197875976562,792.5640869140625,792.5640869140625,794.1758422851562
436,800.6226806640625,794.1758422851562,791.3552856445312,795.7875366210938
437,794.5787353515625,794.1758422851562,791.7582397460938,795.7875366210938
438,794.981689453125,788.5347900390625,791.3552856445312,801.025634765625
439,796.5933837890625,791.3552856445312,788.5347900390625,806.2637329101562
440,789.7435913085938,791.7582397460938,787.3259887695312,799.8168334960938
441,783.6996459960938,784.1025390625,790.5494384765625,786.923095703125
442,783.6996459960938,784.1025390625,789.7435913085938,785.7142944335938
443,784.5054931640625,786.923095703125,785.7142944335938,784.5054931640625
444,786.923095703125,789.7435913085938,790.5494384765625,784.5054931640625
445,785.3113403320312,789.3406372070312,791.7582397460938,790.5494384765625
446,784.1025390625,786.5201416015625,791.7582397460938,799.4139404296875
447,785.7142944335938,784.908447265625,789.7435913085938,801.4285888671875
448,786.1171875,780.4761962890625,785.3113403320312,794.5787353515625
449,784.1025390625,781.2820434570312,788.5347900390625,788.1318969726562
450,792.1611938476562,783.2966918945312,792.5640869140625,791.3552856445312
451,796.5933837890625,779.2673950195312,794.1758422851562,803.8461303710938
452,790.952392578125,782.4908447265625,795.7875366210938,800.6226806640625
453,792.967041015625,792.5640869140625,796.5933837890625,794.5787353515625
454,802.2344360351562,797.3992919921875,794.1758422851562,798.6080322265625
455,804.6520385742188,796.996337890625,796.5933837890625,800.6226806640625
456,806.6666870117188,794.981689453125,799.8168334960938,797.3992919921875
457,805.8607788085938,795.7875366210938,799.8168334960938,794.5787353515625
458,798.2051391601562,793.7728881835938,798.2051391601562,793.3699340820312
459,791.3552856445312,792.967041015625,794.981689453125,794.5787353515625
460,796.1904907226562,796.996337890625,800.2197875976562,799.4139404296875
461,799.8168334960938,794.1758422851562,803.4432373046875,796.5933837890625
462,797.8021850585938,790.952392578125,799.8168334960938,797.3992919921875
463,794.5787353515625,792.1611938476562,802.6373901367188,800.6226806640625
464,791.7582397460938,788.937744140625,803.4432373046875,794.1758422851562
465,792.5640869140625,792.967041015625,801.8314819335938,790.1465454101562
466,793.3699340820312,798.6080322265625,805.8607788085938,790.952392578125
467,787.7289428710938,795.7875366210938,803.040283203125,791.7582397460938
468,790.952392578125,794.5787353515625,799.8168334960938,794.1758422851562
469,792.967041015625,794.1758422851562,800.2197875976562,794.1758422851562
470,787.3259887695312,795.3846435546875,798.6080322265625,797.3992919921875
471,789.7435913085938,797.8021850585938,798.6080322265625,807.87548828125
472,792.967041015625,796.5933837890625,802.6373901367188,804.2490844726562
473,786.923095703125,793.7728881835938,801.4285888671875,797.3992919921875
474,786.5201416015625,794.5787353515625,796.996337890625,801.025634765625
475,788.5347900390625,793.7728881835938,797.8021850585938,792.967041015625
476,796.996337890625,794.5787353515625,798.6080322265625,791.7582397460938
477,800.6226806640625,794.1758422851562,796.996337890625,805.054931640625
478,791.3552856445312,796.1904907226562,799.4139404296875,804.6520385742188
479,792.5640869140625,796.1904907226562,799.4139404296875,799.4139404296875
480,797.3992919921875,792.967041015625,796.996337890625,799.010986328125
481,798.6080322265625,790.1465454101562,797.8021850585938,799.4139404296875
482,798.2051391601562,789.3406372070312,801.8314819335938,803.040283203125
483,797.8021850585938,786.5201416015625,803.8461303710938,802.2344360351562
484,794.5787353515625,783.2966918945312,804.2490844726562,805.8607788085938
485,793.7728881835938,783.2966918945312,795.7875366210938,813.113525390625
486,788.937744140625,778.4615478515625,794.5787353515625,807.4725341796875
487,786.923095703125,775.6410522460938,804.2490844726562,803.4432373046875
488,788.937744140625,782.087890625,805.4578857421875,811.90478515625
489,784.1025390625,788.1318969726562,800.6226806640625,804.6520385742188
490,783.2966918945312,791.7582397460938,792.5640869140625,796.1904907226562
491,785.7142944335938,794.1758422851562,791.3552856445312,799.010986328125
492,780.0732421875,790.1465454101562,803.040283203125,794.1758422851562
493,776.0439453125,785.3113403320312,805.4578857421875,792.967041015625
494,784.5054931640625,789.7435913085938,797.3992919921875,796.1904907226562
495,786.5201416015625,791.7582397460938,795.3846435546875,790.5494384765625
496,782.893798828125,785.7142944335938,798.2051391601562,780.4761962890625
497,793.3699340820312,787.7289428710938,794.5787353515625,777.2527465820312
498,807.4725341796875,793.3699340820312,790.5494384765625,782.087890625
499,799.8168334960938,795.3846435546875,787.7289428710938,786.1171875
500,797.8021850585938,795.3846435546875,787.3259887695312,794.981689453125
501,799.4139404296875,794.981689453125,783.2966918945312,798.6080322265625
502,797.3992919921875,799.010986328125,784.5054931640625,790.5494384765625
503,797.8021850585938,799.4139404296875,794.1758422851562,791.7582397460938
504,798.6080322265625,799.8168334960938,797.3992919921875,794.1758422851562
505,798.2051391601562,802.2344360351562,799.4139404296875,790.952392578125
506,793.7728881835938,803.8461303710938,801.025634765625,790.5494384765625
507,793.7728881835938,794.981689453125,797.8021850585938,792.1611938476562
508,797.8021850585938,786.5201416015625,792.1611938476562,798.2051391601562
509,792.5640869140625,790.952392578125,791.3552856445312,800.6226806640625
510,789.7435913085938,795.3846435546875,799.4139404296875,799.8168334960938
511,788.937744140625,792.5640869140625,797.3992919921875,797.3992919921875
512,787.7289428710938,795.3846435546875,792.1611938476562,800.6226806640625
513,790.5494384765625,798.6080322265625,794.1758422851562,802.6373901367188
514,782.4908447265625,792.967041015625,795.3846435546875,795.3846435546875
515,783.6996459960938,789.7435913085938,795.7875366210938,799.4139404296875
516,792.5640869140625,793.7728881835938,794.981689453125,800.6226806640625
517,788.1318969726562,790.5494384765625,792.967041015625,791.7582397460938
518,790.952392578125,785.7142944335938,790.1465454101562,793.3699340820312
519,797.3992919921875,789.7435913085938,790.952392578125,799.4139404296875
520,794.5787353515625,792.5640869140625,797.3992919921875,799.010986328125
521,794.981689453125,796.1904907226562,794.981689453125,796.5933837890625
522,800.6226806640625,803.040283203125,790.952392578125,802.6373901367188
523,804.2490844726562,800.2197875976562,790.1465454101562,805.8607788085938
524,805.4578857421875,799.8168334960938,784.908447265625,799.4139404296875
525,805.4578857421875,805.054931640625,784.5054931640625,790.952392578125
526,805.4578857421875,801.025634765625,783.2966918945312,789.3406372070312
527,805.054931640625,798.6080322265625,783.6996459960938,779.6703491210938
528,805.4578857421875,804.6520385742188,787.3259887695312,784.908447265625
529,802.6373901367188,808.6813354492188,789.3406372070312,791.3552856445312
530,795.7875366210938,801.025634765625,787.7289428710938,785.7142944335938
531,791.3552856445312,794.5787353515625,786.5201416015625,790.5494384765625
532,794.981689453125,796.996337890625,788.1318969726562,788.5347900390625
533,793.7728881835938,796.5933837890625,789.3406372070312,781.6849975585938
534,781.2820434570312,792.1611938476562,790.952392578125,784.5054931640625
535,782.087890625,788.937744140625,792.967041015625,799.4139404296875
536,790.5494384765625,792.5640869140625,794.5787353515625,797.8021850585938
537,786.5201416015625,787.3259887695312,792.967041015625,783.6996459960938
538,783.2966918945312,786.923095703125,793.3699340820312,784.1025390625
539,782.4908447265625,792.967041015625,793.3699340820312,786.923095703125
540,778.05859375,792.967041015625,793.7728881835938,775.6410522460938
541,776.8497924804688,791.7582397460938,791.3552856445312,771.2088012695312
542,780.4761962890625,789.3406372070312,788.1318969726562,779.6703491210938
543,788.937744140625,791.7582397460938,788.1318969726562,786.5201416015625
544,785.7142944335938,789.7435913085938,788.1318969726562,784.5054931640625
545,785.3113403320312,792.1611938476562,789.3406372070312,783.6996459960938
546,787.3259887695312,794.981689453125,790.1465454101562,789.3406372070312
547,788.5347900390625,796.1904907226562,792.5640869140625,794.1758422851562
548,797.3992919921875,796.5933837890625,792.5640869140625,788.937744140625
549,799.8168334960938,796.5933837890625,788.5347900390625,788.5347900390625
550,795.3846435546875,796.1904907226562,788.937744140625,790.5494384765625
551,795.7875366210938,795.7875366210938,791.7582397460938,792.1611938476562
552,796.5933837890625,793.3699340820312,789.3406372070312,796.1904907226562
553,801.8314819335938,792.1611938476562,787.3259887695312,801.4285888671875
554,801.4285888671875,796.1904907226562,784.908447265625,808.2783813476562
555,788.1318969726562,795.3846435546875,785.7142944335938,792.5640869140625
556,786.923095703125,795.3846435546875,791.3552856445312,784.1025390625
557,790.5494384765625,798.2051391601562,788.1318969726562,786.1171875
558,793.3699340820312,794.981689453125,787.7289428710938,793.7728881835938
559,791.3552856445312,792.5640869140625,792.5640869140625,793.7728881835938
560,784.908447265625,799.4139404296875,790.5494384765625,784.908447265625
561,784.908447265625,799.8168334960938,785.7142944335938,790.5494384765625
562,784.5054931640625,794.1758422851562,783.2966918945312,786.5201416015625
563,785.3113403320312,791.3552856445312,786.5201416015625,778.4615478515625
564,790.5494384765625,794.981689453125,790.952392578125,776.8497924804688
565,788.937744140625,790.952392578125,790.5494384765625,773.2234497070312
566,780.0732421875,787.3259887695312,794.5787353515625,773.6264038085938
567,781.2820434570312,793.3699340820312,800.2197875976562,782.893798828125
568,787.3259887695312,793.7728881835938,792.5640869140625,784.5054931640625
569,788.1318969726562,788.1318969726562,794.5787353515625,782.4908447265625
570,790.5494384765625,788.937744140625,800.6226806640625,790.5494384765625
571,787.3259887695312,789.7435913085938,799.010986328125,784.908447265625
572,782.4908447265625,788.5347900390625,797.8021850585938,776.8497924804688
573,792.5640869140625,794.1758422851562,798.2051391601562,787.3259887695312
574,797.8021850585938,799.4139404296875,796.996337890625,792.1611938476562
575,796.1904907226562,799.4139404296875,797.8021850585938,791.7582397460938
576,799.8168334960938,797.8021850585938,795.3846435546875,787.3259887695312
577,802.6373901367188,799.4139404296875,792.967041015625,786.923095703125
578,798.6080322265625,801.4285888671875,794.981689453125,789.7435913085938
579,795.7875366210938,798.2051391601562,793.7728881835938,790.1465454101562
580,800.6226806640625,801.025634765625,791.7582397460938,788.1318969726562
581,800.6226806640625,799.010986328125,790.1465454101562,793.3699340820312
582,799.8168334960938,798.2051391601562,795.7875366210938,794.981689453125
583,801.8314819335938,800.2197875976562,799.4139404296875,790.5494384765625
584,795.3846435546875,790.952392578125,800.6226806640625,788.1318969726562
585,794.5787353515625,790.1465454101562,799.010986328125,789.3406372070312
586,797.3992919921875,792.1611938476562,795.7875366210938,792.967041015625
587,791.7582397460938,791.3552856445312,796.1904907226562,798.2051391601562
588,796.1904907226562,794.5787353515625,798.6080322265625,805.8607788085938
589,793.3699340820312,798.2051391601562,801.8314819335938,805.4578857421875
590,792.1611938476562,797.3992919921875,799.010986328125,797.8021850585938
591,796.1904907226562,793.7728881835938,793.7728881835938,790.1465454101562
592,794.5787353515625,791.3552856445312,794.981689453125,796.1904907226562
593,798.2051391601562,790.5494384765625,798.2051391601562,801.8314819335938
594,798.2051391601562,786.1171875,795.3846435546875,793.7728881835938
595,797.3992919921875,790.1465454101562,795.7875366210938,792.1611938476562
596,795.3846435546875,787.7289428710938,797.8021850585938,794.981689453125
597,789.3406372070312,788.5347900390625,800.6226806640625,795.3846435546875
598,787.3259887695312,792.967041015625,801.025634765625,790.952392578125
599,790.5494384765625,790.5494384765625,802.2344360351562,791.7582397460938
600,785.3113403320312,793.7728881835938,803.4432373046875,791.3552856445312
601,780.0732421875,794.5787353515625,798.6080322265625,787.7289428710938
602,778.4615478515625,792.967041015625,799.4139404296875,790.952392578125
603,785.3113403320312,787.7289428710938,799.8168334960938,799.8168334960938
604,799.8168334960938,788.937744140625,798.2051391601562,803.4432373046875
605,797.8021850585938,794.981689453125,794.1758422851562,788.5347900390625
606,795.3846435546875,794.1758422851562,791.7582397460938,786.5201416015625
607,788.937744140625,785.3113403320312,794.5787353515625,789.3406372070312
608,786.1171875,783.2966918945312,793.7728881835938,789.3406372070312
609,794.5787353515625,786.5201416015625,789.3406372070312,790.5494384765625
610,796.5933837890625,786.5201416015625,792.1611938476562,788.937744140625
611,790.952392578125,782.087890625,790.952392578125,790.1465454101562
612,786.1171875,782.893798828125,787.3259887695312,789.7435913085938
613,780.879150390625,786.1171875,789.3406372070312,786.5201416015625
614,781.2820434570312,788.5347900390625,794.1758422851562,793.3699340820312
615,785.3113403320312,790.5494384765625,799.010986328125,802.2344360351562
616,782.087890625,789.3406372070312,796.1904907226562,801.4285888671875
617,780.879150390625,782.4908447265625,793.7728881835938,794.981689453125
618,777.6557006835938,780.879150390625,796.996337890625,791.7582397460938
619,775.6410522460938,790.952392578125,794.1758422851562,800.2197875976562
620,777.2527465820312,788.937744140625,789.7435913085938,805.054931640625
621,776.8497924804688,795.3846435546875,792.5640869140625,796.5933837890625
622,781.2820434570312,794.981689453125,793.3699340820312,793.7728881835938
623,788.1318969726562,786.1171875,791.7582397460938,793.7728881835938
624,792.1611938476562,788.937744140625,794.981689453125,785.3113403320312
625,795.7875366210938,794.1758422851562,796.5933837890625,784.5054931640625
626,795.3846435546875,794.5787353515625,790.5494384765625,786.5201416015625
627,800.2197875976562,786.923095703125,790.952392578125,788.5347900390625
628,807.87548828125,790.1465454101562,792.5640869140625,794.981689453125
629,805.4578857421875,796.996337890625,787.7289428710938,791.3552856445312
630,803.8461303710938,797.3992919921875,789.3406372070312,792.1611938476562
631,805.8607788085938,794.981689453125,794.5787353515625,804.2490844726562
632,804.6520385742188,796.996337890625,797.3992919921875,801.025634765625
633,803.8461303710938,802.6373901367188,795.7875366210938,794.5787353515625
634,806.2637329101562,801.8314819335938,793.7728881835938,801.025634765625
635,804.6520385742188,797.8021850585938,790.5494384765625,806.6666870117188
636,806.6666870117188,799.010986328125,794.1758422851562,810.2930297851562
637,804.2490844726562,801.025634765625,801.8314819335938,809.4871826171875
638,799.010986328125,795.7875366210938,799.8168334960938,806.6666870117188
639,794.981689453125,787.7289428710938,797.8021850585938,805.4578857421875
640,788.937744140625,788.937744140625,797.8021850585938,799.8168334960938
641,787.3259887695312,790.1465454101562,792.5640869140625,799.4139404296875
642,783.6996459960938,786.923095703125,790.5494384765625,801.8314819335938
643,775.2380981445312,784.1025390625,794.5787353515625,799.4139404296875
644,770.4029541015625,780.4761962890625,794.5787353515625,798.2051391601562
645,772.4176025390625,776.4468994140625,792.967041015625,798.2051391601562
646,776.0439453125,780.0732421875,791.3552856445312,798.6080322265625
647,775.2380981445312,786.5201416015625,792.967041015625,803.040283203125
648,776.0439453125,786.5201416015625,796.1904907226562,797.3992919921875
649,782.4908447265625,783.2966918945312,798.2051391601562,788.5347900390625
650,791.7582397460938,786.5201416015625,793.7728881835938,785.7142944335938
651,796.996337890625,791.7582397460938,791.7582397460938,777.6557006835938
652,799.010986328125,796.5933837890625,792.967041015625,774.4322509765625
653,792.1611938476562,792.967041015625,790.1465454101562,775.2380981445312
654,788.1318969726562,787.3259887695312,786.923095703125,776.0439453125
655,791.3552856445312,790.952392578125,787.7289428710938,779.2673950195312
656,791.3552856445312,788.937744140625,788.5347900390625,776.8497924804688
657,795.7875366210938,784.5054931640625,786.923095703125,776.4468994140625
658,797.8021850585938,791.7582397460938,787.7289428710938,778.05859375
659,797.8021850585938,794.1758422851562,790.952392578125,782.4908447265625
660,800.6226806640625,797.8021850585938,792.5640869140625,790.5494384765625
661,802.6373901367188,797.8021850585938,792.5640869140625,793.3699340820312
662,805.054931640625,792.5640869140625,798.6080322265625,796.1904907226562
663,798.6080322265625,790.5494384765625,797.8021850585938,799.010986328125
664,789.3406372070312,795.3846435546875,794.5787353515625,794.981689453125
665,788.5347900390625,796.1904907226562,799.8168334960938,793.7728881835938
666,788.5347900390625,792.1611938476562,802.6373901367188,803.8461303710938
667,785.7142944335938,797.3992919921875,806.6666870117188,801.025634765625
668,784.1025390625,795.3846435546875,805.054931640625,793.3699340820312
669,782.087890625,792.967041015625,799.8168334960938,795.7875366210938
670,782.087890625,796.996337890625,802.6373901367188,797.8021850585938
671,789.7435913085938,801.025634765625,801.8314819335938,792.5640869140625
672,785.3113403320312,796.5933837890625,794.1758422851562,787.7289428710938
673,774.4322509765625,790.1465454101562,796.996337890625,788.1318969726562
674,779.6703491210938,792.1611938476562,796.5933837890625,792.1611938476562
675,784.1025390625,789.7435913085938,795.3846435546875,786.923095703125
676,786.5201416015625,784.5054931640625,796.5933837890625,777.6557006835938
677,794.1758422851562,790.5494384765625,798.2051391601562,789.7435913085938
678,791.3552856445312,794.5787353515625,799.8168334960938,791.3552856445312
679,792.5640869140625,792.967041015625,796.996337890625,785.3113403320312
680,794.1758422851562,794.1758422851562,797.3992919921875,779.2673950195312
681,785.7142944335938,795.7875366210938,798.6080322265625,776.0439453125
682,790.5494384765625,796.5933837890625,800.6226806640625,785.7142944335938
683,796.996337890625,800.6226806640625,797.3992919921875,788.5347900390625
684,794.981689453125,802.6373901367188,792.967041015625,788.5347900390625
685,786.923095703125,801.4285888671875,796.5933837890625,793.3699340820312
686,786.923095703125,799.4139404296875,797.8021850585938,793.3699340820312
687,796.5933837890625,798.2051391601562,797.3992919921875,791.7582397460938
688,795.7875366210938,793.7728881835938,792.967041015625,793.7728881835938
689,790.5494384765625,792.1611938476562,788.937744140625,794.5787353515625
690,783.6996459960938,792.967041015625,795.3846435546875,790.5494384765625
691,778.4615478515625,788.5347900390625,794.981689453125,786.1171875
692,782.893798828125,794.5787353515625,796.5933837890625,790.952392578125
693,789.7435913085938,799.8168334960938,797.3992919921875,794.5787353515625
694,789.7435913085938,797.8021850585938,790.952392578125,788.1318969726562
695,786.923095703125,796.1904907226562,790.952392578125,790.952392578125
696,795.3846435546875,795.7875366210938,793.7728881835938,803.8461303710938
697,805.8607788085938,800.6226806640625,797.8021850585938,807.069580078125
698,801.8314819335938,802.6373901367188,800.2197875976562,804.2490844726562
699,793.3699340820312,794.5787353515625,800.2197875976562,801.025634765625
700,790.952392578125,792.5640869140625,791.3552856445312,795.7875366210938
701,791.7582397460938,795.7875366210938,793.3699340820312,794.5787353515625
702,793.3699340820312,794.1758422851562,799.8168334960938,791.7582397460938
703,796.996337890625,790.952392578125,799.4139404296875,792.967041015625
704,801.025634765625,792.5640869140625,802.6373901367188,798.6080322265625
705,799.8168334960938,800.2197875976562,803.4432373046875,796.996337890625
706,799.010986328125,804.2490844726562,798.6080322265625,794.5787353515625
707,801.4285888671875,801.4285888671875,797.8021850585938,796.5933837890625
708,799.010986328125,798.2051391601562,803.040283203125,798.6080322265625
709,794.1758422851562,798.6080322265625,800.6226806640625,803.040283203125
710,796.1904907226562,796.996337890625,796.1904907226562,802.6373901367188
711,792.5640869140625,793.3699340820312,791.3552856445312,798.6080322265625
712,791.3552856445312,795.7875366210938,789.7435913085938,805.8607788085938
713,796.996337890625,796.5933837890625,795.7875366210938,808.6813354492188
714,790.1465454101562,788.937744140625,798.2051391601562,804.6520385742188
715,785.7142944335938,786.5201416015625,796.1904907226562,807.87548828125
716,785.7142944335938,793.7728881835938,800.6226806640625,807.87548828125
717,788.5347900390625,793.7728881835938,799.4139404296875,802.2344360351562
718,792.5640869140625,787.7289428710938,799.8168334960938,807.87548828125
719,790.952392578125,784.908447265625,800.6226806640625,801.025634765625
720,785.3113403320312,784.908447265625,788.937744140625,780.0732421875
721,790.5494384765625,788.1318969726562,786.5201416015625,788.1318969726562
722,790.1465454101562,786.923095703125,789.7435913085938,795.7875366210938
723,789.3406372070312,786.5201416015625,790.1465454101562,797.8021850585938
724,794.1758422851562,792.967041015625,794.1758422851562,799.8168334960938
725,788.937744140625,796.1904907226562,793.3699340820312,785.7142944335938
726,787.7289428710938,796.5933837890625,789.7435913085938,786.1171875
727,796.996337890625,797.8021850585938,790.952392578125,794.981689453125
728,798.6080322265625,800.6226806640625,789.3406372070312,793.7728881835938
729,791.7582397460938,795.7875366210938,787.7289428710938,791.3552856445312
730,791.7582397460938,795.3846435546875,786.923095703125,792.1611938476562
731,792.1611938476562,796.996337890625,784.908447265625,793.3699340820312
732,791.7582397460938,795.7875366210938,786.923095703125,791.7582397460938
733,785.7142944335938,792.5640869140625,788.5347900390625,785.3113403320312
734,785.7142944335938,786.923095703125,790.5494384765625,786.1171875
735,786.923095703125,787.3259887695312,790.5494384765625,788.937744140625
736,778.4615478515625,789.7435913085938,794.1758422851562,790.1465454101562
737,774.8351440429688,784.5054931640625,796.5933837890625,782.087890625
738,775.2380981445312,779.2673950195312,789.3406372070312,778.4615478515625
739,777.2527465820312,777.2527465820312,786.1171875,793.3699340820312
740,778.4615478515625,784.1025390625,792.5640869140625,792.1611938476562
741,781.6849975585938,792.1611938476562,792.5640869140625,794.5787353515625
742,785.3113403320312,792.5640869140625,789.3406372070312,794.981689453125
743,788.1318969726562,790.952392578125,795.3846435546875,784.5054931640625
744,795.3846435546875,786.5201416015625,798.2051391601562,783.2966918945312
745,793.3699340820312,789.7435913085938,798.2051391601562,787.7289428710938
746,789.3406372070312,796.996337890625,802.2344360351562,791.7582397460938
747,789.3406372070312,796.1904907226562,808.2783813476562,789.7435913085938
748,783.6996459960938,784.908447265625,803.4432373046875,788.1318969726562
749,780.879150390625,786.1171875,801.4285888671875,790.1465454101562
750,778.4615478515625,791.7582397460938,799.4139404296875,794.981689453125
751,778.05859375,793.7728881835938,797.3992919921875,792.967041015625
752,784.5054931640625,797.3992919921875,804.6520385742188,786.1171875
753,790.1465454101562,796.5933837890625,805.4578857421875,784.1025390625
754,789.7435913085938,796.5933837890625,803.040283203125,786.5201416015625
755,787.7289428710938,799.4139404296875,800.2197875976562,795.7875366210938
756,785.3113403320312,797.3992919921875,797.3992919921875,798.6080322265625
757,790.952392578125,791.7582397460938,797.8021850585938,794.5787353515625
758,796.1904907226562,793.7728881835938,792.1611938476562,792.5640869140625
759,794.981689453125,799.010986328125,791.7582397460938,792.5640869140625
760,793.7728881835938,801.025634765625,795.3846435546875,793.7728881835938
761,793.7728881835938,800.2197875976562,796.5933837890625,794.1758422851562
762,793.3699340820312,795.3846435546875,794.981689453125,804.6520385742188
763,788.5347900390625,794.1758422851562,797.3992919921875,799.010986328125
764,792.1611938476562,793.7728881835938,797.3992919921875,790.5494384765625
765,799.010986328125,792.967041015625,789.3406372070312,800.2197875976562
766,795.3846435546875,795.3846435546875,788.1318969726562,796.5933837890625
767,790.5494384765625,794.1758422851562,789.7435913085938,789.3406372070312
768,792.5640869140625,792.5640869140625,790.952392578125,786.5201416015625
769,796.1904907226562,793.7728881835938,792.1611938476562,785.3113403320312
770,790.1465454101562,796.5933837890625,790.952392578125,791.7582397460938
771,782.087890625,793.7728881835938,792.5640869140625,789.3406372070312
772,782.893798828125,791.3552856445312,790.952392578125,783.6996459960938
773,784.5054931640625,793.3699340820312,786.5201416015625,789.3406372070312
774,788.1318969726562,796.5933837890625,790.5494384765625,795.3846435546875
775,795.3846435546875,794.981689453125,793.3699340820312,796.5933837890625
776,795.3846435546875,793.7728881835938,791.7582397460938,795.3846435546875
777,786.923095703125,788.937744140625,793.7728881835938,792.967041015625
778,789.7435913085938,782.087890625,794.1758422851562,790.5494384765625
779,793.7728881835938,786.923095703125,792.967041015625,785.3113403320312
780,794.981689453125,794.1758422851562,793.3699340820312,789.3406372070312
781,793.7728881835938,790.5494384765625,796.1904907226562,792.967041015625
782,797.3992919921875,792.5640869140625,795.7875366210938,798.6080322265625
783,800.6226806640625,793.3699340820312,797.3992919921875,802.6373901367188
784,794.1758422851562,787.7289428710938,794.5787353515625,801.8314819335938
785,795.3846435546875,789.7435913085938,793.7728881835938,814.7252807617188
786,801.4285888671875,794.1758422851562,801.4285888671875,811.098876953125
787,799.8168334960938,792.5640869140625,799.8168334960938,793.3699340820312
788,802.6373901367188,794.1758422851562,794.1758422851562,794.981689453125
789,812.3076782226562,801.4285888671875,797.8021850585938,796.5933837890625
790,812.3076782226562,801.8314819335938,794.981689453125,787.7289428710938
791,808.2783813476562,797.8021850585938,794.5787353515625,791.3552856445312
792,807.87548828125,802.2344360351562,799.8168334960938,799.4139404296875
793,802.2344360351562,802.6373901367188,798.2051391601562,792.1611938476562
794,800.6226806640625,800.6226806640625,798.2051391601562,784.5054931640625
795,798.2051391601562,797.8021850585938,797.8021850585938,788.5347900390625
796,792.1611938476562,798.2051391601562,798.2051391601562,793.7728881835938
797,790.5494384765625,798.6080322265625,800.6226806640625,792.967041015625
798,787.7289428710938,798.2051391601562,799.4139404296875,792.5640869140625
799,785.3113403320312,803.040283203125,796.5933837890625,786.1171875
800,785.7142944335938,799.8168334960938,796.996337890625,779.6703491210938
801,783.6996459960938,797.8021850585938,798.6080322265625,782.4908447265625
802,785.7142944335938,796.1904907226562,799.8168334960938,783.6996459960938
803,782.087890625,795.7875366210938,797.8021850585938,786.5201416015625
804,782.4908447265625,798.6080322265625,799.010986328125,799.8168334960938
805,786.923095703125,799.8168334960938,803.040283203125,797.8021850585938
806,783.6996459960938,791.7582397460938,802.2344360351562,786.1171875
807,783.2966918945312,786.5201416015625,804.6520385742188,787.3259887695312
808,778.05859375,787.3259887695312,801.025634765625,795.7875366210938
809,779.6703491210938,790.1465454101562,797.3992919921875,793.3699340820312
810,792.5640869140625,794.5787353515625,796.1904907226562,792.1611938476562
811,794.5787353515625,793.3699340820312,792.1611938476562,790.5494384765625
812,790.5494384765625,790.5494384765625,795.7875366210938,787.7289428710938
813,789.7435913085938,795.3846435546875,794.1758422851562,784.1025390625
814,794.1758422851562,796.996337890625,794.1758422851562,788.1318969726562
815,801.025634765625,795.7875366210938,797.8021850585938,795.7875366210938
816,806.2637329101562,798.6080322265625,799.010986328125,794.5787353515625
817,803.040283203125,802.6373901367188,799.010986328125,794.1758422851562
818,794.5787353515625,799.8168334960938,796.1904907226562,792.1611938476562
819,794.1758422851562,796.1904907226562,791.3552856445312,784.1025390625
820,801.4285888671875,796.996337890625,789.7435913085938,783.2966918945312
821,809.084228515625,796.1904907226562,790.5494384765625,785.3113403320312
822,806.2637329101562,797.8021850585938,788.937744140625,783.6996459960938
823,799.010986328125,801.4285888671875,785.7142944335938,786.923095703125
824,790.1465454101562,801.8314819335938,784.908447265625,780.0732421875
825,786.923095703125,794.1758422851562,792.1611938476562,780.4761962890625
826,791.3552856445312,789.3406372070312,793.7728881835938,794.1758422851562
827,790.5494384765625,787.7289428710938,794.5787353515625,797.3992919921875
828,789.3406372070312,788.5347900390625,799.8168334960938,794.981689453125
829,789.3406372070312,791.7582397460938,799.4139404296875,795.3846435546875
830,790.5494384765625,792.5640869140625,797.3992919921875,794.5787353515625
831,794.981689453125,791.7582397460938,794.1758422851562,793.7728881835938
832,797.3992919921875,790.1465454101562,792.5640869140625,791.3552856445312
833,801.025634765625,790.5494384765625,799.010986328125,785.7142944335938
834,799.8168334960938,786.5201416015625,799.010986328125,790.5494384765625
835,796.996337890625,789.3406372070312,797.3992919921875,801.8314819335938
836,792.967041015625,794.5787353515625,798.6080322265625,801.025634765625
837,792.967041015625,792.967041015625,796.5933837890625,794.5787353515625
838,797.3992919921875,791.7582397460938,794.5787353515625,793.3699340820312
839,799.4139404296875,797.8021850585938,794.1758422851562,800.6226806640625
840,800.2197875976562,799.4139404296875,793.3699340820312,802.2344360351562
841,797.3992919921875,793.7728881835938,794.1758422851562,799.4139404296875
842,799.4139404296875,790.5494384765625,791.3552856445312,799.010986328125
843,803.4432373046875,790.5494384765625,784.1025390625,798.6080322265625
844,796.1904907226562,790.952392578125,786.1171875,789.3406372070312
845,787.3259887695312,790.952392578125,790.5494384765625,780.0732421875
846,788.1318969726562,786.5201416015625,790.1465454101562,788.5347900390625
847,786.923095703125,790.952392578125,792.5640869140625,789.3406372070312
848,785.3113403320312,793.7728881835938,791.7582397460938,783.6996459960938
849,784.1025390625,790.5494384765625,790.1465454101562,787.7289428710938
850,785.7142944335938,790.5494384765625,792.5640869140625,794.981689453125
851,791.7582397460938,789.7435913085938,793.3699340820312,793.7728881835938
852,794.5787353515625,786.5201416015625,788.5347900390625,792.5640869140625
853,796.1904907226562,790.5494384765625,788.1318969726562,796.1904907226562
854,795.7875366210938,791.7582397460938,789.3406372070312,793.7728881835938
855,794.981689453125,785.3113403320312,787.3259887695312,788.937744140625
856,791.7582397460938,785.3113403320312,786.1171875,792.967041015625
857,795.3846435546875,782.4908447265625,791.7582397460938,797.8021850585938
858,798.2051391601562,784.908447265625,794.5787353515625,804.2490844726562
859,793.3699340820312,790.952392578125,793.7728881835938,799.4139404296875
860,793.3699340820312,786.5201416015625,791.3552856445312,791.7582397460938
861,793.7728881835938,786.5201416015625,788.937744140625,794.5787353515625
862,796.1904907226562,789.7435913085938,788.937744140625,792.967041015625
863,796.5933837890625,786.5201416015625,791.3552856445312,793.3699340820312
864,790.952392578125,787.7289428710938,792.1611938476562,803.4432373046875
865,794.1758422851562,794.5787353515625,789.7435913085938,802.6373901367188
866,794.981689453125,794.5787353515625,792.967041015625,788.937744140625
867,790.5494384765625,797.3992919921875,790.952392578125,792.967041015625
868,795.7875366210938,795.3846435546875,793.7728881835938,802.2344360351562
869,796.996337890625,788.937744140625,794.981689453125,800.6226806640625
870,790.952392578125,793.3699340820312,791.3552856445312,796.5933837890625
871,794.981689453125,797.8021850585938,792.967041015625,794.5787353515625
872,797.3992919921875,789.7435913085938,793.7728881835938,791.7582397460938
873,794.981689453125,787.7289428710938,793.3699340820312,788.5347900390625
874,791.7582397460938,794.981689453125,792.5640869140625,786.1171875
875,794.981689453125,796.1904907226562,794.981689453125,790.1465454101562
876,797.8021850585938,795.7875366210938,793.7728881835938,793.3699340820312
877,793.3699340820312,791.7582397460938,790.1465454101562,791.7582397460938
878,792.1611938476562,790.5494384765625,788.5347900390625,788.1318969726562
879,794.5787353515625,793.3699340820312,791.3552856445312,790.5494384765625
880,799.010986328125,790.952392578125,792.967041015625,794.1758422851562
881,803.8461303710938,789.3406372070312,789.3406372070312,801.8314819335938
882,798.6080322265625,795.3846435546875,793.7728881835938,796.1904907226562
883,793.7728881835938,798.6080322265625,799.8168334960938,786.923095703125
884,793.3699340820312,797.8021850585938,797.3992919921875,784.5054931640625
885,787.3259887695312,793.7728881835938,790.952392578125,778.4615478515625
886,783.2966918945312,796.5933837890625,794.5787353515625,780.0732421875
887,784.908447265625,798.6080322265625,798.6080322265625,783.6996459960938
888,779.6703491210938,792.5640869140625,793.7728881835938,779.2673950195312
889,780.4761962890625,795.7875366210938,798.6080322265625,779.6703491210938
890,787.3259887695312,796.996337890625,798.2051391601562,782.087890625
891,785.7142944335938,787.3259887695312,796.996337890625,782.4908447265625
892,786.5201416015625,786.5201416015625,794.5787353515625,787.7289428710938
893,791.7582397460938,786.923095703125,790.5494384765625,790.1465454101562
894,791.3552856445312,786.1171875,793.7728881835938,787.3259887695312
895,782.087890625,791.3552856445312,790.5494384765625,781.2820434570312
896,781.2820434570312,792.1611938476562,795.3846435546875,785.7142944335938
897,789.3406372070312,791.3552856445312,799.8168334960938,789.7435913085938
898,792.1611938476562,792.1611938476562,798.6080322265625,790.952392578125
899,784.1025390625,788.1318969726562,798.6080322265625,787.3259887695312
900,782.4908447265625,784.1025390625,800.2197875976562,781.2820434570312
901,786.923095703125,784.1025390625,798.6080322265625,779.6703491210938
902,790.952392578125,786.923095703125,790.1465454101562,783.2966918945312
903,798.6080322265625,791.7582397460938,788.5347900390625,792.1611938476562
904,797.3992919921875,797.8021850585938,793.7728881835938,795.7875366210938
905,796.996337890625,800.6226806640625,794.981689453125,791.7582397460938
906,796.1904907226562,796.1904907226562,792.967041015625,787.7289428710938
907,787.7289428710938,788.1318969726562,792.5640869140625,793.3699340820312
908,786.1171875,788.1318969726562,793.7728881835938,796.996337890625
909,784.5054931640625,792.967041015625,790.1465454101562,796.996337890625
910,781.2820434570312,792.967041015625,789.7435913085938,799.8168334960938
911,782.087890625,788.937744140625,793.7728881835938,800.2197875976562
912,785.7142944335938,783.2966918945312,790.5494384765625,794.981689453125
913,786.923095703125,781.6849975585938,792.1611938476562,789.7435913085938
914,788.1318969726562,786.923095703125,792.967041015625,780.879150390625
915,790.5494384765625,789.3406372070312,790.952392578125,783.2966918945312
916,786.5201416015625,791.7582397460938,791.3552856445312,796.996337890625
917,784.5054931640625,798.2051391601562,796.5933837890625,794.5787353515625
918,791.7582397460938,802.2344360351562,798.2051391601562,788.1318969726562
919,797.8021850585938,792.1611938476562,797.3992919921875,796.5933837890625
920,794.1758422851562,785.7142944335938,800.2197875976562,799.010986328125
921,789.7435913085938,792.1611938476562,799.4139404296875,792.5640869140625
922,793.7728881835938,792.5640869140625,794.981689453125,792.5640869140625
923,793.7728881835938,790.952392578125,791.3552856445312,792.1611938476562
924,789.7435913085938,791.7582397460938,794.1758422851562,791.3552856445312
925,788.1318969726562,790.952392578125,796.1904907226562,788.5347900390625
926,788.1318969726562,787.3259887695312,791.3552856445312,778.8644409179688
927,791.3552856445312,787.3259887695312,789.7435913085938,782.4908447265625
928,792.1611938476562,788.937744140625,789.3406372070312,792.1611938476562
929,789.3406372070312,792.1611938476562,788.937744140625,791.7582397460938
930,792.967041015625,790.952392578125,791.7582397460938,791.3552856445312
931,791.7582397460938,787.3259887695312,793.3699340820312,791.3552856445312
932,785.3113403320312,790.5494384765625,790.952392578125,792.1611938476562
933,788.937744140625,792.967041015625,793.3699340820312,795.7875366210938
934,787.3259887695312,789.3406372070312,793.7728881835938,792.967041015625
935,779.2673950195312,788.937744140625,794.981689453125,788.937744140625
936,780.4761962890625,793.7728881835938,796.1904907226562,789.3406372070312
937,781.6849975585938,794.5787353515625,797.3992919921875,790.952392578125
938,786.1171875,788.937744140625,798.2051391601562,792.1611938476562
939,791.3552856445312,787.3259887695312,792.967041015625,796.1904907226562
940,788.5347900390625,789.3406372070312,792.967041015625,794.1758422851562
941,783.6996459960938,789.7435913085938,796.5933837890625,790.5494384765625
942,787.3259887695312,788.1318969726562,794.5787353515625,797.8021850585938
943,792.5640869140625,788.5347900390625,794.5787353515625,794.1758422851562
944,795.3846435546875,786.923095703125,791.7582397460938,790.1465454101562
945,791.3552856445312,788.5347900390625,788.1318969726562,789.7435913085938
946,787.3259887695312,794.1758422851562,794.5787353515625,791.7582397460938
947,788.5347900390625,797.3992919921875,797.8021850585938,794.5787353515625
948,784.1025390625,790.952392578125,795.7875366210938,782.087890625
949,785.7142944335938,788.1318969726562,794.5787353515625,780.4761962890625
950,789.7435913085938,789.7435913085938,794.981689453125,790.1465454101562
951,789.3406372070312,792.1611938476562,793.7728881835938,791.3552856445312
952,794.981689453125,800.6226806640625,796.1904907226562,795.3846435546875
953,792.5640869140625,793.7728881835938,792.967041015625,800.2197875976562
954,792.967041015625,790.1465454101562,789.7435913085938,805.8607788085938
955,798.6080322265625,794.981689453125,797.3992919921875,803.040283203125
956,795.7875366210938,790.952392578125,800.6226806640625,796.996337890625
957,792.967041015625,782.4908447265625,792.967041015625,794.981689453125
958,798.6080322265625,787.7289428710938,792.967041015625,795.7875366210938
959,800.2197875976562,796.996337890625,798.6080322265625,796.1904907226562
960,796.5933837890625,795.3846435546875,800.6226806640625,792.5640869140625
961,795.7875366210938,792.967041015625,796.996337890625,789.3406372070312
962,790.5494384765625,788.1318969726562,794.981689453125,782.893798828125
963,797.3992919921875,786.1171875,794.1758422851562,782.4908447265625
964,803.040283203125,790.952392578125,796.5933837890625,795.7875366210938
965,796.1904907226562,792.967041015625,795.7875366210938,803.4432373046875
966,794.5787353515625,794.1758422851562,789.3406372070312,802.6373901367188
967,798.6080322265625,790.952392578125,793.7728881835938,792.967041015625
968,799.4139404296875,787.3259887695312,796.5933837890625,785.7142944335938
969,796.5933837890625,789.7435913085938,794.1758422851562,792.5640869140625
970,793.3699340820312,786.1171875,794.1758422851562,799.010986328125
971,791.7582397460938,791.3552856445312,796.5933837890625,803.040283203125
972,792.5640869140625,801.8314819335938,799.4139404296875,805.054931640625
973,795.7875366210938,805.054931640625,801.4285888671875,803.8461303710938
974,800.2197875976562,800.6226806640625,801.8314819335938,801.4285888671875
975,799.010986328125,791.3552856445312,798.6080322265625,801.4285888671875
976,796.5933837890625,792.5640869140625,798.2051391601562,804.6520385742188
977,799.8168334960938,797.3992919921875,801.4285888671875,801.8314819335938
978,800.2197875976562,793.7728881835938,801.8314819335938,798.6080322265625
979,799.010986328125,793.7728881835938,800.2197875976562,793.7728881835938
980,799.4139404296875,797.8021850585938,800.2197875976562,794.981689453125
981,795.7875366210938,796.5933837890625,795.3846435546875,792.967041015625
982,795.3846435546875,794.1758422851562,794.981689453125,786.923095703125
983,799.8168334960938,789.7435913085938,802.2344360351562,786.923095703125
984,803.8461303710938,786.923095703125,797.3992919921875,794.5787353515625
985,799.4139404296875,786.923095703125,791.7582397460938,793.3699340820312
986,796.996337890625,789.3406372070312,798.6080322265625,784.908447265625
987,798.6080322265625,789.7435913085938,796.5933837890625,786.1171875
988,799.010986328125,785.3113403320312,790.5494384765625,788.937744140625
989,792.967041015625,788.1318969726562,791.7582397460938,779.2673950195312
990,787.7289428710938,791.7582397460938,795.3846435546875,774.8351440429688
991,794.1758422851562,792.1611938476562,796.5933837890625,788.5347900390625
992,793.3699340820312,793.7728881835938,796.5933837890625,794.5787353515625
993,787.7289428710938,795.3846435546875,794.5787353515625,789.3406372070312
994,790.1465454101562,796.5933837890625,791.3552856445312,790.5494384765625
995,794.5787353515625,797.8021850585938,791.3552856445312,791.7582397460938
996,796.996337890625,797.3992919921875,793.3699340820312,790.1465454101562
997,800.6226806640625,792.967041015625,792.967041015625,790.952392578125
998,795.3846435546875,793.7728881835938,790.1465454101562,790.1465454101562
999,794.981689453125,792.1611938476562,790.952392578125,794.5787353515625
1000,800.6226806640625,790.952392578125,791.3552856445312,800.6226806640625
1001,797.8021850585938,791.3552856445312,795.7875366210938,793.3699340820312
1002,792.967041015625,794.981689453125,798.6080322265625,793.7728881835938
1003,787.7289428710938,792.967041015625,795.3846435546875,805.054931640625
1004,792.1611938476562,790.5494384765625,798.6080322265625,812.3076782226562
1005,788.1318969726562,792.5640869140625,798.6080322265625,801.4285888671875
1006,785.3113403320312,794.5787353515625,797.8021850585938,791.3552856445312
1007,794.1758422851562,792.1611938476562,798.6080322265625,787.3259887695312
1008,792.5640869140625,787.3259887695312,798.2051391601562,783.2966918945312
1009,786.5201416015625,782.893798828125,798.2051391601562,783.6996459960938
1010,783.2966918945312,784.908447265625,796.5933837890625,786.923095703125
1011,783.6996459960938,790.5494384765625,797.3992919921875,794.981689453125
1012,782.087890625,793.7728881835938,797.8021850585938,796.1904907226562
1013,782.087890625,792.967041015625,801.8314819335938,788.1318969726562
1014,782.087890625,790.5494384765625,799.4139404296875,788.1318969726562
1015,784.1025390625,788.5347900390625,792.1611938476562,796.996337890625
1016,787.3259887695312,790.5494384765625,791.3552856445312,790.5494384765625
1017,786.923095703125,788.1318969726562,794.1758422851562,784.908447265625
1018,791.7582397460938,784.5054931640625,797.8021850585938,786.5201416015625
1019,796.996337890625,786.5201416015625,803.4432373046875,790.5494384765625
1020,797.3992919921875,794.981689453125,805.054931640625,797.8021850585938
1021,796.996337890625,795.7875366210938,802.6373901367188,797.8021850585938
1022,799.010986328125,787.7289428710938,800.6226806640625,795.3846435546875
1023,796.5933837890625,785.7142944335938,798.6080322265625,795.7875366210938
1024,791.7582397460938,795.3846435546875,802.2344360351562,800.2197875976562
1025,793.7728881835938,799.8168334960938,802.6373901367188,798.2051391601562
1026,793.7728881835938,796.5933837890625,796.5933837890625,794.981689453125
1027,790.952392578125,792.967041015625,800.2197875976562,801.025634765625
1028,787.3259887695312,786.923095703125,801.4285888671875,795.3846435546875
1029,785.3113403320312,785.3113403320312,796.5933837890625,789.3406372070312
1030,782.4908447265625,788.5347900390625,800.6226806640625,791.3552856445312
1031,784.908447265625,789.3406372070312,799.8168334960938,796.996337890625
1032,791.3552856445312,787.7289428710938,799.8168334960938,801.025634765625
1033,788.937744140625,789.3406372070312,797.8021850585938,794.981689453125
1034,792.5640869140625,792.1611938476562,793.3699340820312,792.1611938476562
1035,793.3699340820312,786.5201416015625,797.8021850585938,799.8168334960938
1036,788.1318969726562,786.1171875,799.010986328125,792.5640869140625
1037,790.952392578125,792.1611938476562,793.7728881835938,784.5054931640625
1038,790.1465454101562,788.1318969726562,792.1611938476562,791.7582397460938
1039,788.5347900390625,791.3552856445312,792.967041015625,790.1465454101562
1040,792.967041015625,794.981689453125,791.3552856445312,786.923095703125
1041,792.5640869140625,794.1758422851562,790.952392578125,793.3699340820312
1042,796.1904907226562,794.981689453125,793.7728881835938,798.2051391601562
1043,801.025634765625,798.2051391601562,799.010986328125,804.2490844726562
1044,795.7875366210938,797.3992919921875,797.8021850585938,805.8607788085938
1045,797.3992919921875,792.5640869140625,800.6226806640625,805.4578857421875
1046,800.2197875976562,788.5347900390625,802.6373901367188,803.4432373046875
1047,801.025634765625,787.3259887695312,796.996337890625,797.8021850585938
1048,798.6080322265625,786.5201416015625,796.5933837890625,794.5787353515625
1049,795.7875366210938,787.3259887695312,799.4139404296875,803.040283203125
1050,796.996337890625,791.7582397460938,800.6226806640625,809.4871826171875
1051,790.1465454101562,798.6080322265625,802.2344360351562,795.3846435546875
1052,788.1318969726562,799.010986328125,798.6080322265625,787.3259887695312
1053,784.908447265625,800.2197875976562,794.5787353515625,789.7435913085938
1054,781.2820434570312,799.4139404296875,793.7728881835938,791.3552856445312
1055,778.05859375,790.1465454101562,793.7728881835938,784.1025390625
1056,779.2673950195312,794.981689453125,792.5640869140625,777.6557006835938
1057,786.1171875,794.1758422851562,797.3992919921875,784.5054931640625
1058,778.05859375,786.5201416015625,799.8168334960938,781.6849975585938
1059,772.0146484375,790.5494384765625,794.1758422851562,780.4761962890625
1060,779.2673950195312,794.5787353515625,795.7875366210938,781.6849975585938
1061,786.1171875,795.3846435546875,795.3846435546875,786.923095703125
1062,788.1318969726562,793.3699340820312,798.2051391601562,790.5494384765625
1063,786.5201416015625,793.7728881835938,800.2197875976562,784.908447265625
1064,790.1465454101562,795.7875366210938,796.1904907226562,785.7142944335938
1065,787.7289428710938,790.1465454101562,795.3846435546875,793.3699340820312
1066,787.7289428710938,789.7435913085938,792.967041015625,795.7875366210938
1067,790.952392578125,790.5494384765625,791.7582397460938,790.1465454101562
1068,790.952392578125,789.3406372070312,792.5640869140625,788.5347900390625
1069,791.3552856445312,792.1611938476562,794.1758422851562,790.952392578125
1070,788.937744140625,792.1611938476562,798.2051391601562,792.5640869140625
1071,786.923095703125,789.7435913085938,799.010986328125,796.1904907226562
1072,790.1465454101562,787.3259887695312,793.3699340820312,801.025634765625
1073,794.1758422851562,786.5201416015625,797.3992919921875,813.113525390625
1074,789.3406372070312,789.7435913085938,800.2197875976562,804.2490844726562
1075,786.1171875,787.7289428710938,796.5933837890625,795.3846435546875
1076,784.5054931640625,787.7289428710938,794.981689453125,793.3699340820312
1077,788.1318969726562,796.1904907226562,790.952392578125,788.1318969726562
1078,788.1318969726562,790.5494384765625,791.7582397460938,790.952392578125
1079,784.5054931640625,783.6996459960938,788.1318969726562,786.5201416015625
1080,785.7142944335938,789.7435913085938,787.7289428710938,785.7142944335938
1081,783.6996459960938,792.967041015625,789.3406372070312,782.087890625
1082,784.908447265625,791.7582397460938,790.5494384765625,782.087890625
1083,782.087890625,792.967041015625,795.7875366210938,789.3406372070312
1084,782.087890625,793.3699340820312,791.7582397460938,795.3846435546875
1085,787.7289428710938,790.5494384765625,796.1904907226562,797.8021850585938
1086,788.5347900390625,789.7435913085938,801.8314819335938,799.010986328125
1087,796.1904907226562,793.7728881835938,804.2490844726562,810.2930297851562
1088,801.025634765625,795.7875366210938,803.040283203125,808.6813354492188
1089,796.5933837890625,798.6080322265625,797.3992919921875,804.6520385742188
1090,796.996337890625,801.8314819335938,796.5933837890625,810.2930297851562
1091,801.025634765625,799.8168334960938,800.6226806640625,808.6813354492188
1092,801.8314819335938,794.5787353515625,796.5933837890625,805.054931640625
1093,796.996337890625,796.5933837890625,795.3846435546875,809.89013671875
1094,798.2051391601562,802.6373901367188,803.040283203125,813.5164794921875
1095,803.4432373046875,800.2197875976562,800.2197875976562,810.2930297851562
1096,801.8314819335938,797.8021850585938,796.5933837890625,808.6813354492188
1097,796.996337890625,794.1758422851562,795.7875366210938,801.4285888671875
1098,796.5933837890625,790.1465454101562,793.3699340820312,797.3992919921875
1099,798.2051391601562,793.7728881835938,796.5933837890625,801.8314819335938
1100,791.7582397460938,790.5494384765625,796.5933837890625,799.010986328125
1101,789.3406372070312,788.5347900390625,797.3992919921875,792.5640869140625
1102,792.5640869140625,796.5933837890625,797.3992919921875,795.3846435546875
1103,794.981689453125,796.996337890625,796.1904907226562,796.996337890625
1104,792.1611938476562,797.8021850585938,801.4285888671875,796.996337890625
1105,786.5201416015625,799.8168334960938,799.8168334960938,792.1611938476562
1106,788.5347900390625,798.2051391601562,793.7728881835938,788.5347900390625
1107,792.967041015625,792.967041015625,794.1758422851562,793.3699340820312
1108,794.5787353515625,788.1318969726562,793.7728881835938,786.5201416015625
1109,796.996337890625,797.8021850585938,798.2051391601562,786.923095703125
1110,794.5787353515625,799.8168334960938,801.025634765625,798.2051391601562
1111,792.967041015625,791.7582397460938,804.2490844726562,803.4432373046875
1112,793.3699340820312,790.1465454101562,803.8461303710938,795.3846435546875
1113,797.3992919921875,795.3846435546875,800.2197875976562,795.3846435546875
1114,798.6080322265625,792.967041015625,794.981689453125,799.8168334960938
1115,792.5640869140625,791.3552856445312,791.7582397460938,796.996337890625
1116,788.5347900390625,790.1465454101562,790.1465454101562,792.1611938476562
1117,797.8021850585938,785.3113403320312,789.3406372070312,788.5347900390625
1118,801.8314819335938,790.5494384765625,796.5933837890625,793.7728881835938
1119,791.7582397460938,796.996337890625,799.4139404296875,789.7435913085938
1120,788.1318969726562,794.5787353515625,794.5787353515625,779.2673950195312
1121,792.5640869140625,791.3552856445312,795.7875366210938,779.6703491210938
1122,795.7875366210938,790.5494384765625,798.2051391601562,792.1611938476562
1123,792.967041015625,791.7582397460938,797.3992919921875,801.025634765625
1124,793.3699340820312,790.952392578125,792.1611938476562,793.3699340820312
1125,791.3552856445312,786.1171875,795.7875366210938,786.1171875
1126,788.5347900390625,788.5347900390625,800.2197875976562,792.967041015625
1127,789.3406372070312,790.1465454101562,796.996337890625,794.1758422851562
1128,789.3406372070312,786.923095703125,795.3846435546875,786.5201416015625
1129,790.5494384765625,788.5347900390625,795.7875366210938,786.923095703125
1130,786.923095703125,791.7582397460938,794.981689453125,788.1318969726562
1131,785.3113403320312,790.952392578125,797.3992919921875,791.3552856445312
1132,789.3406372070312,788.937744140625,800.6226806640625,792.967041015625
1133,790.1465454101562,790.1465454101562,800.6226806640625,793.3699340820312
1134,790.952392578125,791.3552856445312,799.8168334960938,800.2197875976562
1135,794.5787353515625,793.3699340820312,795.7875366210938,801.8314819335938
1136,791.7582397460938,793.3699340820312,802.2344360351562,799.010986328125
1137,796.5933837890625,794.1758422851562,809.89013671875,799.8168334960938
1138,799.8168334960938,794.5787353515625,805.8607788085938,796.1904907226562
1139,795.3846435546875,791.3552856445312,801.8314819335938,794.5787353515625
1140,797.3992919921875,796.996337890625,800.6226806640625,794.1758422851562
1141,794.5787353515625,802.2344360351562,800.2197875976562,796.996337890625
1142,789.7435913085938,798.2051391601562,801.8314819335938,796.5933837890625
1143,792.967041015625,798.2051391601562,803.040283203125,788.1318969726562
1144,790.5494384765625,801.025634765625,800.2197875976562,784.5054931640625
1145,790.952392578125,803.4432373046875,799.8168334960938,788.937744140625
1146,794.1758422851562,799.010986328125,802.2344360351562,791.7582397460938
1147,792.967041015625,794.981689453125,805.054931640625,797.8021850585938
1148,788.1318969726562,790.952392578125,805.4578857421875,795.7875366210938
1149,793.3699340820312,784.5054931640625,802.2344360351562,789.3406372070312
1150,798.2051391601562,787.7289428710938,803.4432373046875,790.1465454101562
1151,795.7875366210938,790.952392578125,804.2490844726562,793.3699340820312
1152,794.981689453125,796.5933837890625,805.4578857421875,797.8021850585938
1153,791.7582397460938,795.3846435546875,803.8461303710938,805.4578857421875
1154,788.5347900390625,788.1318969726562,797.3992919921875,801.4285888671875
1155,784.1025390625,794.1758422851562,791.3552856445312,786.923095703125
1156,782.4908447265625,796.5933837890625,790.1465454101562,787.7289428710938
1157,788.1318969726562,794.5787353515625,790.1465454101562,798.6080322265625
1158,784.908447265625,792.1611938476562,790.5494384765625,797.8021850585938
1159,784.908447265625,791.3552856445312,792.1611938476562,796.1904907226562
1160,787.3259887695312,794.981689453125,791.3552856445312,796.1904907226562
1161,787.3259887695312,793.3699340820312,794.5787353515625,794.1758422851562
1162,785.7142944335938,792.5640869140625,796.5933837890625,792.967041015625
1163,786.923095703125,792.5640869140625,790.952392578125,795.7875366210938
1164,790.5494384765625,785.3113403320312,790.952392578125,805.4578857421875
1165,789.7435913085938,788.5347900390625,790.5494384765625,804.6520385742188
1166,795.3846435546875,794.1758422851562,788.937744140625,801.4285888671875
1167,794.981689453125,787.7289428710938,792.5640869140625,798.6080322265625
1168,794.981689453125,785.3113403320312,791.3552856445312,799.010986328125
1169,798.2051391601562,789.3406372070312,796.996337890625,805.054931640625
1170,799.010986328125,790.952392578125,799.4139404296875,801.4285888671875
1171,796.996337890625,792.1611938476562,792.5640869140625,800.6226806640625
1172,793.7728881835938,786.5201416015625,794.1758422851562,804.6520385742188
1173,794.981689453125,784.1025390625,796.1904907226562,800.6226806640625
1174,792.1611938476562,792.967041015625,793.7728881835938,799.4139404296875
1175,789.3406372070312,796.1904907226562,791.7582397460938,803.4432373046875
1176,799.010986328125,794.1758422851562,794.981689453125,805.054931640625
1177,797.8021850585938,792.5640869140625,798.2051391601562,801.8314819335938
1178,790.952392578125,788.1318969726562,798.6080322265625,796.5933837890625
1179,791.7582397460938,785.3113403320312,800.2197875976562,792.5640869140625
1180,789.3406372070312,788.937744140625,799.8168334960938,790.952392578125
1181,787.7289428710938,796.1904907226562,801.8314819335938,789.7435913085938
1182,788.5347900390625,803.4432373046875,804.2490844726562,784.1025390625
1183,787.3259887695312,797.3992919921875,801.8314819335938,782.893798828125
1184,786.5201416015625,796.1904907226562,797.3992919921875,789.7435913085938
1185,790.5494384765625,800.2197875976562,794.1758422851562,793.7728881835938
1186,793.7728881835938,796.996337890625,791.7582397460938,797.8021850585938
1187,795.7875366210938,797.3992919921875,789.3406372070312,799.010986328125
1188,804.2490844726562,799.4139404296875,792.5640869140625,791.7582397460938
1189,802.2344360351562,794.981689453125,801.4285888671875,790.1465454101562
1190,794.5787353515625,795.3846435546875,801.4285888671875,792.5640869140625
1191,801.025634765625,796.1904907226562,799.8168334960938,799.4139404296875
1192,795.7875366210938,790.1465454101562,799.4139404296875,805.4578857421875
1193,784.1025390625,791.7582397460938,799.010986328125,792.967041015625
1194,790.1465454101562,796.1904907226562,796.1904907226562,785.7142944335938
1195,792.1611938476562,795.7875366210938,792.967041015625,790.5494384765625
1196,790.952392578125,792.5640869140625,796.1904907226562,788.5347900390625
1197,790.952392578125,790.952392578125,794.1758422851562,784.908447265625
1198,790.952392578125,791.3552856445312,790.1465454101562,788.1318969726562
1199,788.1318969726562,787.7289428710938,792.967041015625,790.1465454101562
1200,782.893798828125,784.1025390625,792.1611938476562,788.937744140625
1201,787.3259887695312,787.3259887695312,791.3552856445312,792.5640869140625
1202,781.2820434570312,785.7142944335938,791.7582397460938,790.952392578125
1203,776.4468994140625,780.879150390625,792.1611938476562,794.5787353515625
1204,782.893798828125,778.4615478515625,792.967041015625,796.996337890625
1205,787.7289428710938,784.908447265625,797.8021850585938,787.7289428710938
1206,787.7289428710938,789.7435913085938,794.5787353515625,789.3406372070312
1207,780.0732421875,789.3406372070312,788.5347900390625,797.3992919921875
1208,781.2820434570312,793.3699340820312,793.3699340820312,797.8021850585938
1209,787.3259887695312,795.7875366210938,792.1611938476562,798.6080322265625
1210,792.967041015625,798.2051391601562,790.952392578125,799.8168334960938
1211,799.8168334960938,803.4432373046875,795.7875366210938,796.5933837890625
1212,794.5787353515625,801.8314819335938,794.981689453125,792.967041015625
1213,789.3406372070312,794.1758422851562,794.5787353515625,791.3552856445312
1214,794.5787353515625,794.981689453125,793.3699340820312,789.3406372070312
1215,794.981689453125,795.7875366210938,790.1465454101562,792.5640869140625
1216,790.952392578125,789.3406372070312,788.5347900390625,798.2051391601562
1217,794.5787353515625,790.952392578125,790.1465454101562,795.7875366210938
1218,794.981689453125,794.5787353515625,794.981689453125,797.8021850585938
1219,790.1465454101562,792.1611938476562,795.3846435546875,801.025634765625
1220,791.7582397460938,795.7875366210938,791.7582397460938,789.3406372070312
1221,787.3259887695312,797.3992919921875,787.7289428710938,780.879150390625
1222,784.1025390625,796.1904907226562,786.1171875,785.7142944335938
1223,790.1465454101562,794.981689453125,791.7582397460938,790.952392578125
1224,790.5494384765625,791.7582397460938,792.967041015625,793.7728881835938
1225,786.1171875,787.3259887695312,794.1758422851562,790.952392578125
1226,784.1025390625,785.3113403320312,794.1758422851562,790.5494384765625
1227,786.1171875,787.7289428710938,795.3846435546875,790.952392578125
1228,785.7142944335938,786.1171875,797.8021850585938,796.996337890625
1229,781.2820434570312,783.6996459960938,794.981689453125,803.040283203125
1230,785.7142944335938,782.087890625,797.8021850585938,807.4725341796875
1231,786.923095703125,782.4908447265625,800.6226806640625,803.4432373046875
1232,783.6996459960938,792.1611938476562,792.967041015625,790.5494384765625
1233,784.5054931640625,796.1904907226562,790.1465454101562,791.7582397460938
1234,792.5640869140625,791.7582397460938,790.5494384765625,798.6080322265625
1235,794.5787353515625,792.5640869140625,791.3552856445312,787.7289428710938
1236,793.3699340820312,799.4139404296875,795.3846435546875,789.3406372070312
1237,797.3992919921875,803.8461303710938,792.967041015625,791.7582397460938
1238,792.967041015625,800.2197875976562,792.5640869140625,784.1025390625
1239,796.5933837890625,792.967041015625,793.3699340820312,791.7582397460938
1240,802.6373901367188,799.4139404296875,795.3846435546875,797.8021850585938
1241,793.3699340820312,801.025634765625,797.8021850585938,797.8021850585938
1242,792.1611938476562,791.7582397460938,795.3846435546875,805.4578857421875
1243,791.3552856445312,792.967041015625,796.1904907226562,799.010986328125
1244,789.3406372070312,796.5933837890625,796.996337890625,794.5787353515625
1245,797.3992919921875,801.4285888671875,794.5787353515625,794.1758422851562
1246,791.7582397460938,797.8021850585938,792.1611938476562,786.923095703125
1247,779.6703491210938,796.5933837890625,790.5494384765625,781.6849975585938
1248,781.2820434570312,799.4139404296875,788.1318969726562,782.4908447265625
1249,785.7142944335938,795.3846435546875,790.952392578125,794.5787353515625
1250,785.3113403320312,793.7728881835938,793.3699340820312,799.4139404296875
1251,785.3113403320312,792.5640869140625,795.3846435546875,799.010986328125
1252,782.4908447265625,787.7289428710938,794.981689453125,803.040283203125
1253,779.6703491210938,787.7289428710938,790.952392578125,800.6226806640625
1254,782.4908447265625,796.5933837890625,796.1904907226562,794.981689453125
1255,786.1171875,799.010986328125,799.4139404296875,785.7142944335938
1256,788.5347900390625,794.981689453125,797.3992919921875,784.1025390625
1257,791.7582397460938,792.5640869140625,792.967041015625,786.1171875
1258,792.5640869140625,790.952392578125,790.5494384765625,791.3552856445312
1259,797.8021850585938,789.7435913085938,791.7582397460938,793.3699340820312
1260,807.069580078125,789.3406372070312,790.1465454101562,790.952392578125
1261,801.4285888671875,792.1611938476562,792.5640869140625,787.7289428710938
1262,790.5494384765625,798.6080322265625,791.3552856445312,786.5201416015625
1263,795.7875366210938,801.025634765625,792.1611938476562,791.7582397460938
1264,800.6226806640625,800.2197875976562,793.7728881835938,795.3846435546875
1265,801.025634765625,799.8168334960938,786.5201416015625,797.3992919921875
1266,800.2197875976562,795.3846435546875,786.1171875,795.3846435546875
1267,794.5787353515625,790.1465454101562,789.7435913085938,793.7728881835938
1268,786.5201416015625,786.923095703125,789.3406372070312,793.7728881835938
1269,792.967041015625,789.7435913085938,794.1758422851562,790.5494384765625
1270,800.6226806640625,797.3992919921875,800.2197875976562,793.7728881835938
1271,792.1611938476562,788.1318969726562,796.1904907226562,790.952392578125
1272,788.937744140625,774.8351440429688,792.5640869140625,791.3552856445312
1273,790.1465454101562,784.5054931640625,795.3846435546875,791.7582397460938
1274,782.4908447265625,792.1611938476562,790.5494384765625,789.3406372070312
1275,782.087890625,786.923095703125,785.3113403320312,787.3259887695312
1276,788.1318969726562,789.7435913085938,789.3406372070312,801.8314819335938
1277,782.087890625,788.5347900390625,788.5347900390625,803.4432373046875
1278,779.2673950195312,786.1171875,787.7289428710938,787.7289428710938
1279,784.1025390625,786.1171875,792.1611938476562,788.937744140625
1280,785.7142944335938,785.7142944335938,795.7875366210938,788.5347900390625
1281,790.1465454101562,794.5787353515625,799.4139404296875,784.5054931640625
1282,793.7728881835938,796.5933837890625,796.996337890625,789.3406372070312
1283,792.1611938476562,788.5347900390625,795.3846435546875,788.937744140625
1284,790.952392578125,788.1318969726562,795.3846435546875,790.1465454101562
1285,792.967041015625,794.1758422851562,794.1758422851562,797.8021850585938
1286,793.7728881835938,791.7582397460938,794.981689453125,792.5640869140625
1287,796.5933837890625,786.1171875,795.7875366210938,791.3552856445312
1288,798.6080322265625,791.3552856445312,796.5933837890625,801.025634765625
1289,790.1465454101562,797.8021850585938,798.6080322265625,796.5933837890625
1290,789.7435913085938,799.4139404296875,794.981689453125,788.1318969726562
1291,791.7582397460938,795.3846435546875,793.3699340820312,792.1611938476562
1292,791.7582397460938,792.5640869140625,796.1904907226562,799.8168334960938
1293,792.1611938476562,793.7728881835938,798.2051391601562,796.996337890625
1294,793.3699340820312,794.981689453125,796.996337890625,795.7875366210938
1295,797.3992919921875,797.3992919921875,796.5933837890625,799.4139404296875
1296,796.996337890625,799.010986328125,800.2197875976562,795.7875366210938
1297,793.7728881835938,796.1904907226562,799.010986328125,792.967041015625
1298,789.7435913085938,796.1904907226562,790.952392578125,791.7582397460938
1299,784.5054931640625,792.1611938476562,791.7582397460938,789.3406372070312
1300,780.0732421875,784.5054931640625,794.5787353515625,788.937744140625
1301,777.6557006835938,783.6996459960938,794.5787353515625,789.7435913085938
1302,778.8644409179688,786.5201416015625,794.981689453125,794.5787353515625
1303,785.3113403320312,787.7289428710938,794.1758422851562,804.2490844726562
1304,784.908447265625,789.7435913085938,797.8021850585938,802.6373901367188
1305,780.879150390625,786.1171875,798.2051391601562,786.5201416015625
1306,788.1318969726562,788.937744140625,793.7728881835938,782.4908447265625
1307,787.7289428710938,790.952392578125,793.7728881835938,782.087890625
1308,781.6849975585938,787.7289428710938,791.7582397460938,779.6703491210938
1309,787.7289428710938,788.5347900390625,791.3552856445312,787.3259887695312
1310,790.5494384765625,790.5494384765625,794.1758422851562,786.1171875
1311,788.1318969726562,790.5494384765625,793.3699340820312,775.2380981445312
1312,789.3406372070312,791.3552856445312,794.5787353515625,783.6996459960938
1313,786.923095703125,791.3552856445312,793.7728881835938,791.7582397460938
1314,785.7142944335938,788.1318969726562,789.7435913085938,790.1465454101562
1315,791.3552856445312,784.908447265625,793.7728881835938,795.7875366210938
1316,794.5787353515625,793.3699340820312,800.2197875976562,793.7728881835938
1317,795.7875366210938,799.010986328125,800.2197875976562,791.7582397460938
1318,795.3846435546875,793.3699340820312,792.967041015625,788.1318969726562
1319,793.3699340820312,791.3552856445312,794.5787353515625,783.6996459960938
1320,788.937744140625,796.1904907226562,799.010986328125,780.4761962890625
1321,787.7289428710938,798.6080322265625,796.996337890625,789.3406372070312
1322,785.3113403320312,795.3846435546875,801.4285888671875,794.5787353515625
1323,783.2966918945312,791.7582397460938,804.6520385742188,796.1904907226562
1324,789.7435913085938,793.3699340820312,801.025634765625,801.4285888671875
1325,793.7728881835938,794.5787353515625,801.8314819335938,803.8461303710938
1326,796.1904907226562,794.5787353515625,799.4139404296875,806.6666870117188
1327,799.8168334960938,795.7875366210938,799.4139404296875,794.5787353515625
1328,802.2344360351562,800.2197875976562,799.8168334960938,788.937744140625
1329,794.5787353515625,801.4285888671875,794.1758422851562,792.967041015625
1330,793.7728881835938,800.6226806640625,790.1465454101562,793.7728881835938
1331,797.3992919921875,799.010986328125,789.3406372070312,793.7728881835938
1332,792.1611938476562,794.5787353515625,788.5347900390625,794.5787353515625
1333,792.967041015625,794.981689453125,784.5054931640625,794.1758422851562
1334,797.3992919921875,794.5787353515625,788.1318969726562,795.3846435546875
1335,793.3699340820312,790.952392578125,786.923095703125,795.7875366210938
1336,787.7289428710938,793.7728881835938,785.3113403320312,790.5494384765625
1337,785.7142944335938,795.3846435546875,790.1465454101562,784.908447265625
1338,790.952392578125,789.3406372070312,793.7728881835938,786.5201416015625
1339,790.5494384765625,786.1171875,790.952392578125,785.7142944335938
1340,784.1025390625,790.5494384765625,788.1318969726562,784.5054931640625
1341,784.1025390625,791.3552856445312,790.1465454101562,788.5347900390625
1342,786.1171875,788.1318969726562,791.3552856445312,786.1171875
1343,788.1318969726562,785.7142944335938,790.952392578125,782.087890625
1344,787.3259887695312,785.7142944335938,788.1318969726562,783.6996459960938
1345,787.7289428710938,786.923095703125,791.3552856445312,791.3552856445312
1346,787.3259887695312,789.7435913085938,792.967041015625,790.5494384765625
1347,792.5640869140625,790.1465454101562,790.5494384765625,791.3552856445312
1348,797.3992919921875,792.967041015625,793.7728881835938,796.1904907226562
1349,802.6373901367188,792.967041015625,793.7728881835938,804.6520385742188
1350,802.2344360351562,793.7728881835938,794.5787353515625,807.4725341796875
1351,794.5787353515625,794.5787353515625,795.3846435546875,806.2637329101562
1352,794.5787353515625,793.7728881835938,797.8021850585938,807.069580078125
1353,803.040283203125,789.7435913085938,802.6373901367188,797.8021850585938
1354,805.054931640625,786.923095703125,797.8021850585938,786.5201416015625
1355,799.8168334960938,792.1611938476562,794.5787353515625,785.7142944335938
1356,797.8021850585938,793.3699340820312,795.3846435546875,794.1758422851562
1357,801.8314819335938,792.967041015625,790.952392578125,798.6080322265625
1358,805.8607788085938,790.1465454101562,790.952392578125,800.6226806640625
1359,803.8461303710938,787.3259887695312,790.5494384765625,795.3846435546875
1360,800.6226806640625,783.6996459960938,785.3113403320312,789.3406372070312
1361,797.8021850585938,783.2966918945312,786.1171875,788.1318969726562
1362,793.7728881835938,787.7289428710938,794.1758422851562,787.7289428710938
1363,790.952392578125,786.1171875,796.996337890625,788.1318969726562
1364,792.1611938476562,782.087890625,790.952392578125,790.5494384765625
1365,790.5494384765625,790.952392578125,790.952392578125,790.1465454101562
1366,793.7728881835938,801.8314819335938,793.7728881835938,784.1025390625
1367,800.2197875976562,797.8021850585938,793.7728881835938,782.4908447265625
1368,801.025634765625,791.3552856445312,793.3699340820312,792.967041015625
1369,800.2197875976562,789.3406372070312,792.5640869140625,803.040283203125
1370,793.7728881835938,788.5347900390625,788.1318969726562,793.7728881835938
1371,792.967041015625,787.3259887695312,789.7435913085938,792.967041015625
1372,796.1904907226562,789.3406372070312,789.3406372070312,799.010986328125
1373,788.5347900390625,788.5347900390625,782.4908447265625,790.5494384765625
1374,781.2820434570312,784.1025390625,782.893798828125,777.2527465820312
1375,779.2673950195312,780.4761962890625,786.1171875,779.2673950195312
1376,782.4908447265625,786.923095703125,789.3406372070312,788.937744140625
1377,788.937744140625,797.8021850585938,788.5347900390625,794.1758422851562
1378,795.7875366210938,799.010986328125,792.1611938476562,794.5787353515625
1379,805.8607788085938,796.5933837890625,794.1758422851562,796.5933837890625
1380,809.084228515625,792.1611938476562,796.1904907226562,801.8314819335938
1381,801.4285888671875,790.1465454101562,793.7728881835938,800.6226806640625
1382,799.4139404296875,790.952392578125,792.1611938476562,792.967041015625
1383,793.7728881835938,788.937744140625,797.3992919921875,794.1758422851562
1384,784.5054931640625,789.3406372070312,794.1758422851562,794.5787353515625
1385,787.7289428710938,790.5494384765625,792.967041015625,790.5494384765625
1386,789.3406372070312,788.937744140625,794.981689453125,794.5787353515625
1387,786.923095703125,787.3259887695312,791.7582397460938,801.4285888671875
1388,780.879150390625,782.087890625,791.7582397460938,796.5933837890625
1389,778.4615478515625,784.5054931640625,791.7582397460938,787.7289428710938
1390,784.1025390625,792.5640869140625,790.952392578125,791.3552856445312
1391,790.1465454101562,792.1611938476562,794.5787353515625,796.5933837890625
1392,792.1611938476562,791.7582397460938,797.8021850585938,796.996337890625
1393,787.3259887695312,789.3406372070312,797.3992919921875,792.1611938476562
1394,788.937744140625,790.1465454101562,792.1611938476562,791.7582397460938
1395,793.7728881835938,792.967041015625,789.3406372070312,794.1758422851562
1396,791.3552856445312,793.7728881835938,795.7875366210938,794.5787353515625
1397,786.1171875,794.5787353515625,798.6080322265625,790.952392578125
1398,786.923095703125,791.3552856445312,797.8021850585938,786.1171875
1399,788.5347900390625,790.952392578125,796.1904907226562,796.1904907226562
1400,790.1465454101562,792.967041015625,792.1611938476562,795.7875366210938
1401,790.1465454101562,784.908447265625,794.5787353515625,788.5347900390625
1402,792.1611938476562,785.7142944335938,797.3992919921875,790.1465454101562
1403,793.7728881835938,795.3846435546875,794.5787353515625,786.923095703125
1404,797.8021850585938,793.3699340820312,798.6080322265625,785.7142944335938
1405,803.040283203125,792.967041015625,803.040283203125,792.967041015625
1406,798.2051391601562,795.7875366210938,797.8021850585938,793.3699340820312
1407,797.8021850585938,799.010986328125,799.4139404296875,796.1904907226562
1408,790.5494384765625,795.7875366210938,801.8314819335938,798.6080322265625
1409,783.2966918945312,793.3699340820312,797.3992919921875,788.5347900390625
1410,792.1611938476562,796.5933837890625,797.8021850585938,792.967041015625
1411,797.3992919921875,792.5640869140625,794.1758422851562,803.8461303710938
1412,795.3846435546875,790.1465454101562,795.7875366210938,803.4432373046875
1413,799.010986328125,792.967041015625,802.2344360351562,805.4578857421875
1414,800.2197875976562,787.7289428710938,798.6080322265625,801.025634765625
1415,803.040283203125,784.908447265625,794.5787353515625,801.4285888671875
1416,803.040283203125,783.6996459960938,791.7582397460938,796.996337890625
1417,794.5787353515625,787.3259887695312,788.5347900390625,787.3259887695312
1418,792.1611938476562,790.1465454101562,793.3699340820312,790.952392578125
1419,788.5347900390625,793.3699340820312,796.996337890625,790.5494384765625
1420,788.1318969726562,794.1758422851562,792.1611938476562,784.5054931640625
1421,788.5347900390625,789.3406372070312,786.923095703125,782.893798828125
1422,784.1025390625,784.1025390625,787.3259887695312,789.7435913085938
1423,786.5201416015625,791.7582397460938,791.7582397460938,794.981689453125
1424,786.923095703125,790.952392578125,788.5347900390625,789.3406372070312
1425,786.5201416015625,779.2673950195312,787.3259887695312,784.908447265625
1426,794.5787353515625,788.5347900390625,787.7289428710938,782.4908447265625
1427,793.7728881835938,796.996337890625,790.5494384765625,781.6849975585938
1428,788.5347900390625,797.8021850585938,792.967041015625,785.7142944335938
1429,792.1611938476562,797.3992919921875,792.5640869140625,792.5640869140625
1430,785.7142944335938,792.967041015625,792.5640869140625,786.923095703125
1431,784.5054931640625,794.1758422851562,796.5933837890625,786.5201416015625
1432,788.5347900390625,798.2051391601562,796.5933837890625,786.5201416015625
1433,790.1465454101562,793.7728881835938,793.7728881835938,787.3259887695312
1434,795.7875366210938,790.5494384765625,797.8021850585938,795.7875366210938
1435,794.5787353515625,790.5494384765625,801.8314819335938,786.5201416015625
1436,791.7582397460938,788.1318969726562,800.6226806640625,782.087890625
1437,786.923095703125,780.879150390625,801.025634765625,786.923095703125
1438,785.7142944335938,783.2966918945312,801.8314819335938,792.5640869140625
1439,786.923095703125,791.3552856445312,796.5933837890625,795.3846435546875
1440,787.3259887695312,792.1611938476562,800.2197875976562,792.5640869140625
1441,787.3259887695312,793.7728881835938,802.2344360351562,791.3552856445312
1442,790.1465454101562,795.7875366210938,796.996337890625,788.937744140625
1443,797.8021850585938,798.2051391601562,795.7875366210938,790.5494384765625
1444,801.025634765625,801.4285888671875,798.6080322265625,796.996337890625
1445,804.6520385742188,799.4139404296875,800.2197875976562,808.2783813476562
1446,807.4725341796875,797.8021850585938,795.7875366210938,806.6666870117188
1447,799.4139404296875,796.1904907226562,793.3699340820312,800.2197875976562
1448,794.981689453125,793.3699340820312,792.967041015625,800.2197875976562
1449,794.5787353515625,789.7435913085938,794.981689453125,799.4139404296875
1450,792.5640869140625,789.3406372070312,795.3846435546875,799.8168334960938
1451,791.7582397460938,796.5933837890625,795.7875366210938,794.5787353515625
1452,794.1758422851562,799.4139404296875,796.1904907226562,786.923095703125
1453,790.5494384765625,798.6080322265625,796.5933837890625,782.893798828125
1454,787.3259887695312,797.8021850585938,796.996337890625,786.5201416015625
1455,794.1758422851562,797.3992919921875,794.5787353515625,785.3113403320312
1456,791.7582397460938,796.1904907226562,794.981689453125,784.1025390625
1457,788.937744140625,788.5347900390625,792.967041015625,794.5787353515625
1458,786.923095703125,787.7289428710938,792.5640869140625,793.3699340820312
1459,786.923095703125,788.1318969726562,789.7435913085938,788.5347900390625
1460,783.6996459960938,782.087890625,787.7289428710938,787.3259887695312
1461,782.4908447265625,785.3113403320312,793.3699340820312,789.7435913085938
1462,787.7289428710938,784.1025390625,791.7582397460938,789.3406372070312
1463,788.1318969726562,784.1025390625,791.3552856445312,788.5347900390625
1464,788.5347900390625,786.5201416015625,794.5787353515625,790.5494384765625
1465,788.937744140625,790.5494384765625,792.5640869140625,788.937744140625
1466,787.7289428710938,791.7582397460938,788.1318969726562,788.937744140625
1467,789.7435913085938,790.5494384765625,789.3406372070312,799.4139404296875
1468,792.1611938476562,793.7728881835938,793.7728881835938,809.4871826171875
1469,787.3259887695312,796.5933837890625,793.7728881835938,803.4432373046875
1470,787.3259887695312,796.996337890625,797.8021850585938,800.6226806640625
1471,794.1758422851562,794.981689453125,795.7875366210938,803.4432373046875
1472,796.1904907226562,795.3846435546875,790.1465454101562,799.010986328125
1473,801.4285888671875,800.2197875976562,794.5787353515625,795.7875366210938
1474,796.5933837890625,795.7875366210938,796.5933837890625,794.1758422851562
1475,787.3259887695312,788.937744140625,791.7582397460938,795.3846435546875
1476,790.952392578125,793.3699340820312,796.996337890625,802.6373901367188
1477,794.5787353515625,796.996337890625,797.3992919921875,803.8461303710938
1478,790.1465454101562,793.3699340820312,791.3552856445312,801.8314819335938
1479,782.893798828125,790.5494384765625,790.952392578125,801.025634765625
1480,788.1318969726562,794.981689453125,789.3406372070312,803.4432373046875
1481,791.7582397460938,800.2197875976562,790.5494384765625,803.4432373046875
1482,786.5201416015625,800.2197875976562,792.967041015625,794.981689453125
1483,787.3259887695312,800.2197875976562,790.5494384765625,791.3552856445312
1484,784.908447265625,792.5640869140625,790.1465454101562,796.5933837890625
1485,782.087890625,783.2966918945312,792.967041015625,794.5787353515625
1486,786.1171875,790.952392578125,794.5787353515625,794.981689453125
1487,791.7582397460938,795.7875366210938,795.7875366210938,802.2344360351562
1488,789.3406372070312,792.967041015625,795.3846435546875,791.7582397460938
1489,784.5054931640625,792.5640869140625,792.5640869140625,782.893798828125
1490,779.2673950195312,791.7582397460938,787.7289428710938,788.937744140625
1491,780.0732421875,793.7728881835938,785.7142944335938,789.7435913085938
1492,786.1171875,796.5933837890625,793.3699340820312,789.7435913085938
1493,787.3259887695312,797.8021850585938,798.6080322265625,789.3406372070312
1494,790.1465454101562,796.996337890625,795.7875366210938,789.7435913085938
1495,797.3992919921875,796.1904907226562,793.3699340820312,795.7875366210938
1496,794.5787353515625,798.2051391601562,792.1611938476562,793.7728881835938
1497,787.7289428710938,792.967041015625,793.3699340820312,792.1611938476562
1498,786.923095703125,792.967041015625,793.7728881835938,794.5787353515625
1499,790.952392578125,796.996337890625,797.3992919921875,796.1904907226562
1500,790.1465454101562,794.1758422851562,795.3846435546875,795.7875366210938
1501,784.908447265625,786.1171875,790.952392578125,798.6080322265625
1502,791.7582397460938,790.5494384765625,796.1904907226562,800.2197875976562
1503,794.981689453125,795.3846435546875,798.2051391601562,790.952392578125
1504,789.7435913085938,794.981689453125,798.2051391601562,787.7289428710938
1505,787.3259887695312,794.981689453125,796.5933837890625,789.7435913085938
1506,792.967041015625,796.996337890625,792.5640869140625,792.967041015625
1507,800.2197875976562,802.2344360351562,789.7435913085938,796.996337890625
1508,799.010986328125,798.2051391601562,796.1904907226562,786.5201416015625
1509,796.5933837890625,792.967041015625,797.3992919921875,784.1025390625
1510,793.3699340820312,796.5933837890625,794.981689453125,784.908447265625
1511,788.5347900390625,793.3699340820312,796.1904907226562,783.2966918945312
1512,789.7435913085938,786.5201416015625,788.5347900390625,789.7435913085938
1513,796.5933837890625,788.5347900390625,782.4908447265625,793.7728881835938
1514,798.6080322265625,791.3552856445312,782.893798828125,790.5494384765625
1515,798.2051391601562,794.1758422851562,788.5347900390625,795.7875366210938
1516,794.981689453125,794.981689453125,791.3552856445312,794.5787353515625
1517,791.7582397460938,797.8021850585938,788.5347900390625,790.952392578125
1518,796.1904907226562,797.8021850585938,789.3406372070312,796.1904907226562
1519,799.4139404296875,797.3992919921875,791.3552856445312,798.2051391601562
1520,796.5933837890625,798.2051391601562,788.1318969726562,792.967041015625
1521,796.1904907226562,792.5640869140625,786.1171875,791.3552856445312
1522,794.981689453125,790.1465454101562,787.7289428710938,793.3699340820312
1523,790.1465454101562,794.981689453125,788.937744140625,792.5640869140625
1524,791.7582397460938,797.8021850585938,788.5347900390625,792.5640869140625
1525,791.3552856445312,792.5640869140625,786.923095703125,790.5494384765625
1526,780.4761962890625,790.952392578125,787.7289428710938,780.879150390625
1527,777.6557006835938,793.7728881835938,786.1171875,782.087890625
1528,782.893798828125,795.3846435546875,786.923095703125,788.1318969726562
1529,782.4908447265625,790.5494384765625,788.5347900390625,786.923095703125
1530,784.1025390625,790.5494384765625,784.908447265625,798.6080322265625
1531,788.1318969726562,794.5787353515625,792.1611938476562,797.8021850585938
1532,790.952392578125,791.7582397460938,796.1904907226562,789.7435913085938
1533,793.3699340820312,792.1611938476562,793.3699340820312,792.967041015625
1534,792.967041015625,793.7728881835938,789.3406372070312,790.952392578125
1535,780.4761962890625,789.3406372070312,788.5347900390625,783.6996459960938
1536,771.2088012695312,785.3113403320312,785.3113403320312,788.1318969726562
1537,776.4468994140625,782.893798828125,785.7142944335938,788.937744140625
1538,785.3113403320312,784.1025390625,790.1465454101562,784.1025390625
1539,789.7435913085938,788.5347900390625,791.3552856445312,786.1171875
1540,798.2051391601562,793.3699340820312,793.3699340820312,788.5347900390625
1541,806.2637329101562,792.1611938476562,797.3992919921875,797.8021850585938
1542,801.8314819335938,789.7435913085938,794.5787353515625,789.3406372070312
1543,796.5933837890625,789.7435913085938,793.3699340820312,776.4468994140625
1544,797.8021850585938,787.7289428710938,792.5640869140625,781.6849975585938
1545,800.2197875976562,786.1171875,785.3113403320312,788.937744140625
1546,796.1904907226562,792.5640869140625,788.937744140625,790.1465454101562
1547,790.952392578125,796.1904907226562,795.7875366210938,785.7142944335938
1548,791.3552856445312,797.3992919921875,790.952392578125,788.5347900390625
1549,788.937744140625,795.7875366210938,791.3552856445312,790.5494384765625
1550,790.5494384765625,787.3259887695312,792.967041015625,784.908447265625
1551,792.5640869140625,785.3113403320312,788.937744140625,782.087890625
1552,786.1171875,789.7435913085938,786.923095703125,784.1025390625
1553,786.5201416015625,789.3406372070312,787.3259887695312,790.5494384765625
1554,790.1465454101562,792.967041015625,788.1318969726562,787.3259887695312
1555,788.937744140625,796.5933837890625,790.1465454101562,790.1465454101562
1556,790.5494384765625,792.5640869140625,795.3846435546875,797.8021850585938
1557,791.3552856445312,792.1611938476562,799.010986328125,797.3992919921875
1558,790.952392578125,800.2197875976562,800.2197875976562,799.8168334960938
1559,788.5347900390625,798.6080322265625,796.1904907226562,794.5787353515625
1560,792.1611938476562,788.1318969726562,786.923095703125,790.1465454101562
1561,790.952392578125,785.3113403320312,787.3259887695312,786.5201416015625
1562,788.1318969726562,788.937744140625,792.5640869140625,784.1025390625
1563,797.3992919921875,790.5494384765625,793.7728881835938,787.7289428710938
1564,801.4285888671875,793.3699340820312,790.952392578125,783.2966918945312
1565,799.4139404296875,797.8021850585938,790.1465454101562,781.2820434570312
1566,796.1904907226562,797.8021850585938,790.952392578125,779.2673950195312
1567,796.1904907226562,794.981689453125,793.7728881835938,782.893798828125
1568,795.3846435546875,790.952392578125,790.5494384765625,792.5640869140625
1569,793.3699340820312,793.7728881835938,787.3259887695312,788.937744140625
1570,792.967041015625,793.3699340820312,796.5933837890625,789.3406372070312
1571,788.5347900390625,788.5347900390625,797.3992919921875,790.952392578125
1572,785.3113403320312,788.1318969726562,796.5933837890625,794.981689453125
1573,780.0732421875,788.5347900390625,796.996337890625,794.981689453125
1574,782.4908447265625,792.1611938476562,798.2051391601562,791.3552856445312
1575,791.7582397460938,791.7582397460938,800.2197875976562,797.3992919921875
1576,792.5640869140625,788.937744140625,792.5640869140625,801.025634765625
1577,790.952392578125,789.3406372070312,793.7728881835938,795.7875366210938
1578,794.1758422851562,790.5494384765625,798.2051391601562,792.5640869140625
