timestamp,RAW_TP9,RAW_AF7,RAW_AF8,RAW_TP10
1,809.89013671875,828.4249267578125,754.6886596679688,787.3259887695312
2,807.87548828125,829.6337280273438,750.2564086914062,792.967041015625
3,811.5018310546875,826.8131713867188,750.2564086914062,791.3552856445312
4,814.7252807617188,825.6043701171875,757.106201171875,786.5201416015625
5,819.5604248046875,828.02197265625,761.94140625,791.3552856445312
6,821.1721801757812,825.6043701171875,764.7619018554688,795.3846435546875
7,812.3076782226562,819.96337890625,767.1795043945312,796.5933837890625
8,809.084228515625,819.96337890625,766.7765502929688,794.5787353515625
9,817.1428833007812,819.5604248046875,768.3883056640625,803.040283203125
10,819.96337890625,818.3516235351562,771.2088012695312,809.4871826171875
11,818.7545776367188,817.94873046875,770.0,798.6080322265625
12,817.94873046875,817.94873046875,770.4029541015625,796.5933837890625
13,819.1575317382812,814.7252807617188,772.8204956054688,802.2344360351562
14,820.3662719726562,813.5164794921875,778.05859375,799.8168334960938
15,819.1575317382812,813.113525390625,781.2820434570312,795.7875366210938
16,817.94873046875,811.90478515625,781.6849975585938,790.952392578125
17,810.2930297851562,808.6813354492188,781.6849975585938,792.5640869140625
18,802.2344360351562,809.084228515625,784.1025390625,800.6226806640625
19,805.8607788085938,809.4871826171875,784.908447265625,803.8461303710938
20,806.2637329101562,802.6373901367188,784.1025390625,796.5933837890625
21,801.025634765625,799.8168334960938,786.1171875,793.7728881835938
22,799.8168334960938,802.2344360351562,786.923095703125,796.5933837890625
23,798.2051391601562,800.6226806640625,786.5201416015625,795.7875366210938
24,802.6373901367188,801.4285888671875,788.5347900390625,796.1904907226562
25,803.4432373046875,800.6226806640625,786.923095703125,799.010986328125
26,794.1758422851562,797.8021850585938,782.4908447265625,792.1611938476562
27,793.3699340820312,799.4139404296875,780.879150390625,788.1318969726562
28,796.996337890625,799.8168334960938,785.3113403320312,788.937744140625
29,794.1758422851562,796.5933837890625,788.937744140625,790.5494384765625
30,797.8021850585938,797.3992919921875,789.3406372070312,796.1904907226562
31,800.6226806640625,795.3846435546875,792.1611938476562,793.7728881835938
32,802.2344360351562,795.3846435546875,790.1465454101562,793.7728881835938
33,804.6520385742188,795.7875366210938,786.1171875,800.6226806640625
34,805.8607788085938,794.981689453125,788.937744140625,806.2637329101562
35,807.4725341796875,801.025634765625,796.1904907226562,806.6666870117188
36,800.6226806640625,799.010986328125,796.996337890625,799.8168334960938
37,793.3699340820312,794.5787353515625,792.1611938476562,799.8168334960938
38,791.7582397460938,794.981689453125,789.3406372070312,799.010986328125
39,795.3846435546875,795.7875366210938,793.3699340820312,794.981689453125
40,799.010986328125,799.4139404296875,794.1758422851562,797.8021850585938
41,796.1904907226562,797.3992919921875,790.1465454101562,799.010986328125
42,790.1465454101562,793.3699340820312,786.5201416015625,797.3992919921875
43,793.3699340820312,795.7875366210938,788.937744140625,799.010986328125
44,796.996337890625,795.3846435546875,789.7435913085938,799.8168334960938
45,793.7728881835938,792.1611938476562,787.3259887695312,805.054931640625
46,792.5640869140625,794.981689453125,790.952392578125,807.87548828125
47,796.5933837890625,799.8168334960938,794.981689453125,799.4139404296875
48,797.3992919921875,799.4139404296875,792.5640869140625,797.3992919921875
49,786.923095703125,796.1904907226562,792.5640869140625,794.981689453125
50,788.1318969726562,794.5787353515625,795.7875366210938,800.2197875976562
51,795.7875366210938,796.5933837890625,799.4139404296875,805.8607788085938
52,794.981689453125,796.1904907226562,801.025634765625,806.6666870117188
53,794.981689453125,796.1904907226562,799.010986328125,803.4432373046875
54,796.5933837890625,794.981689453125,799.010986328125,795.3846435546875
55,796.5933837890625,792.5640869140625,795.3846435546875,788.937744140625
56,794.981689453125,795.7875366210938,790.952392578125,792.1611938476562
57,796.996337890625,803.4432373046875,793.7728881835938,797.3992919921875
58,800.2197875976562,801.4285888671875,793.3699340820312,790.1465454101562
59,801.8314819335938,795.7875366210938,792.1611938476562,792.967041015625
60,798.2051391601562,801.4285888671875,795.7875366210938,801.4285888671875
61,790.952392578125,801.025634765625,791.3552856445312,798.2051391601562
62,786.5201416015625,797.8021850585938,789.7435913085938,790.5494384765625
63,786.923095703125,800.6226806640625,791.3552856445312,785.3113403320312
64,792.1611938476562,796.996337890625,793.7728881835938,781.6849975585938
65,792.967041015625,789.7435913085938,795.3846435546875,777.2527465820312
66,786.923095703125,791.7582397460938,792.5640869140625,779.6703491210938
67,783.6996459960938,795.3846435546875,789.7435913085938,778.4615478515625
68,784.1025390625,792.967041015625,791.3552856445312,779.2673950195312
69,788.5347900390625,791.3552856445312,792.1611938476562,783.2966918945312
70,789.7435913085938,792.967041015625,793.3699340820312,786.1171875
71,790.952392578125,791.3552856445312,794.1758422851562,788.1318969726562
72,791.7582397460938,788.937744140625,794.1758422851562,783.6996459960938
73,792.5640869140625,787.3259887695312,795.3846435546875,785.7142944335938
74,788.937744140625,786.923095703125,794.5787353515625,784.1025390625
75,788.1318969726562,789.7435913085938,793.7728881835938,790.5494384765625
76,792.1611938476562,794.5787353515625,803.040283203125,801.025634765625
77,789.7435913085938,790.1465454101562,805.8607788085938,794.1758422851562
78,790.952392578125,790.5494384765625,797.8021850585938,791.7582397460938
79,788.1318969726562,791.3552856445312,797.8021850585938,797.8021850585938
80,790.952392578125,792.967041015625,801.4285888671875,803.8461303710938
81,798.2051391601562,800.2197875976562,799.4139404296875,798.6080322265625
82,792.5640869140625,793.3699340820312,797.3992919921875,792.1611938476562
83,786.1171875,789.3406372070312,795.3846435546875,788.937744140625
84,795.7875366210938,796.996337890625,794.981689453125,790.1465454101562
85,798.2051391601562,797.8021850585938,796.996337890625,790.1465454101562
86,795.3846435546875,794.981689453125,796.996337890625,791.7582397460938
87,800.2197875976562,799.010986328125,793.3699340820312,788.5347900390625
88,802.6373901367188,805.054931640625,789.3406372070312,783.2966918945312
89,799.8168334960938,806.2637329101562,793.3699340820312,786.1171875
90,798.2051391601562,801.025634765625,794.5787353515625,783.2966918945312
91,799.8168334960938,796.1904907226562,792.1611938476562,788.5347900390625
92,799.8168334960938,798.2051391601562,794.1758422851562,792.967041015625
93,797.8021850585938,802.2344360351562,796.1904907226562,783.6996459960938
94,795.7875366210938,798.6080322265625,798.6080322265625,783.6996459960938
95,796.1904907226562,793.3699340820312,795.3846435546875,783.6996459960938
96,799.4139404296875,797.3992919921875,791.7582397460938,782.893798828125
97,796.996337890625,798.2051391601562,792.5640869140625,788.5347900390625
98,790.952392578125,792.5640869140625,793.7728881835938,790.5494384765625
99,794.981689453125,790.1465454101562,794.981689453125,790.1465454101562
100,792.5640869140625,787.3259887695312,793.7728881835938,793.7728881835938
101,786.5201416015625,783.6996459960938,794.5787353515625,790.5494384765625
102,784.5054931640625,786.1171875,796.996337890625,795.3846435546875
103,782.893798828125,790.1465454101562,797.8021850585938,798.6080322265625
104,782.893798828125,793.7728881835938,793.7728881835938,784.908447265625
105,790.5494384765625,791.3552856445312,792.967041015625,783.2966918945312
106,799.4139404296875,789.7435913085938,793.3699340820312,793.7728881835938
107,794.1758422851562,795.7875366210938,791.3552856445312,794.5787353515625
108,791.7582397460938,797.8021850585938,794.5787353515625,790.5494384765625
109,793.3699340820312,792.967041015625,790.952392578125,785.7142944335938
110,791.7582397460938,795.3846435546875,786.5201416015625,785.7142944335938
111,794.1758422851562,794.981689453125,790.5494384765625,794.1758422851562
112,800.2197875976562,796.996337890625,797.3992919921875,804.2490844726562
113,796.5933837890625,803.8461303710938,801.025634765625,801.8314819335938
114,788.1318969726562,801.8314819335938,799.8168334960938,787.3259887695312
115,792.5640869140625,802.6373901367188,798.6080322265625,787.3259887695312
116,795.7875366210938,806.6666870117188,798.2051391601562,792.967041015625
117,802.2344360351562,809.084228515625,794.5787353515625,794.1758422851562
118,810.6959838867188,809.89013671875,791.7582397460938,806.2637329101562
119,810.2930297851562,805.4578857421875,796.1904907226562,808.2783813476562
120,805.4578857421875,800.6226806640625,796.1904907226562,793.7728881835938
121,801.4285888671875,801.025634765625,792.5640869140625,790.1465454101562
122,798.2051391601562,799.4139404296875,792.1611938476562,790.952392578125
123,793.7728881835938,792.967041015625,794.1758422851562,790.952392578125
124,792.5640869140625,790.5494384765625,795.3846435546875,792.5640869140625
125,797.8021850585938,795.7875366210938,797.3992919921875,796.5933837890625
126,797.3992919921875,799.8168334960938,797.3992919921875,796.1904907226562
127,794.1758422851562,800.2197875976562,799.4139404296875,796.996337890625
128,790.952392578125,803.4432373046875,800.6226806640625,801.8314819335938
129,784.908447265625,799.010986328125,799.010986328125,803.8461303710938
130,786.5201416015625,797.8021850585938,799.4139404296875,801.4285888671875
131,787.7289428710938,803.040283203125,799.8168334960938,797.8021850585938
132,790.5494384765625,798.6080322265625,798.6080322265625,793.3699340820312
133,797.8021850585938,796.1904907226562,797.3992919921875,792.967041015625
134,794.5787353515625,798.2051391601562,792.5640869140625,788.1318969726562
135,790.1465454101562,795.7875366210938,788.937744140625,783.6996459960938
136,794.1758422851562,795.7875366210938,792.967041015625,788.1318969726562
137,801.025634765625,792.5640869140625,792.1611938476562,786.923095703125
138,793.7728881835938,786.923095703125,787.7289428710938,778.4615478515625
139,786.5201416015625,788.937744140625,792.5640869140625,779.6703491210938
140,789.7435913085938,793.7728881835938,799.010986328125,789.7435913085938
141,787.7289428710938,793.7728881835938,796.1904907226562,791.7582397460938
142,787.3259887695312,794.981689453125,792.967041015625,786.1171875
143,792.1611938476562,792.967041015625,793.7728881835938,781.6849975585938
144,789.3406372070312,789.7435913085938,791.7582397460938,784.908447265625
145,786.1171875,790.5494384765625,793.3699340820312,791.3552856445312
146,783.6996459960938,789.7435913085938,792.5640869140625,785.7142944335938
147,788.5347900390625,792.967041015625,787.7289428710938,786.5201416015625
148,795.7875366210938,796.5933837890625,789.7435913085938,791.3552856445312
149,794.1758422851562,794.1758422851562,790.952392578125,785.7142944335938
150,791.3552856445312,792.1611938476562,787.7289428710938,791.7582397460938
151,786.5201416015625,790.952392578125,790.1465454101562,794.1758422851562
152,788.1318969726562,793.3699340820312,791.3552856445312,797.3992919921875
153,790.1465454101562,799.010986328125,789.3406372070312,799.8168334960938
154,789.3406372070312,798.2051391601562,790.952392578125,790.1465454101562
155,792.5640869140625,795.7875366210938,794.5787353515625,795.7875366210938
156,793.7728881835938,795.3846435546875,793.7728881835938,793.7728881835938
157,795.7875366210938,796.1904907226562,795.7875366210938,786.1171875
158,802.6373901367188,800.6226806640625,799.4139404296875,786.5201416015625
159,803.040283203125,800.6226806640625,796.5933837890625,787.7289428710938
160,790.5494384765625,788.5347900390625,792.5640869140625,786.5201416015625
161,790.5494384765625,787.3259887695312,793.3699340820312,785.7142944335938
162,794.5787353515625,793.7728881835938,793.3699340820312,790.952392578125
163,790.5494384765625,791.7582397460938,790.5494384765625,788.5347900390625
164,784.908447265625,788.937744140625,790.1465454101562,786.1171875
165,783.2966918945312,790.952392578125,792.967041015625,787.7289428710938
166,790.5494384765625,793.7728881835938,798.6080322265625,791.3552856445312
167,800.6226806640625,789.3406372070312,798.2051391601562,797.3992919921875
168,796.5933837890625,787.7289428710938,792.967041015625,792.1611938476562
169,788.937744140625,788.937744140625,792.1611938476562,786.923095703125
170,794.5787353515625,785.7142944335938,792.967041015625,785.3113403320312
171,796.1904907226562,787.3259887695312,790.1465454101562,779.6703491210938
172,789.3406372070312,789.3406372070312,787.7289428710938,778.8644409179688
173,786.5201416015625,787.3259887695312,792.1611938476562,781.6849975585938
174,781.2820434570312,786.5201416015625,792.1611938476562,778.4615478515625
175,782.4908447265625,790.1465454101562,794.1758422851562,778.8644409179688
176,786.5201416015625,792.967041015625,799.010986328125,779.6703491210938
177,789.7435913085938,789.3406372070312,796.1904907226562,781.2820434570312
178,794.5787353515625,788.1318969726562,796.996337890625,786.923095703125
179,792.5640869140625,786.5201416015625,797.3992919921875,788.5347900390625
180,788.937744140625,787.3259887695312,797.3992919921875,788.5347900390625
181,787.3259887695312,790.5494384765625,799.4139404296875,792.967041015625
182,787.7289428710938,794.1758422851562,796.5933837890625,792.1611938476562
183,787.3259887695312,794.981689453125,793.3699340820312,799.4139404296875
184,785.3113403320312,792.5640869140625,792.1611938476562,801.8314819335938
185,784.5054931640625,791.7582397460938,788.937744140625,786.5201416015625
186,780.4761962890625,787.3259887695312,788.1318969726562,784.908447265625
187,777.2527465820312,789.7435913085938,787.3259887695312,786.923095703125
188,783.2966918945312,794.981689453125,791.3552856445312,785.7142944335938
189,784.5054931640625,793.3699340820312,789.3406372070312,787.3259887695312
190,784.1025390625,790.1465454101562,787.7289428710938,789.3406372070312
191,784.908447265625,788.1318969726562,788.5347900390625,790.1465454101562
192,787.7289428710938,794.5787353515625,789.7435913085938,790.952392578125
193,791.3552856445312,798.2051391601562,793.7728881835938,793.3699340820312
194,787.7289428710938,791.7582397460938,792.967041015625,794.981689453125
195,783.6996459960938,788.937744140625,793.7728881835938,792.5640869140625
196,783.2966918945312,788.5347900390625,792.5640869140625,788.937744140625
197,787.3259887695312,795.3846435546875,790.1465454101562,790.5494384765625
198,795.7875366210938,802.6373901367188,790.952392578125,790.5494384765625
199,795.3846435546875,797.8021850585938,790.952392578125,788.5347900390625
200,789.3406372070312,792.967041015625,786.923095703125,787.3259887695312
201,791.7582397460938,790.1465454101562,784.5054931640625,783.6996459960938
202,796.1904907226562,793.7728881835938,785.3113403320312,785.3113403320312
203,794.1758422851562,797.8021850585938,786.923095703125,788.1318969726562
204,790.952392578125,798.2051391601562,788.1318969726562,787.3259887695312
205,790.1465454101562,793.7728881835938,789.7435913085938,787.3259887695312
206,790.5494384765625,793.7728881835938,789.3406372070312,787.3259887695312
207,796.1904907226562,794.5787353515625,785.3113403320312,790.5494384765625
208,803.040283203125,790.5494384765625,784.1025390625,785.7142944335938
209,792.5640869140625,790.1465454101562,785.3113403320312,784.1025390625
210,776.8497924804688,792.967041015625,786.923095703125,792.1611938476562
211,769.1941528320312,797.3992919921875,790.1465454101562,790.5494384765625
212,766.3735961914062,800.2197875976562,790.1465454101562,786.5201416015625
213,772.0146484375,796.996337890625,790.5494384765625,792.5640869140625
214,780.879150390625,796.996337890625,788.937744140625,800.2197875976562
215,779.6703491210938,799.4139404296875,787.3259887695312,797.3992919921875
216,783.6996459960938,799.010986328125,792.967041015625,793.3699340820312
217,792.5640869140625,797.3992919921875,793.3699340820312,796.5933837890625
218,795.7875366210938,796.5933837890625,791.3552856445312,799.010986328125
219,792.967041015625,794.981689453125,793.3699340820312,790.1465454101562
220,788.937744140625,792.5640869140625,791.7582397460938,784.908447265625
221,789.3406372070312,793.3699340820312,792.1611938476562,782.893798828125
222,790.952392578125,790.5494384765625,792.1611938476562,783.6996459960938
223,795.7875366210938,792.5640869140625,789.7435913085938,787.3259887695312
224,793.3699340820312,796.996337890625,788.5347900390625,782.893798828125
225,790.952392578125,795.3846435546875,787.3259887695312,791.7582397460938
226,791.3552856445312,796.1904907226562,786.5201416015625,799.4139404296875
227,793.3699340820312,803.4432373046875,791.3552856445312,793.7728881835938
228,797.8021850585938,800.6226806640625,794.5787353515625,788.1318969726562
229,796.996337890625,792.967041015625,794.1758422851562,786.1171875
230,793.7728881835938,784.908447265625,794.5787353515625,787.7289428710938
231,796.1904907226562,788.1318969726562,793.7728881835938,781.6849975585938
232,803.4432373046875,798.2051391601562,795.3846435546875,786.5201416015625
233,805.054931640625,799.8168334960938,797.3992919921875,798.6080322265625
234,803.4432373046875,794.981689453125,795.3846435546875,800.2197875976562
235,800.2197875976562,789.7435913085938,799.4139404296875,792.5640869140625
236,798.6080322265625,791.3552856445312,799.4139404296875,790.5494384765625
237,798.2051391601562,790.952392578125,796.5933837890625,795.3846435546875
238,792.1611938476562,790.1465454101562,799.010986328125,786.923095703125
239,790.5494384765625,796.5933837890625,803.040283203125,787.3259887695312
240,792.5640869140625,799.4139404296875,807.87548828125,793.7728881835938
241,797.3992919921875,799.4139404296875,809.084228515625,791.7582397460938
242,796.5933837890625,793.7728881835938,806.2637329101562,790.952392578125
243,796.1904907226562,795.7875366210938,802.6373901367188,792.967041015625
244,797.8021850585938,799.010986328125,801.8314819335938,794.1758422851562
245,794.1758422851562,798.6080322265625,802.2344360351562,794.1758422851562
246,791.3552856445312,799.8168334960938,797.8021850585938,787.7289428710938
247,796.1904907226562,797.3992919921875,797.8021850585938,788.937744140625
248,795.3846435546875,796.5933837890625,801.025634765625,795.7875366210938
249,788.937744140625,795.7875366210938,801.4285888671875,797.3992919921875
250,794.5787353515625,796.1904907226562,803.040283203125,797.3992919921875
251,799.010986328125,794.5787353515625,801.4285888671875,795.3846435546875
252,797.8021850585938,800.2197875976562,803.4432373046875,796.996337890625
253,795.7875366210938,804.6520385742188,801.8314819335938,793.7728881835938
254,796.1904907226562,799.010986328125,800.2197875976562,789.7435913085938
255,797.8021850585938,798.6080322265625,803.8461303710938,792.1611938476562
256,795.3846435546875,799.010986328125,807.069580078125,797.8021850585938
257,794.1758422851562,797.3992919921875,805.054931640625,800.2197875976562
258,794.5787353515625,795.7875366210938,804.2490844726562,799.4139404296875
259,798.2051391601562,792.5640869140625,805.054931640625,795.7875366210938
260,809.084228515625,794.1758422851562,802.6373901367188,800.6226806640625
261,804.6520385742188,799.010986328125,799.8168334960938,801.8314819335938
262,792.5640869140625,802.2344360351562,797.3992919921875,792.5640869140625
263,794.5787353515625,795.7875366210938,794.5787353515625,792.1611938476562
264,801.8314819335938,797.8021850585938,794.981689453125,795.7875366210938
265,806.6666870117188,804.6520385742188,798.6080322265625,796.1904907226562
266,803.040283203125,800.2197875976562,801.4285888671875,793.7728881835938
267,807.069580078125,800.2197875976562,801.4285888671875,794.5787353515625
268,803.4432373046875,800.2197875976562,800.6226806640625,792.5640869140625
269,796.5933837890625,799.4139404296875,798.6080322265625,793.7728881835938
270,796.5933837890625,794.1758422851562,796.5933837890625,795.3846435546875
271,791.3552856445312,786.1171875,796.1904907226562,799.8168334960938
272,786.1171875,787.3259887695312,798.2051391601562,807.069580078125
273,782.087890625,790.5494384765625,799.4139404296875,794.1758422851562
274,788.937744140625,788.937744140625,797.8021850585938,789.3406372070312
275,793.7728881835938,788.937744140625,799.8168334960938,794.981689453125
276,792.967041015625,791.7582397460938,797.8021850585938,794.981689453125
277,791.7582397460938,786.1171875,796.5933837890625,796.996337890625
278,791.7582397460938,784.5054931640625,796.996337890625,794.981689453125
279,790.952392578125,787.3259887695312,794.981689453125,791.3552856445312
280,790.1465454101562,787.3259887695312,793.3699340820312,790.1465454101562
281,792.1611938476562,786.1171875,792.967041015625,787.3259887695312
282,792.1611938476562,786.923095703125,793.7728881835938,790.952392578125
283,791.7582397460938,790.5494384765625,798.6080322265625,795.7875366210938
284,793.7728881835938,788.937744140625,800.2197875976562,791.7582397460938
285,796.996337890625,786.923095703125,797.8021850585938,787.7289428710938
286,799.8168334960938,789.7435913085938,799.8168334960938,792.1611938476562
287,794.981689453125,790.1465454101562,796.996337890625,792.967041015625
288,790.5494384765625,792.967041015625,792.1611938476562,783.2966918945312
289,782.893798828125,790.5494384765625,788.1318969726562,780.0732421875
290,779.2673950195312,786.5201416015625,785.7142944335938,782.893798828125
291,786.5201416015625,787.3259887695312,788.937744140625,783.6996459960938
292,786.923095703125,786.5201416015625,787.7289428710938,780.4761962890625
293,790.952392578125,792.967041015625,788.937744140625,781.6849975585938
294,796.996337890625,794.5787353515625,792.967041015625,788.1318969726562
295,793.7728881835938,786.923095703125,793.3699340820312,797.3992919921875
296,791.3552856445312,783.6996459960938,789.3406372070312,794.981689453125
297,796.996337890625,788.937744140625,787.3259887695312,786.1171875
298,796.1904907226562,791.7582397460938,790.5494384765625,791.7582397460938
299,788.5347900390625,792.967041015625,790.5494384765625,792.967041015625
300,792.1611938476562,788.937744140625,792.967041015625,791.7582397460938
301,793.7728881835938,785.7142944335938,793.3699340820312,794.981689453125
302,789.3406372070312,787.3259887695312,789.7435913085938,793.3699340820312
303,783.6996459960938,787.3259887695312,790.1465454101562,787.3259887695312
304,782.893798828125,788.937744140625,792.1611938476562,782.893798828125
305,788.1318969726562,793.3699340820312,793.3699340820312,782.893798828125
306,789.3406372070312,794.1758422851562,794.5787353515625,785.7142944335938
307,784.908447265625,792.967041015625,793.7728881835938,785.3113403320312
308,779.6703491210938,786.1171875,792.1611938476562,785.3113403320312
309,780.0732421875,781.6849975585938,794.981689453125,788.1318969726562
310,785.7142944335938,784.908447265625,791.7582397460938,791.3552856445312
311,788.5347900390625,784.908447265625,789.3406372070312,791.3552856445312
312,785.3113403320312,785.7142944335938,789.7435913085938,788.5347900390625
313,784.5054931640625,788.5347900390625,786.5201416015625,786.923095703125
314,786.1171875,792.5640869140625,787.3259887695312,788.937744140625
315,782.893798828125,796.5933837890625,789.7435913085938,792.967041015625
316,783.2966918945312,796.996337890625,788.5347900390625,790.5494384765625
317,793.3699340820312,795.3846435546875,788.5347900390625,795.3846435546875
318,793.3699340820312,793.3699340820312,789.7435913085938,795.7875366210938
319,792.1611938476562,788.937744140625,788.5347900390625,782.893798828125
320,793.7728881835938,786.5201416015625,791.3552856445312,787.7289428710938
321,797.3992919921875,789.3406372070312,796.5933837890625,802.6373901367188
322,800.6226806640625,790.5494384765625,801.025634765625,804.2490844726562
323,791.7582397460938,785.7142944335938,799.4139404296875,796.5933837890625
324,787.3259887695312,787.7289428710938,795.7875366210938,790.952392578125
325,787.3259887695312,794.981689453125,796.996337890625,789.7435913085938
326,789.3406372070312,796.5933837890625,798.6080322265625,787.7289428710938
327,786.923095703125,788.5347900390625,798.6080322265625,782.4908447265625
328,783.2966918945312,781.6849975585938,796.996337890625,781.2820434570312
329,782.4908447265625,784.1025390625,798.6080322265625,786.1171875
330,794.5787353515625,791.3552856445312,802.2344360351562,791.7582397460938
331,796.5933837890625,792.1611938476562,802.6373901367188,791.3552856445312
332,780.0732421875,783.6996459960938,796.996337890625,790.5494384765625
333,773.6264038085938,788.937744140625,793.7728881835938,794.1758422851562
334,776.4468994140625,799.8168334960938,794.981689453125,796.1904907226562
335,779.6703491210938,796.1904907226562,796.5933837890625,792.967041015625
336,787.7289428710938,794.5787353515625,799.8168334960938,794.981689453125
337,794.1758422851562,796.996337890625,798.6080322265625,793.3699340820312
338,790.1465454101562,797.3992919921875,798.6080322265625,786.5201416015625
339,789.3406372070312,793.3699340820312,796.1904907226562,783.2966918945312
340,797.8021850585938,790.5494384765625,792.1611938476562,786.923095703125
341,801.4285888671875,795.7875366210938,796.996337890625,789.3406372070312
342,794.5787353515625,790.952392578125,794.981689453125,786.1171875
343,795.7875366210938,789.3406372070312,788.5347900390625,788.1318969726562
344,795.7875366210938,797.3992919921875,792.1611938476562,787.7289428710938
345,792.967041015625,800.6226806640625,794.5787353515625,783.2966918945312
346,792.1611938476562,796.5933837890625,792.5640869140625,787.7289428710938
347,786.923095703125,794.1758422851562,789.7435913085938,794.1758422851562
348,788.1318969726562,793.7728881835938,787.7289428710938,798.6080322265625
349,789.7435913085938,792.5640869140625,790.952392578125,798.6080322265625
350,784.908447265625,790.952392578125,792.5640869140625,792.967041015625
351,786.5201416015625,790.5494384765625,795.7875366210938,793.3699340820312
352,789.7435913085938,790.952392578125,794.1758422851562,797.3992919921875
353,786.5201416015625,785.7142944335938,790.952392578125,790.952392578125
354,783.6996459960938,786.5201416015625,793.7728881835938,785.3113403320312
355,782.087890625,788.5347900390625,795.7875366210938,790.5494384765625
356,782.087890625,788.1318969726562,796.1904907226562,797.3992919921875
357,780.879150390625,792.5640869140625,794.981689453125,794.981689453125
358,776.0439453125,788.1318969726562,792.5640869140625,786.923095703125
359,772.0146484375,784.1025390625,789.7435913085938,786.1171875
360,777.2527465820312,786.923095703125,792.1611938476562,788.1318969726562
361,787.3259887695312,792.967041015625,797.3992919921875,785.7142944335938
362,795.7875366210938,799.8168334960938,801.4285888671875,790.952392578125
363,791.3552856445312,802.6373901367188,799.8168334960938,795.7875366210938
364,784.908447265625,798.6080322265625,798.6080322265625,790.952392578125
365,774.4322509765625,791.3552856445312,795.7875366210938,780.879150390625
366,773.2234497070312,795.3846435546875,797.3992919921875,780.0732421875
367,782.087890625,803.8461303710938,799.010986328125,787.7289428710938
368,770.4029541015625,809.084228515625,793.7728881835938,782.087890625
369,757.106201171875,817.94873046875,787.7289428710938,767.1795043945312
370,748.6447143554688,828.4249267578125,786.1171875,756.7033081054688
371,748.6447143554688,839.3040161132812,784.5054931640625,753.8828125
372,736.5567626953125,844.5421142578125,776.0439453125,737.3626098632812
373,727.6923217773438,854.6153564453125,772.8204956054688,717.6190185546875
374,727.2893676757812,872.7472534179688,776.8497924804688,714.3956298828125
375,711.1721801757812,873.5531005859375,774.8351440429688,702.7106323242188
376,694.2490844726562,865.4945068359375,776.0439453125,686.996337890625
377,679.7435913085938,869.120849609375,784.1025390625,674.5054931640625
378,664.029296875,872.7472534179688,782.087890625,656.7765502929688
379,660.8058471679688,875.5677490234375,780.0732421875,658.3883056640625
380,654.7619018554688,875.1648559570312,781.6849975585938,652.7472534179688
381,658.3883056640625,875.970703125,780.879150390625,643.076904296875
382,659.5970458984375,866.7033081054688,780.879150390625,645.8974609375
383,662.4176025390625,861.062255859375,785.3113403320312,651.1355590820312
384,669.2673950195312,858.2417602539062,788.1318969726562,659.5970458984375
385,671.2820434570312,854.2124633789062,788.5347900390625,663.6264038085938
386,673.2966918945312,846.959716796875,790.1465454101562,665.2380981445312
387,681.3552856445312,845.3479614257812,788.937744140625,672.4908447265625
388,693.4432373046875,846.5567626953125,792.1611938476562,686.1904907226562
389,702.3076782226562,846.959716796875,793.7728881835938,700.6959838867188
390,709.1575317382812,843.3333129882812,797.8021850585938,713.5897216796875
391,713.99267578125,840.915771484375,801.025634765625,722.4542236328125
392,726.08056640625,846.1538696289062,797.3992919921875,730.915771484375
393,732.5274658203125,840.10986328125,794.1758422851562,738.5714111328125
394,739.3773193359375,832.05126953125,792.1611938476562,747.032958984375
395,748.2417602539062,829.2307739257812,793.3699340820312,753.4798583984375
396,753.076904296875,825.6043701171875,792.5640869140625,752.2710571289062
397,761.1355590820312,817.5457763671875,790.1465454101562,759.5238037109375
398,768.3883056640625,808.6813354492188,786.923095703125,772.4176025390625
399,780.4761962890625,806.6666870117188,786.5201416015625,786.5201416015625
400,784.5054931640625,806.6666870117188,787.7289428710938,786.1171875
401,786.923095703125,796.1904907226562,785.7142944335938,785.7142944335938
402,793.3699340820312,785.7142944335938,788.5347900390625,796.996337890625
403,795.7875366210938,783.2966918945312,798.2051391601562,799.4139404296875
404,799.010986328125,778.8644409179688,798.6080322265625,799.8168334960938
405,792.967041015625,767.9853515625,796.996337890625,799.010986328125
406,789.7435913085938,759.9267578125,797.8021850585938,806.6666870117188
407,798.2051391601562,761.5384521484375,793.3699340820312,809.084228515625
408,804.2490844726562,759.5238037109375,789.3406372070312,806.6666870117188
409,804.2490844726562,755.8974609375,788.5347900390625,808.2783813476562
410,801.4285888671875,759.5238037109375,784.908447265625,809.89013671875
411,807.4725341796875,760.7326049804688,788.1318969726562,818.3516235351562
412,821.97802734375,759.5238037109375,794.1758422851562,829.6337280273438
413,836.08056640625,758.7179565429688,794.5787353515625,838.09521484375
414,832.05126953125,754.2857055664062,794.5787353515625,834.06591796875
415,825.2014770507812,759.5238037109375,794.1758422851562,826.4102783203125
416,832.05126953125,761.5384521484375,793.3699340820312,830.8424682617188
417,834.8717651367188,759.5238037109375,792.967041015625,839.7069702148438
418,838.4981689453125,757.106201171875,795.3846435546875,846.5567626953125
419,846.5567626953125,755.4945068359375,799.8168334960938,846.5567626953125
420,848.1685180664062,760.3296508789062,798.6080322265625,839.3040161132812
421,849.7802124023438,762.3442993164062,796.996337890625,840.10986328125
422,845.3479614257812,766.3735961914062,797.8021850585938,844.1392211914062
423,843.3333129882812,767.1795043945312,798.6080322265625,842.930419921875
424,853.4066162109375,761.5384521484375,802.6373901367188,846.959716796875
425,850.989013671875,761.5384521484375,801.8314819335938,840.5128173828125
426,844.5421142578125,764.3589477539062,801.025634765625,834.8717651367188
427,840.915771484375,765.970703125,799.010986328125,834.06591796875
428,839.7069702148438,763.5531005859375,796.5933837890625,830.03662109375
429,837.2893676757812,762.7472534179688,797.3992919921875,841.3186645507812
430,831.2454223632812,769.5970458984375,797.3992919921875,843.3333129882812
431,833.2600708007812,773.2234497070312,796.996337890625,831.2454223632812
432,834.8717651367188,770.8058471679688,796.1904907226562,832.8571166992188
433,835.6776733398438,764.7619018554688,797.8021850585938,835.2747192382812
434,835.6776733398438,760.7326049804688,798.6080322265625,834.06591796875
435,834.4688720703125,768.3883056640625,796.996337890625,832.8571166992188
436,830.03662109375,771.2088012695312,800.6226806640625,828.02197265625
437,821.5750732421875,767.5823974609375,796.5933837890625,819.1575317382812
438,825.6043701171875,770.8058471679688,794.1758422851562,819.5604248046875
439,825.2014770507812,770.8058471679688,795.3846435546875,824.3956298828125
440,819.96337890625,772.8204956054688,794.1758422851562,830.4395751953125
441,818.7545776367188,775.2380981445312,799.4139404296875,830.03662109375
442,819.1575317382812,770.0,799.010986328125,817.5457763671875
443,820.3662719726562,770.0,797.8021850585938,815.5311279296875
444,814.7252807617188,776.4468994140625,797.8021850585938,821.97802734375
445,808.2783813476562,776.0439453125,799.8168334960938,817.1428833007812
446,805.054931640625,777.6557006835938,801.4285888671875,809.4871826171875
447,807.069580078125,779.6703491210938,794.1758422851562,815.93408203125
448,813.5164794921875,776.0439453125,791.3552856445312,822.7838745117188
449,818.7545776367188,777.2527465820312,797.8021850585938,825.6043701171875
450,823.1868286132812,780.0732421875,802.2344360351562,821.1721801757812
451,823.5897216796875,780.0732421875,798.6080322265625,812.3076782226562
452,818.7545776367188,778.8644409179688,796.1904907226562,815.93408203125
453,813.113525390625,782.893798828125,797.3992919921875,819.1575317382812
454,816.3369750976562,780.879150390625,795.3846435546875,818.3516235351562
455,819.5604248046875,783.2966918945312,793.3699340820312,816.7399291992188
456,815.1282348632812,788.1318969726562,789.7435913085938,813.5164794921875
457,813.91943359375,785.7142944335938,790.1465454101562,813.113525390625
458,812.7106323242188,782.087890625,791.3552856445312,811.90478515625
459,811.098876953125,780.0732421875,787.3259887695312,811.098876953125
460,807.4725341796875,784.908447265625,789.7435913085938,813.113525390625
461,801.4285888671875,781.6849975585938,792.967041015625,811.5018310546875
462,800.2197875976562,781.6849975585938,791.7582397460938,805.8607788085938
463,799.010986328125,784.5054931640625,791.7582397460938,809.4871826171875
464,804.2490844726562,788.1318969726562,789.3406372070312,814.7252807617188
465,809.4871826171875,790.952392578125,792.967041015625,809.4871826171875
466,807.4725341796875,786.923095703125,795.3846435546875,803.8461303710938
467,807.069580078125,784.1025390625,796.1904907226562,799.8168334960938
468,808.6813354492188,783.2966918945312,794.5787353515625,803.8461303710938
469,810.2930297851562,782.087890625,794.5787353515625,798.6080322265625
470,805.8607788085938,778.8644409179688,796.1904907226562,789.3406372070312
471,799.4139404296875,778.8644409179688,793.3699340820312,793.3699340820312
472,800.6226806640625,778.8644409179688,794.981689453125,796.996337890625
473,796.996337890625,776.4468994140625,793.7728881835938,793.7728881835938
474,794.5787353515625,776.0439453125,789.7435913085938,794.5787353515625
475,795.3846435546875,777.2527465820312,790.1465454101562,801.8314819335938
476,791.3552856445312,774.8351440429688,790.5494384765625,798.2051391601562
477,788.937744140625,779.2673950195312,792.1611938476562,793.7728881835938
478,794.981689453125,782.893798828125,794.1758422851562,795.7875366210938
479,800.2197875976562,780.879150390625,794.981689453125,794.1758422851562
480,799.010986328125,785.7142944335938,792.1611938476562,794.5787353515625
481,800.2197875976562,789.3406372070312,792.967041015625,796.5933837890625
482,801.4285888671875,790.5494384765625,797.3992919921875,794.5787353515625
483,800.2197875976562,794.5787353515625,802.2344360351562,794.1758422851562
484,797.8021850585938,791.7582397460938,796.5933837890625,794.1758422851562
485,797.8021850585938,788.1318969726562,794.981689453125,788.937744140625
486,796.1904907226562,786.5201416015625,798.6080322265625,783.6996459960938
487,799.010986328125,789.3406372070312,797.8021850585938,792.1611938476562
488,803.4432373046875,798.2051391601562,801.4285888671875,794.5787353515625
489,801.025634765625,799.8168334960938,803.040283203125,796.1904907226562
490,800.6226806640625,802.2344360351562,803.040283203125,801.025634765625
491,800.6226806640625,797.8021850585938,803.040283203125,794.1758422851562
492,794.981689453125,798.2051391601562,804.6520385742188,794.981689453125
493,794.5787353515625,798.6080322265625,803.8461303710938,797.8021850585938
494,794.5787353515625,796.5933837890625,803.8461303710938,801.4285888671875
495,790.5494384765625,794.1758422851562,802.2344360351562,802.2344360351562
496,796.1904907226562,790.5494384765625,801.8314819335938,802.2344360351562
497,798.6080322265625,790.952392578125,804.6520385742188,806.2637329101562
498,796.1904907226562,791.3552856445312,798.6080322265625,803.4432373046875
499,795.3846435546875,792.5640869140625,796.5933837890625,801.025634765625
500,789.7435913085938,791.3552856445312,794.981689453125,794.981689453125
501,784.1025390625,786.1171875,792.1611938476562,785.7142944335938
502,781.6849975585938,783.2966918945312,794.981689453125,790.1465454101562
503,788.1318969726562,788.937744140625,796.996337890625,796.996337890625
504,800.2197875976562,788.5347900390625,799.8168334960938,792.5640869140625
505,802.6373901367188,785.7142944335938,800.2197875976562,790.5494384765625
506,802.2344360351562,790.5494384765625,803.040283203125,791.7582397460938
507,794.1758422851562,790.5494384765625,801.025634765625,788.937744140625
508,791.7582397460938,788.1318969726562,794.981689453125,788.937744140625
509,793.7728881835938,794.981689453125,792.1611938476562,792.1611938476562
510,791.7582397460938,799.010986328125,791.7582397460938,793.3699340820312
511,794.1758422851562,796.996337890625,794.5787353515625,793.7728881835938
512,791.3552856445312,797.3992919921875,793.3699340820312,789.7435913085938
513,791.7582397460938,796.996337890625,793.7728881835938,790.952392578125
514,797.3992919921875,796.5933837890625,793.3699340820312,796.1904907226562
515,794.5787353515625,795.3846435546875,789.3406372070312,790.1465454101562
516,797.8021850585938,792.5640869140625,789.7435913085938,790.1465454101562
517,794.5787353515625,790.952392578125,790.952392578125,789.7435913085938
518,784.5054931640625,792.1611938476562,787.7289428710938,787.3259887695312
519,781.6849975585938,792.967041015625,784.908447265625,787.7289428710938
520,788.5347900390625,793.3699340820312,787.7289428710938,784.5054931640625
521,784.908447265625,787.3259887695312,791.3552856445312,782.893798828125
522,780.879150390625,784.1025390625,792.5640869140625,783.2966918945312
523,785.7142944335938,782.087890625,791.3552856445312,784.1025390625
524,783.2966918945312,782.087890625,792.967041015625,783.6996459960938
525,789.3406372070312,786.923095703125,792.1611938476562,782.087890625
526,793.7728881835938,786.923095703125,794.5787353515625,784.908447265625
527,789.7435913085938,782.087890625,794.981689453125,792.1611938476562
528,790.952392578125,786.5201416015625,789.7435913085938,797.8021850585938
529,791.7582397460938,793.3699340820312,791.3552856445312,796.996337890625
530,792.967041015625,790.5494384765625,796.996337890625,798.6080322265625
531,796.5933837890625,788.937744140625,801.4285888671875,798.6080322265625
532,793.7728881835938,784.1025390625,800.2197875976562,788.937744140625
533,792.967041015625,783.6996459960938,796.1904907226562,793.7728881835938
534,799.010986328125,789.7435913085938,794.5787353515625,802.2344360351562
535,796.1904907226562,786.1171875,793.3699340820312,799.8168334960938
536,787.7289428710938,780.0732421875,792.967041015625,800.6226806640625
537,786.5201416015625,781.6849975585938,795.3846435546875,800.6226806640625
538,786.5201416015625,780.879150390625,793.7728881835938,789.7435913085938
539,790.952392578125,781.2820434570312,795.7875366210938,787.7289428710938
540,791.7582397460938,780.879150390625,797.3992919921875,790.952392578125
541,789.3406372070312,779.2673950195312,796.5933837890625,794.1758422851562
542,790.952392578125,781.6849975585938,799.010986328125,796.996337890625
543,793.3699340820312,781.6849975585938,803.040283203125,794.5787353515625
544,798.2051391601562,781.6849975585938,803.4432373046875,797.8021850585938
545,789.3406372070312,786.5201416015625,800.2197875976562,796.996337890625
546,784.5054931640625,788.1318969726562,798.6080322265625,792.5640869140625
547,789.7435913085938,787.3259887695312,797.3992919921875,794.981689453125
548,786.1171875,784.1025390625,794.5787353515625,795.3846435546875
549,783.6996459960938,782.893798828125,796.1904907226562,786.1171875
550,784.5054931640625,785.7142944335938,795.7875366210938,779.6703491210938
551,788.1318969726562,785.7142944335938,791.7582397460938,783.6996459960938
552,791.7582397460938,789.3406372070312,791.7582397460938,787.7289428710938
553,786.923095703125,788.1318969726562,793.3699340820312,788.937744140625
554,790.952392578125,790.1465454101562,794.981689453125,794.1758422851562
555,796.5933837890625,793.7728881835938,788.937744140625,792.5640869140625
556,791.7582397460938,791.3552856445312,785.7142944335938,787.7289428710938
557,789.7435913085938,791.7582397460938,790.1465454101562,792.5640869140625
558,792.5640869140625,793.7728881835938,792.967041015625,793.7728881835938
559,793.3699340820312,794.1758422851562,796.1904907226562,795.7875366210938
560,793.3699340820312,787.3259887695312,793.7728881835938,803.040283203125
561,794.1758422851562,786.1171875,790.1465454101562,797.3992919921875
562,796.996337890625,793.3699340820312,792.967041015625,793.7728881835938
563,797.3992919921875,799.8168334960938,794.5787353515625,796.1904907226562
564,796.5933837890625,799.4139404296875,794.1758422851562,792.967041015625
565,799.4139404296875,798.6080322265625,792.967041015625,792.967041015625
566,802.6373901367188,798.2051391601562,792.967041015625,795.7875366210938
567,794.5787353515625,798.2051391601562,796.5933837890625,795.3846435546875
568,792.5640869140625,798.2051391601562,794.5787353515625,790.1465454101562
569,794.981689453125,794.1758422851562,788.937744140625,784.1025390625
570,794.5787353515625,790.5494384765625,790.952392578125,788.937744140625
571,798.2051391601562,786.923095703125,795.3846435546875,792.1611938476562
572,794.5787353515625,782.893798828125,790.5494384765625,788.937744140625
573,793.7728881835938,785.7142944335938,791.3552856445312,788.1318969726562
574,796.5933837890625,789.3406372070312,792.1611938476562,786.923095703125
575,790.5494384765625,784.1025390625,790.5494384765625,788.1318969726562
576,786.923095703125,786.1171875,792.1611938476562,788.937744140625
577,784.908447265625,792.967041015625,792.967041015625,788.1318969726562
578,777.2527465820312,791.7582397460938,791.3552856445312,783.6996459960938
579,777.6557006835938,788.937744140625,785.3113403320312,776.8497924804688
580,785.3113403320312,789.7435913085938,784.1025390625,781.2820434570312
581,789.7435913085938,788.5347900390625,786.923095703125,789.3406372070312
582,792.1611938476562,791.3552856445312,789.3406372070312,796.5933837890625
583,792.967041015625,796.996337890625,794.1758422851562,799.4139404296875
584,789.7435913085938,794.5787353515625,794.981689453125,794.1758422851562
585,784.1025390625,790.5494384765625,792.1611938476562,787.7289428710938
586,785.3113403320312,789.3406372070312,790.952392578125,789.3406372070312
587,785.3113403320312,786.1171875,792.967041015625,789.3406372070312
588,792.967041015625,790.1465454101562,793.3699340820312,789.7435913085938
589,799.010986328125,794.5787353515625,791.7582397460938,790.952392578125
590,791.7582397460938,793.3699340820312,789.7435913085938,784.5054931640625
591,790.952392578125,796.5933837890625,792.967041015625,787.7289428710938
592,790.5494384765625,796.5933837890625,795.7875366210938,784.908447265625
593,786.5201416015625,794.981689453125,794.5787353515625,785.3113403320312
594,776.4468994140625,788.1318969726562,794.981689453125,788.5347900390625
595,766.7765502929688,784.1025390625,794.981689453125,783.6996459960938
596,767.5823974609375,788.1318969726562,792.967041015625,781.2820434570312
597,772.4176025390625,786.923095703125,792.967041015625,780.0732421875
598,785.3113403320312,787.3259887695312,797.8021850585938,790.5494384765625
599,787.3259887695312,787.7289428710938,797.8021850585938,789.7435913085938
600,790.1465454101562,784.1025390625,798.6080322265625,786.923095703125
601,802.2344360351562,786.5201416015625,797.3992919921875,796.1904907226562
602,809.4871826171875,791.7582397460938,800.2197875976562,797.8021850585938
603,808.6813354492188,792.1611938476562,801.4285888671875,797.3992919921875
604,806.6666870117188,789.3406372070312,800.6226806640625,796.1904907226562
605,809.4871826171875,790.1465454101562,797.8021850585938,802.2344360351562
606,807.4725341796875,791.7582397460938,795.7875366210938,803.4432373046875
607,806.2637329101562,796.5933837890625,801.8314819335938,799.4139404296875
608,811.5018310546875,801.4285888671875,805.8607788085938,799.010986328125
609,810.6959838867188,800.2197875976562,803.4432373046875,803.040283203125
610,801.025634765625,798.2051391601562,796.5933837890625,804.6520385742188
611,796.1904907226562,794.981689453125,794.5787353515625,799.010986328125
612,800.2197875976562,792.967041015625,799.8168334960938,796.996337890625
613,799.4139404296875,794.5787353515625,803.040283203125,796.5933837890625
614,788.1318969726562,793.3699340820312,799.4139404296875,786.1171875
615,778.05859375,785.3113403320312,793.7728881835938,782.893798828125
616,778.05859375,786.923095703125,787.7289428710938,782.4908447265625
617,784.1025390625,787.7289428710938,784.1025390625,778.4615478515625
618,780.879150390625,787.7289428710938,785.7142944335938,778.4615478515625
619,775.6410522460938,790.1465454101562,790.952392578125,774.8351440429688
620,778.4615478515625,783.6996459960938,790.952392578125,774.4322509765625
621,780.4761962890625,781.2820434570312,786.923095703125,781.6849975585938
622,779.6703491210938,787.3259887695312,785.3113403320312,778.8644409179688
623,786.1171875,786.923095703125,783.6996459960938,773.6264038085938
624,794.5787353515625,785.3113403320312,785.7142944335938,778.8644409179688
625,793.3699340820312,786.1171875,789.7435913085938,785.3113403320312
626,788.937744140625,783.6996459960938,788.5347900390625,784.908447265625
627,795.7875366210938,786.5201416015625,789.3406372070312,786.5201416015625
628,800.6226806640625,784.908447265625,789.7435913085938,792.5640869140625
629,801.4285888671875,789.7435913085938,792.1611938476562,795.7875366210938
630,803.040283203125,798.6080322265625,794.5787353515625,790.952392578125
631,801.8314819335938,796.1904907226562,792.1611938476562,790.5494384765625
632,800.6226806640625,797.3992919921875,790.5494384765625,796.996337890625
633,797.3992919921875,797.8021850585938,798.6080322265625,799.010986328125
634,793.3699340820312,792.1611938476562,799.010986328125,790.952392578125
635,795.7875366210938,790.5494384765625,794.5787353515625,791.7582397460938
636,797.8021850585938,790.1465454101562,796.996337890625,797.3992919921875
637,793.7728881835938,788.1318969726562,792.1611938476562,791.7582397460938
638,796.1904907226562,790.5494384765625,785.3113403320312,788.937744140625
639,798.6080322265625,790.5494384765625,784.908447265625,796.996337890625
640,789.7435913085938,790.952392578125,788.1318969726562,799.8168334960938
641,782.087890625,792.967041015625,788.937744140625,795.7875366210938
642,786.923095703125,791.3552856445312,791.3552856445312,796.1904907226562
643,794.1758422851562,793.7728881835938,793.7728881835938,796.5933837890625
644,796.1904907226562,794.1758422851562,794.981689453125,794.1758422851562
645,794.1758422851562,794.5787353515625,796.1904907226562,794.1758422851562
646,794.981689453125,796.5933837890625,792.1611938476562,795.3846435546875
647,794.5787353515625,792.5640869140625,785.3113403320312,788.5347900390625
648,791.3552856445312,794.5787353515625,782.893798828125,783.6996459960938
649,787.3259887695312,801.025634765625,783.6996459960938,786.1171875
650,781.2820434570312,800.2197875976562,784.1025390625,785.7142944335938
651,781.2820434570312,793.7728881835938,782.893798828125,785.3113403320312
652,780.879150390625,794.5787353515625,783.6996459960938,788.1318969726562
653,784.908447265625,796.5933837890625,788.1318969726562,785.3113403320312
654,791.3552856445312,796.5933837890625,787.7289428710938,781.6849975585938
655,794.5787353515625,800.2197875976562,786.1171875,788.1318969726562
656,794.1758422851562,801.4285888671875,787.3259887695312,792.967041015625
657,793.7728881835938,802.2344360351562,790.5494384765625,786.5201416015625
658,795.3846435546875,801.025634765625,791.3552856445312,784.5054931640625
659,792.5640869140625,794.5787353515625,790.952392578125,786.1171875
660,787.7289428710938,793.3699340820312,793.7728881835938,788.5347900390625
661,784.1025390625,794.1758422851562,796.5933837890625,788.5347900390625
662,783.2966918945312,790.5494384765625,797.3992919921875,792.1611938476562
663,781.6849975585938,788.937744140625,799.8168334960938,799.010986328125
664,783.2966918945312,788.937744140625,801.025634765625,799.010986328125
665,788.1318969726562,786.923095703125,801.025634765625,796.5933837890625
666,784.5054931640625,786.1171875,801.025634765625,795.3846435546875
667,776.4468994140625,785.3113403320312,800.6226806640625,796.1904907226562
668,776.4468994140625,785.7142944335938,797.8021850585938,792.1611938476562
669,785.3113403320312,787.3259887695312,797.3992919921875,788.937744140625
670,782.087890625,787.3259887695312,796.996337890625,787.7289428710938
671,782.4908447265625,789.3406372070312,797.3992919921875,792.1611938476562
672,788.5347900390625,797.8021850585938,800.6226806640625,794.5787353515625
673,790.952392578125,794.1758422851562,801.4285888671875,787.7289428710938
674,788.1318969726562,786.5201416015625,797.3992919921875,787.7289428710938
675,786.1171875,784.908447265625,790.5494384765625,788.5347900390625
676,791.3552856445312,786.5201416015625,793.3699340820312,788.937744140625
677,791.3552856445312,787.3259887695312,793.3699340820312,792.5640869140625
678,788.5347900390625,779.6703491210938,789.7435913085938,795.3846435546875
679,788.5347900390625,779.6703491210938,790.1465454101562,796.1904907226562
680,790.5494384765625,789.3406372070312,792.1611938476562,791.7582397460938
681,794.1758422851562,792.967041015625,795.7875366210938,790.5494384765625
682,790.1465454101562,786.923095703125,794.1758422851562,789.7435913085938
683,792.1611938476562,789.3406372070312,795.3846435546875,795.3846435546875
684,801.4285888671875,792.967041015625,797.8021850585938,796.5933837890625
685,806.2637329101562,789.7435913085938,797.3992919921875,795.7875366210938
686,805.8607788085938,789.3406372070312,797.3992919921875,799.8168334960938
687,801.8314819335938,790.952392578125,792.1611938476562,795.7875366210938
688,800.2197875976562,792.967041015625,787.7289428710938,792.967041015625
689,799.4139404296875,790.5494384765625,789.3406372070312,793.3699340820312
690,794.1758422851562,790.1465454101562,790.952392578125,789.7435913085938
691,792.1611938476562,787.3259887695312,792.967041015625,782.4908447265625
692,794.981689453125,782.087890625,794.1758422851562,780.4761962890625
693,789.7435913085938,788.1318969726562,788.5347900390625,781.2820434570312
694,787.7289428710938,792.5640869140625,786.5201416015625,785.7142944335938
695,787.3259887695312,792.5640869140625,791.7582397460938,782.087890625
696,789.3406372070312,791.7582397460938,792.5640869140625,780.879150390625
697,790.1465454101562,793.3699340820312,789.7435913085938,783.6996459960938
698,787.3259887695312,796.5933837890625,789.3406372070312,783.6996459960938
699,793.7728881835938,792.5640869140625,790.5494384765625,786.923095703125
700,799.4139404296875,791.3552856445312,789.3406372070312,786.923095703125
701,793.7728881835938,790.5494384765625,789.7435913085938,788.1318969726562
702,788.1318969726562,788.1318969726562,796.1904907226562,787.3259887695312
703,784.5054931640625,792.5640869140625,797.3992919921875,785.3113403320312
704,787.3259887695312,792.1611938476562,795.7875366210938,787.3259887695312
705,788.5347900390625,787.7289428710938,791.3552856445312,790.952392578125
706,779.2673950195312,788.1318969726562,791.7582397460938,792.5640869140625
707,780.4761962890625,793.7728881835938,793.7728881835938,790.952392578125
708,788.937744140625,791.7582397460938,792.1611938476562,792.1611938476562
709,784.908447265625,789.7435913085938,796.996337890625,792.1611938476562
710,787.3259887695312,798.2051391601562,799.8168334960938,796.1904907226562
711,796.1904907226562,792.967041015625,798.2051391601562,796.1904907226562
712,796.5933837890625,790.1465454101562,796.996337890625,790.5494384765625
713,794.981689453125,795.3846435546875,795.3846435546875,788.5347900390625
714,796.996337890625,792.967041015625,795.3846435546875,791.3552856445312
715,796.996337890625,791.7582397460938,801.025634765625,792.5640869140625
716,792.1611938476562,792.1611938476562,803.040283203125,792.1611938476562
717,788.1318969726562,797.3992919921875,797.8021850585938,793.7728881835938
718,789.3406372070312,799.8168334960938,797.3992919921875,794.1758422851562
719,798.6080322265625,799.4139404296875,798.6080322265625,795.7875366210938
720,799.8168334960938,804.6520385742188,796.996337890625,798.2051391601562
721,792.5640869140625,806.2637329101562,792.967041015625,791.7582397460938
722,788.1318969726562,801.8314819335938,787.7289428710938,785.7142944335938
723,788.937744140625,797.8021850585938,788.1318969726562,791.3552856445312
724,783.6996459960938,796.5933837890625,791.7582397460938,790.952392578125
725,783.6996459960938,792.967041015625,797.3992919921875,786.1171875
726,788.1318969726562,792.967041015625,797.8021850585938,781.2820434570312
727,783.2966918945312,798.2051391601562,792.967041015625,777.6557006835938
728,780.0732421875,796.5933837890625,792.1611938476562,784.5054931640625
729,786.923095703125,793.3699340820312,792.1611938476562,791.3552856445312
730,794.1758422851562,792.967041015625,792.967041015625,792.1611938476562
731,790.952392578125,794.5787353515625,790.1465454101562,791.7582397460938
732,786.1171875,792.1611938476562,790.952392578125,792.5640869140625
733,782.4908447265625,792.5640869140625,792.5640869140625,794.1758422851562
734,784.908447265625,797.8021850585938,786.1171875,791.7582397460938
735,784.5054931640625,797.3992919921875,781.6849975585938,787.3259887695312
736,784.908447265625,793.7728881835938,782.4908447265625,781.6849975585938
737,786.923095703125,792.1611938476562,785.7142944335938,784.908447265625
738,784.908447265625,796.1904907226562,789.7435913085938,788.1318969726562
739,789.7435913085938,796.996337890625,791.3552856445312,786.1171875
740,798.2051391601562,799.010986328125,790.952392578125,794.5787353515625
741,795.7875366210938,800.2197875976562,787.7289428710938,801.025634765625
742,789.7435913085938,798.6080322265625,789.3406372070312,793.7728881835938
743,788.5347900390625,799.8168334960938,792.967041015625,790.952392578125
744,788.1318969726562,799.8168334960938,796.1904907226562,792.5640869140625
745,788.5347900390625,795.3846435546875,796.5933837890625,791.3552856445312
746,790.952392578125,793.7728881835938,792.5640869140625,785.7142944335938
747,787.7289428710938,792.1611938476562,787.3259887695312,782.893798828125
748,782.087890625,787.7289428710938,780.4761962890625,782.087890625
749,786.5201416015625,791.3552856445312,781.2820434570312,782.4908447265625
750,794.1758422851562,797.3992919921875,787.7289428710938,783.6996459960938
751,792.967041015625,794.1758422851562,790.1465454101562,786.5201416015625
752,788.937744140625,788.937744140625,789.7435913085938,786.1171875
753,794.1758422851562,792.5640869140625,790.5494384765625,778.4615478515625
754,799.010986328125,796.5933837890625,790.5494384765625,773.6264038085938
755,794.981689453125,793.7728881835938,787.3259887695312,778.4615478515625
756,791.3552856445312,793.3699340820312,783.6996459960938,785.3113403320312
757,793.3699340820312,794.981689453125,787.3259887695312,783.6996459960938
758,795.3846435546875,794.1758422851562,785.7142944335938,788.5347900390625
759,793.3699340820312,791.7582397460938,782.4908447265625,792.5640869140625
760,794.1758422851562,788.5347900390625,783.2966918945312,790.5494384765625
761,798.6080322265625,786.5201416015625,784.908447265625,788.937744140625
762,801.025634765625,791.3552856445312,788.5347900390625,792.1611938476562
763,796.996337890625,797.3992919921875,788.937744140625,796.1904907226562
764,794.5787353515625,794.1758422851562,787.7289428710938,796.5933837890625
765,795.7875366210938,790.5494384765625,790.1465454101562,796.5933837890625
766,794.981689453125,793.7728881835938,793.3699340820312,799.4139404296875
767,795.3846435546875,794.981689453125,795.7875366210938,801.025634765625
768,789.3406372070312,795.3846435546875,794.1758422851562,794.5787353515625
769,782.893798828125,794.1758422851562,793.7728881835938,788.1318969726562
770,789.7435913085938,793.7728881835938,796.1904907226562,796.996337890625
771,791.3552856445312,790.1465454101562,794.5787353515625,798.6080322265625
772,783.6996459960938,784.1025390625,799.010986328125,794.5787353515625
773,783.2966918945312,782.893798828125,802.6373901367188,796.5933837890625
774,786.923095703125,785.3113403320312,801.8314819335938,798.6080322265625
775,789.7435913085938,786.1171875,802.6373901367188,801.4285888671875
776,790.952392578125,789.7435913085938,801.4285888671875,796.996337890625
777,791.3552856445312,790.952392578125,798.2051391601562,794.1758422851562
778,789.7435913085938,788.937744140625,799.8168334960938,797.3992919921875
779,788.937744140625,787.7289428710938,801.4285888671875,797.8021850585938
780,787.7289428710938,787.7289428710938,796.996337890625,792.5640869140625
781,790.1465454101562,786.5201416015625,794.1758422851562,788.937744140625
782,792.1611938476562,786.5201416015625,797.3992919921875,790.952392578125
783,790.1465454101562,786.923095703125,797.3992919921875,790.1465454101562
784,794.1758422851562,791.3552856445312,796.1904907226562,786.1171875
785,794.1758422851562,793.7728881835938,796.1904907226562,787.7289428710938
786,796.5933837890625,796.5933837890625,793.7728881835938,793.7728881835938
787,804.6520385742188,797.8021850585938,789.3406372070312,793.3699340820312
788,798.6080322265625,794.981689453125,788.1318969726562,786.5201416015625
789,797.3992919921875,794.1758422851562,794.981689453125,788.1318969726562
790,804.2490844726562,791.3552856445312,795.3846435546875,792.1611938476562
791,794.1758422851562,788.937744140625,789.3406372070312,788.1318969726562
792,788.937744140625,789.7435913085938,784.908447265625,785.3113403320312
793,789.3406372070312,786.923095703125,791.7582397460938,783.2966918945312
794,779.6703491210938,785.7142944335938,792.1611938476562,779.6703491210938
795,782.893798828125,791.7582397460938,789.7435913085938,782.4908447265625
796,789.7435913085938,792.1611938476562,794.981689453125,786.5201416015625
797,782.4908447265625,792.1611938476562,792.967041015625,788.1318969726562
798,785.7142944335938,796.5933837890625,794.981689453125,789.7435913085938
799,782.087890625,792.5640869140625,796.1904907226562,786.1171875
800,776.4468994140625,784.908447265625,795.7875366210938,782.893798828125
801,783.6996459960938,786.1171875,799.4139404296875,788.937744140625
802,787.3259887695312,788.1318969726562,798.6080322265625,794.5787353515625
803,788.5347900390625,792.1611938476562,794.981689453125,790.1465454101562
804,793.7728881835938,791.7582397460938,794.981689453125,790.5494384765625
805,793.3699340820312,790.1465454101562,797.3992919921875,792.5640869140625
806,786.1171875,787.7289428710938,797.3992919921875,789.3406372070312
807,787.3259887695312,785.3113403320312,795.7875366210938,796.996337890625
808,792.5640869140625,785.3113403320312,794.5787353515625,805.4578857421875
809,790.1465454101562,784.5054931640625,789.3406372070312,796.1904907226562
810,788.1318969726562,791.7582397460938,788.937744140625,796.1904907226562
811,792.967041015625,794.1758422851562,790.5494384765625,800.2197875976562
812,796.996337890625,791.3552856445312,794.1758422851562,796.1904907226562
813,798.2051391601562,796.5933837890625,798.2051391601562,802.2344360351562
814,791.3552856445312,798.2051391601562,797.8021850585938,801.4285888671875
815,785.7142944335938,793.3699340820312,794.5787353515625,790.1465454101562
816,790.5494384765625,789.7435913085938,791.7582397460938,790.1465454101562
817,794.981689453125,792.967041015625,793.7728881835938,792.967041015625
818,788.937744140625,790.1465454101562,793.3699340820312,784.5054931640625
819,787.7289428710938,790.5494384765625,790.5494384765625,778.05859375
820,797.3992919921875,799.4139404296875,790.5494384765625,782.087890625
821,793.3699340820312,794.5787353515625,790.952392578125,785.3113403320312
822,790.952392578125,791.3552856445312,792.967041015625,783.2966918945312
823,794.981689453125,790.952392578125,796.1904907226562,776.8497924804688
824,788.937744140625,788.5347900390625,790.5494384765625,775.6410522460938
825,785.3113403320312,789.3406372070312,792.5640869140625,782.4908447265625
826,782.893798828125,789.7435913085938,794.981689453125,782.087890625
827,782.893798828125,788.1318969726562,794.1758422851562,781.2820434570312
828,790.5494384765625,790.5494384765625,793.3699340820312,786.923095703125
829,785.7142944335938,789.7435913085938,790.952392578125,784.5054931640625
830,781.6849975585938,785.3113403320312,786.923095703125,778.05859375
831,786.923095703125,788.1318969726562,784.1025390625,781.2820434570312
832,793.3699340820312,794.1758422851562,785.3113403320312,788.1318969726562
833,794.5787353515625,792.5640869140625,790.1465454101562,786.923095703125
834,790.5494384765625,790.952392578125,793.3699340820312,786.1171875
835,790.5494384765625,791.7582397460938,790.952392578125,784.5054931640625
836,792.967041015625,792.5640869140625,789.3406372070312,786.1171875
837,791.3552856445312,793.3699340820312,789.3406372070312,791.7582397460938
838,790.952392578125,789.7435913085938,793.3699340820312,790.5494384765625
839,793.3699340820312,788.1318969726562,790.1465454101562,788.5347900390625
840,794.1758422851562,793.7728881835938,792.1611938476562,796.1904907226562
841,794.5787353515625,795.7875366210938,793.7728881835938,791.7582397460938
842,801.4285888671875,792.5640869140625,794.5787353515625,788.937744140625
843,805.8607788085938,792.5640869140625,798.2051391601562,798.6080322265625
844,799.8168334960938,793.7728881835938,798.2051391601562,800.2197875976562
845,795.7875366210938,792.1611938476562,795.7875366210938,794.1758422851562
846,796.5933837890625,790.952392578125,793.3699340820312,787.7289428710938
847,801.4285888671875,785.3113403320312,793.3699340820312,791.7582397460938
848,801.4285888671875,784.5054931640625,796.996337890625,797.8021850585938
849,792.1611938476562,792.1611938476562,797.3992919921875,795.3846435546875
850,789.3406372070312,791.3552856445312,792.5640869140625,794.981689453125
851,785.7142944335938,790.5494384765625,790.5494384765625,793.3699340820312
852,784.5054931640625,789.3406372070312,793.3699340820312,793.3699340820312
853,792.1611938476562,786.1171875,794.5787353515625,790.1465454101562
854,791.7582397460938,791.7582397460938,795.3846435546875,788.5347900390625
855,790.5494384765625,796.1904907226562,801.8314819335938,790.5494384765625
856,792.967041015625,798.2051391601562,801.8314819335938,786.1171875
857,794.981689453125,797.8021850585938,799.8168334960938,785.7142944335938
858,791.7582397460938,792.967041015625,797.3992919921875,786.923095703125
859,785.3113403320312,787.7289428710938,794.5787353515625,786.923095703125
860,781.2820434570312,790.1465454101562,794.5787353515625,781.2820434570312
861,787.3259887695312,797.3992919921875,794.5787353515625,780.4761962890625
862,800.2197875976562,798.6080322265625,794.5787353515625,791.7582397460938
863,796.996337890625,797.8021850585938,795.3846435546875,788.5347900390625
864,795.3846435546875,795.3846435546875,794.981689453125,783.6996459960938
865,796.996337890625,787.7289428710938,794.1758422851562,788.937744140625
866,794.981689453125,784.5054931640625,794.981689453125,792.1611938476562
867,795.7875366210938,790.5494384765625,798.2051391601562,794.1758422851562
868,790.1465454101562,794.1758422851562,797.3992919921875,791.7582397460938
869,788.5347900390625,790.5494384765625,795.3846435546875,790.1465454101562
870,794.1758422851562,792.1611938476562,796.5933837890625,792.1611938476562
871,794.5787353515625,796.996337890625,798.2051391601562,796.5933837890625
872,784.1025390625,794.981689453125,797.8021850585938,790.5494384765625
873,784.5054931640625,788.5347900390625,794.1758422851562,789.7435913085938
874,792.5640869140625,788.937744140625,794.1758422851562,790.952392578125
875,794.5787353515625,795.3846435546875,795.7875366210938,785.7142944335938
876,794.1758422851562,799.4139404296875,796.5933837890625,786.5201416015625
877,786.1171875,794.1758422851562,790.5494384765625,785.7142944335938
878,782.4908447265625,791.7582397460938,790.1465454101562,785.7142944335938
879,783.2966918945312,792.1611938476562,790.952392578125,786.923095703125
880,783.6996459960938,787.7289428710938,790.5494384765625,792.1611938476562
881,781.2820434570312,787.3259887695312,794.5787353515625,793.7728881835938
882,776.8497924804688,789.3406372070312,790.952392578125,790.1465454101562
883,780.879150390625,789.7435913085938,790.5494384765625,787.3259887695312
884,783.6996459960938,791.7582397460938,791.3552856445312,783.6996459960938
885,790.1465454101562,795.7875366210938,789.7435913085938,787.3259887695312
886,793.3699340820312,795.7875366210938,793.3699340820312,793.7728881835938
887,787.3259887695312,794.1758422851562,790.5494384765625,787.7289428710938
888,790.952392578125,794.5787353515625,789.3406372070312,782.893798828125
889,793.7728881835938,794.5787353515625,792.5640869140625,786.923095703125
890,789.7435913085938,795.3846435546875,796.5933837890625,790.5494384765625
891,790.1465454101562,795.7875366210938,798.2051391601562,787.3259887695312
892,794.1758422851562,795.7875366210938,799.4139404296875,789.3406372070312
893,790.1465454101562,791.3552856445312,801.025634765625,792.1611938476562
894,790.952392578125,790.5494384765625,799.8168334960938,791.3552856445312
895,794.5787353515625,791.7582397460938,791.3552856445312,790.1465454101562
896,789.7435913085938,795.7875366210938,790.5494384765625,790.5494384765625
897,787.7289428710938,801.4285888671875,796.1904907226562,794.5787353515625
898,783.2966918945312,798.6080322265625,797.8021850585938,791.3552856445312
899,781.6849975585938,792.1611938476562,795.3846435546875,783.6996459960938
900,782.4908447265625,790.952392578125,794.5787353515625,783.2966918945312
901,781.2820434570312,788.5347900390625,794.1758422851562,782.087890625
902,780.0732421875,784.1025390625,791.3552856445312,778.8644409179688
903,779.2673950195312,785.7142944335938,790.5494384765625,779.6703491210938
904,781.6849975585938,788.5347900390625,786.5201416015625,777.6557006835938
905,786.1171875,789.7435913085938,788.1318969726562,781.6849975585938
906,779.2673950195312,786.923095703125,793.3699340820312,793.3699340820312
907,772.8204956054688,789.3406372070312,792.967041015625,790.1465454101562
908,777.2527465820312,792.1611938476562,792.5640869140625,786.5201416015625
909,783.6996459960938,794.981689453125,793.3699340820312,792.5640869140625
910,782.087890625,788.5347900390625,791.3552856445312,788.937744140625
911,782.4908447265625,784.5054931640625,789.3406372070312,787.3259887695312
912,786.1171875,791.3552856445312,791.3552856445312,789.7435913085938
913,785.3113403320312,793.3699340820312,796.1904907226562,792.1611938476562
914,790.1465454101562,793.7728881835938,794.981689453125,790.1465454101562
915,792.5640869140625,794.1758422851562,793.3699340820312,782.087890625
916,787.7289428710938,795.3846435546875,790.1465454101562,780.4761962890625
917,786.5201416015625,794.981689453125,790.5494384765625,783.2966918945312
918,786.1171875,794.981689453125,793.3699340820312,779.2673950195312
919,791.7582397460938,797.8021850585938,791.7582397460938,780.4761962890625
920,790.1465454101562,797.3992919921875,791.7582397460938,790.5494384765625
921,781.6849975585938,794.981689453125,790.1465454101562,788.937744140625
922,779.2673950195312,798.6080322265625,792.1611938476562,780.879150390625
923,786.923095703125,796.996337890625,792.1611938476562,778.4615478515625
924,787.3259887695312,791.3552856445312,789.3406372070312,774.8351440429688
925,787.3259887695312,792.1611938476562,790.952392578125,774.8351440429688
926,790.1465454101562,794.1758422851562,791.7582397460938,779.6703491210938
927,790.952392578125,792.967041015625,788.937744140625,782.4908447265625
928,789.3406372070312,788.1318969726562,791.7582397460938,785.7142944335938
929,784.908447265625,788.1318969726562,797.8021850585938,788.5347900390625
930,796.1904907226562,790.1465454101562,795.3846435546875,788.1318969726562
931,796.5933837890625,790.5494384765625,792.967041015625,787.3259887695312
932,782.4908447265625,790.952392578125,791.3552856445312,790.952392578125
933,783.2966918945312,788.1318969726562,791.3552856445312,791.7582397460938
934,786.923095703125,791.7582397460938,796.1904907226562,788.1318969726562
935,793.3699340820312,793.7728881835938,795.7875366210938,788.937744140625
936,794.5787353515625,791.7582397460938,792.1611938476562,785.7142944335938
937,787.7289428710938,791.7582397460938,791.3552856445312,783.2966918945312
938,790.1465454101562,791.7582397460938,796.996337890625,785.3113403320312
939,799.8168334960938,789.3406372070312,798.6080322265625,793.7728881835938
940,802.6373901367188,790.952392578125,793.3699340820312,792.967041015625
941,796.5933837890625,794.981689453125,789.7435913085938,782.087890625
942,793.7728881835938,796.996337890625,786.1171875,781.6849975585938
943,798.6080322265625,796.5933837890625,789.7435913085938,792.1611938476562
944,798.2051391601562,795.7875366210938,799.010986328125,797.8021850585938
945,786.5201416015625,797.3992919921875,797.3992919921875,783.6996459960938
946,775.6410522460938,789.7435913085938,790.952392578125,772.4176025390625
947,776.0439453125,788.1318969726562,795.3846435546875,778.4615478515625
948,782.087890625,794.1758422851562,798.6080322265625,786.1171875
949,784.5054931640625,795.3846435546875,800.2197875976562,786.923095703125
950,785.3113403320312,796.5933837890625,801.8314819335938,791.3552856445312
951,783.6996459960938,795.3846435546875,799.8168334960938,793.3699340820312
952,778.05859375,789.3406372070312,796.996337890625,781.6849975585938
953,776.0439453125,789.7435913085938,798.2051391601562,774.8351440429688
954,780.879150390625,796.1904907226562,796.5933837890625,781.6849975585938
955,789.7435913085938,796.996337890625,792.5640869140625,789.3406372070312
956,795.3846435546875,798.6080322265625,794.5787353515625,787.3259887695312
957,790.1465454101562,799.8168334960938,796.996337890625,779.2673950195312
958,781.2820434570312,800.6226806640625,793.7728881835938,782.893798828125
959,776.8497924804688,796.996337890625,791.3552856445312,787.3259887695312
960,778.8644409179688,792.967041015625,791.7582397460938,784.908447265625
961,781.2820434570312,794.981689453125,789.3406372070312,783.6996459960938
962,780.4761962890625,798.6080322265625,787.7289428710938,784.1025390625
963,786.923095703125,799.010986328125,790.1465454101562,786.1171875
964,788.1318969726562,798.2051391601562,790.952392578125,787.3259887695312
965,782.893798828125,798.2051391601562,786.5201416015625,782.087890625
966,782.087890625,794.5787353515625,786.5201416015625,784.5054931640625
967,779.6703491210938,794.981689453125,789.3406372070312,789.3406372070312
968,779.6703491210938,794.981689453125,789.3406372070312,784.908447265625
969,784.5054931640625,795.3846435546875,791.3552856445312,784.908447265625
970,792.5640869140625,796.996337890625,791.3552856445312,798.2051391601562
971,793.3699340820312,796.996337890625,786.5201416015625,803.4432373046875
972,791.7582397460938,797.8021850585938,790.1465454101562,796.1904907226562
973,794.5787353515625,796.5933837890625,795.3846435546875,793.7728881835938
974,790.952392578125,786.1171875,794.5787353515625,791.7582397460938
975,787.3259887695312,782.4908447265625,789.7435913085938,792.967041015625
976,790.5494384765625,787.3259887695312,794.5787353515625,791.7582397460938
977,794.981689453125,790.1465454101562,799.8168334960938,794.1758422851562
978,796.1904907226562,792.5640869140625,796.1904907226562,797.3992919921875
979,796.1904907226562,796.1904907226562,796.5933837890625,792.5640869140625
980,798.6080322265625,792.5640869140625,796.1904907226562,790.952392578125
981,795.7875366210938,788.1318969726562,795.3846435546875,790.5494384765625
982,790.1465454101562,786.5201416015625,794.981689453125,792.967041015625
983,789.3406372070312,784.908447265625,793.3699340820312,791.3552856445312
984,790.1465454101562,790.1465454101562,791.3552856445312,784.5054931640625
985,797.3992919921875,793.3699340820312,794.5787353515625,788.937744140625
986,801.025634765625,796.5933837890625,796.1904907226562,784.1025390625
987,802.6373901367188,795.7875366210938,794.1758422851562,784.1025390625
988,797.3992919921875,789.3406372070312,796.5933837890625,786.5201416015625
989,789.7435913085938,793.7728881835938,796.5933837890625,786.923095703125
990,786.923095703125,796.1904907226562,794.5787353515625,791.7582397460938
991,787.3259887695312,791.7582397460938,791.3552856445312,785.7142944335938
992,786.5201416015625,788.5347900390625,786.923095703125,778.4615478515625
993,783.6996459960938,788.937744140625,787.3259887695312,784.1025390625
994,777.6557006835938,785.3113403320312,790.952392578125,787.7289428710938
995,779.6703491210938,784.1025390625,791.7582397460938,781.2820434570312
996,790.1465454101562,792.5640869140625,794.5787353515625,787.3259887695312
997,789.7435913085938,789.7435913085938,798.6080322265625,792.5640869140625
998,782.4908447265625,786.923095703125,796.5933837890625,786.1171875
999,785.3113403320312,793.7728881835938,795.7875366210938,786.5201416015625
1000,786.1171875,796.1904907226562,795.3846435546875,790.1465454101562
1001,781.6849975585938,794.5787353515625,790.952392578125,789.7435913085938
1002,784.908447265625,789.3406372070312,792.967041015625,790.1465454101562
1003,786.1171875,782.4908447265625,794.981689453125,786.923095703125
1004,785.3113403320312,783.2966918945312,793.7728881835938,782.087890625
1005,780.4761962890625,785.7142944335938,791.7582397460938,788.1318969726562
1006,784.1025390625,785.7142944335938,793.7728881835938,793.7728881835938
1007,789.7435913085938,783.6996459960938,794.5787353515625,789.3406372070312
1008,787.3259887695312,783.2966918945312,792.1611938476562,790.1465454101562
1009,790.952392578125,783.2966918945312,793.7728881835938,789.3406372070312
1010,796.996337890625,785.7142944335938,799.4139404296875,783.2966918945312
1011,794.5787353515625,790.952392578125,801.8314819335938,786.5201416015625
1012,793.7728881835938,791.7582397460938,799.4139404296875,794.5787353515625
1013,796.5933837890625,793.3699340820312,793.3699340820312,790.5494384765625
1014,792.967041015625,790.952392578125,790.952392578125,787.7289428710938
1015,792.1611938476562,790.5494384765625,797.3992919921875,790.1465454101562
1016,801.025634765625,791.7582397460938,802.6373901367188,795.3846435546875
1017,800.6226806640625,790.1465454101562,803.8461303710938,800.2197875976562
1018,792.1611938476562,791.7582397460938,803.8461303710938,794.981689453125
1019,790.1465454101562,788.5347900390625,801.4285888671875,794.1758422851562
1020,791.3552856445312,784.1025390625,800.2197875976562,794.1758422851562
1021,789.7435913085938,783.2966918945312,798.2051391601562,790.1465454101562
1022,785.7142944335938,787.3259887695312,793.3699340820312,788.5347900390625
1023,783.6996459960938,791.7582397460938,790.5494384765625,787.3259887695312
1024,786.5201416015625,792.967041015625,789.3406372070312,786.5201416015625
1025,788.5347900390625,796.5933837890625,788.5347900390625,788.1318969726562
1026,792.1611938476562,798.6080322265625,794.1758422851562,793.3699340820312
1027,802.6373901367188,798.6080322265625,797.8021850585938,797.8021850585938
1028,797.3992919921875,795.7875366210938,793.7728881835938,798.2051391601562
1029,788.1318969726562,792.1611938476562,789.7435913085938,793.3699340820312
1030,795.3846435546875,790.952392578125,790.5494384765625,790.5494384765625
1031,795.7875366210938,792.967041015625,789.3406372070312,795.3846435546875
1032,794.981689453125,792.1611938476562,790.5494384765625,797.8021850585938
1033,794.1758422851562,789.3406372070312,791.7582397460938,786.5201416015625
1034,782.893798828125,787.7289428710938,792.5640869140625,773.2234497070312
1035,785.7142944335938,788.937744140625,796.996337890625,779.6703491210938
1036,789.3406372070312,790.952392578125,792.5640869140625,784.1025390625
1037,785.7142944335938,791.3552856445312,795.3846435546875,781.6849975585938
1038,777.6557006835938,791.3552856445312,799.4139404296875,779.2673950195312
1039,772.0146484375,788.937744140625,795.3846435546875,780.4761962890625
1040,780.4761962890625,789.7435913085938,795.7875366210938,790.5494384765625
1041,790.952392578125,795.3846435546875,797.3992919921875,789.7435913085938
1042,794.981689453125,792.967041015625,799.010986328125,786.923095703125
1043,801.025634765625,791.7582397460938,797.3992919921875,788.5347900390625
1044,800.6226806640625,797.3992919921875,794.981689453125,786.923095703125
1045,796.996337890625,797.8021850585938,795.7875366210938,791.3552856445312
1046,797.8021850585938,796.5933837890625,797.8021850585938,792.967041015625
1047,793.7728881835938,794.1758422851562,799.010986328125,788.937744140625
1048,794.1758422851562,799.4139404296875,797.3992919921875,789.3406372070312
1049,795.3846435546875,803.8461303710938,797.3992919921875,790.952392578125
1050,793.3699340820312,795.7875366210938,800.2197875976562,784.5054931640625
1051,797.3992919921875,793.3699340820312,797.8021850585938,787.7289428710938
1052,798.6080322265625,793.7728881835938,801.4285888671875,791.3552856445312
1053,795.3846435546875,796.1904907226562,800.2197875976562,787.3259887695312
1054,795.7875366210938,796.1904907226562,800.6226806640625,790.952392578125
1055,794.1758422851562,792.967041015625,803.8461303710938,781.6849975585938
1056,792.1611938476562,792.5640869140625,795.3846435546875,776.8497924804688
1057,794.1758422851562,790.952392578125,793.3699340820312,779.2673950195312
1058,791.3552856445312,788.5347900390625,794.5787353515625,774.4322509765625
1059,782.087890625,789.7435913085938,794.1758422851562,774.4322509765625
1060,778.05859375,791.3552856445312,794.1758422851562,777.6557006835938
1061,784.5054931640625,787.3259887695312,792.967041015625,777.2527465820312
1062,788.1318969726562,787.7289428710938,794.5787353515625,783.2966918945312
1063,784.5054931640625,793.7728881835938,799.8168334960938,790.952392578125
1064,784.908447265625,794.981689453125,799.8168334960938,786.5201416015625
1065,787.7289428710938,791.3552856445312,794.5787353515625,782.893798828125
1066,787.3259887695312,785.7142944335938,794.981689453125,792.1611938476562
1067,787.7289428710938,783.2966918945312,796.1904907226562,792.967041015625
1068,793.7728881835938,786.1171875,795.3846435546875,784.908447265625
1069,794.1758422851562,787.7289428710938,793.7728881835938,788.1318969726562
1070,789.3406372070312,790.1465454101562,792.5640869140625,788.5347900390625
1071,798.6080322265625,791.7582397460938,792.1611938476562,790.1465454101562
1072,803.8461303710938,790.1465454101562,792.967041015625,791.3552856445312
1073,790.5494384765625,786.1171875,792.5640869140625,786.1171875
1074,786.1171875,785.7142944335938,792.1611938476562,786.923095703125
1075,783.2966918945312,788.5347900390625,790.5494384765625,786.1171875
1076,784.1025390625,785.3113403320312,791.3552856445312,790.5494384765625
1077,794.5787353515625,787.3259887695312,794.5787353515625,797.3992919921875
1078,800.2197875976562,788.937744140625,795.3846435546875,803.4432373046875
1079,797.3992919921875,789.7435913085938,793.7728881835938,802.6373901367188
1080,784.1025390625,788.937744140625,792.1611938476562,788.1318969726562
1081,780.0732421875,783.2966918945312,793.7728881835938,785.3113403320312
1082,781.2820434570312,783.6996459960938,796.5933837890625,786.5201416015625
1083,779.2673950195312,787.3259887695312,796.5933837890625,784.908447265625
1084,787.7289428710938,787.7289428710938,792.5640869140625,790.952392578125
1085,789.7435913085938,788.1318969726562,791.3552856445312,791.3552856445312
1086,784.908447265625,787.3259887695312,796.996337890625,790.5494384765625
1087,777.6557006835938,785.7142944335938,794.981689453125,789.7435913085938
1088,776.8497924804688,785.7142944335938,790.5494384765625,791.3552856445312
1089,782.893798828125,788.1318969726562,788.937744140625,799.4139404296875
1090,780.0732421875,791.7582397460938,788.1318969726562,795.7875366210938
1091,786.923095703125,794.981689453125,794.5787353515625,789.3406372070312
1092,792.1611938476562,794.5787353515625,794.1758422851562,788.1318969726562
1093,794.1758422851562,795.3846435546875,792.1611938476562,786.5201416015625
1094,796.5933837890625,796.996337890625,795.7875366210938,790.952392578125
1095,794.1758422851562,794.981689453125,793.7728881835938,787.3259887695312
1096,788.5347900390625,791.7582397460938,790.5494384765625,777.6557006835938
1097,782.087890625,789.7435913085938,793.7728881835938,778.8644409179688
1098,786.923095703125,793.3699340820312,794.5787353515625,779.6703491210938
1099,793.3699340820312,795.3846435546875,792.967041015625,785.7142944335938
1100,791.3552856445312,791.7582397460938,791.7582397460938,788.5347900390625
1101,790.5494384765625,794.5787353515625,794.1758422851562,789.3406372070312
1102,794.5787353515625,799.4139404296875,800.6226806640625,793.7728881835938
1103,791.3552856445312,800.2197875976562,800.2197875976562,788.937744140625
1104,790.1465454101562,801.4285888671875,796.5933837890625,785.3113403320312
1105,786.1171875,796.996337890625,794.981689453125,782.087890625
1106,780.4761962890625,795.7875366210938,797.8021850585938,782.893798828125
1107,787.3259887695312,798.2051391601562,796.5933837890625,788.937744140625
1108,788.5347900390625,798.2051391601562,792.1611938476562,790.5494384765625
1109,792.5640869140625,791.7582397460938,793.3699340820312,790.5494384765625
1110,795.3846435546875,787.7289428710938,794.1758422851562,790.1465454101562
1111,790.1465454101562,790.1465454101562,795.7875366210938,791.3552856445312
1112,790.952392578125,791.7582397460938,798.6080322265625,799.010986328125
1113,787.7289428710938,792.5640869140625,795.7875366210938,806.6666870117188
1114,791.3552856445312,789.7435913085938,791.7582397460938,802.6373901367188
1115,799.8168334960938,791.7582397460938,795.3846435546875,803.4432373046875
1116,803.040283203125,798.2051391601562,796.996337890625,803.4432373046875
1117,794.5787353515625,796.996337890625,791.7582397460938,789.3406372070312
1118,788.937744140625,792.5640869140625,794.1758422851562,784.5054931640625
1119,789.7435913085938,792.1611938476562,794.1758422851562,783.6996459960938
1120,789.3406372070312,790.5494384765625,792.1611938476562,785.3113403320312
1121,795.7875366210938,793.3699340820312,797.3992919921875,794.981689453125
1122,799.010986328125,794.981689453125,796.5933837890625,791.7582397460938
1123,797.8021850585938,790.5494384765625,794.1758422851562,791.3552856445312
1124,796.1904907226562,794.5787353515625,796.5933837890625,794.1758422851562
1125,798.2051391601562,794.5787353515625,800.6226806640625,791.7582397460938
1126,790.952392578125,790.1465454101562,795.7875366210938,787.3259887695312
1127,789.3406372070312,787.3259887695312,790.1465454101562,787.3259887695312
1128,782.893798828125,780.4761962890625,789.7435913085938,784.5054931640625
1129,782.893798828125,782.087890625,791.7582397460938,784.908447265625
1130,792.967041015625,790.952392578125,794.5787353515625,789.7435913085938
1131,785.7142944335938,787.3259887695312,794.5787353515625,786.923095703125
1132,782.087890625,783.2966918945312,792.1611938476562,796.996337890625
1133,787.7289428710938,783.2966918945312,792.5640869140625,801.025634765625
1134,787.3259887695312,783.2966918945312,792.967041015625,792.5640869140625
1135,786.1171875,783.2966918945312,790.952392578125,790.952392578125
1136,792.5640869140625,783.2966918945312,789.3406372070312,799.4139404296875
1137,787.3259887695312,783.2966918945312,788.5347900390625,792.5640869140625
1138,786.923095703125,787.7289428710938,790.5494384765625,787.3259887695312
1139,790.1465454101562,789.7435913085938,788.5347900390625,794.1758422851562
1140,781.2820434570312,785.7142944335938,784.908447265625,791.7582397460938
1141,784.908447265625,786.923095703125,784.908447265625,793.7728881835938
1142,789.3406372070312,791.7582397460938,786.5201416015625,795.7875366210938
1143,791.7582397460938,794.981689453125,791.3552856445312,793.7728881835938
1144,789.7435913085938,794.981689453125,790.952392578125,790.952392578125
1145,784.908447265625,792.1611938476562,788.937744140625,788.1318969726562
1146,788.937744140625,797.3992919921875,791.7582397460938,796.996337890625
1147,792.967041015625,798.6080322265625,791.3552856445312,802.2344360351562
1148,796.996337890625,797.3992919921875,792.967041015625,801.025634765625
1149,801.8314819335938,802.2344360351562,788.5347900390625,799.8168334960938
1150,802.2344360351562,805.4578857421875,782.087890625,799.8168334960938
1151,790.1465454101562,801.8314819335938,782.4908447265625,795.3846435546875
1152,783.2966918945312,793.7728881835938,785.3113403320312,792.5640869140625
1153,784.5054931640625,790.1465454101562,785.3113403320312,791.7582397460938
1154,783.6996459960938,787.7289428710938,786.5201416015625,795.7875366210938
1155,787.7289428710938,791.3552856445312,789.3406372070312,799.8168334960938
1156,790.1465454101562,790.5494384765625,788.1318969726562,792.1611938476562
1157,790.1465454101562,784.908447265625,785.3113403320312,786.1171875
1158,790.1465454101562,787.3259887695312,788.937744140625,789.3406372070312
1159,792.1611938476562,788.1318969726562,789.3406372070312,789.7435913085938
1160,792.967041015625,785.3113403320312,785.3113403320312,785.7142944335938
1161,792.1611938476562,784.908447265625,788.937744140625,788.1318969726562
1162,788.937744140625,788.5347900390625,792.1611938476562,789.7435913085938
1163,782.893798828125,790.952392578125,792.967041015625,787.3259887695312
1164,784.908447265625,784.5054931640625,792.5640869140625,784.908447265625
1165,785.7142944335938,780.0732421875,794.1758422851562,785.7142944335938
1166,785.3113403320312,784.1025390625,793.7728881835938,784.908447265625
1167,783.2966918945312,786.1171875,792.967041015625,784.5054931640625
1168,788.1318969726562,786.1171875,796.5933837890625,784.1025390625
1169,790.952392578125,789.3406372070312,792.1611938476562,782.4908447265625
1170,784.908447265625,796.1904907226562,794.1758422851562,785.7142944335938
1171,784.908447265625,796.5933837890625,799.010986328125,788.1318969726562
1172,782.893798828125,791.7582397460938,793.3699340820312,779.6703491210938
1173,779.6703491210938,790.952392578125,789.7435913085938,775.6410522460938
1174,781.6849975585938,793.3699340820312,790.952392578125,782.893798828125
1175,789.3406372070312,799.4139404296875,793.3699340820312,786.5201416015625
1176,792.5640869140625,803.4432373046875,793.7728881835938,784.5054931640625
1177,788.5347900390625,800.6226806640625,791.3552856445312,782.4908447265625
1178,782.087890625,800.6226806640625,791.3552856445312,783.6996459960938
1179,785.7142944335938,803.8461303710938,795.3846435546875,790.952392578125
1180,792.5640869140625,803.4432373046875,796.5933837890625,792.967041015625
1181,789.3406372070312,803.4432373046875,796.996337890625,793.3699340820312
1182,789.7435913085938,794.5787353515625,796.5933837890625,792.5640869140625
1183,794.5787353515625,788.937744140625,794.1758422851562,791.3552856445312
1184,790.1465454101562,792.967041015625,793.3699340820312,792.5640869140625
1185,788.5347900390625,792.5640869140625,796.5933837890625,798.6080322265625
1186,792.967041015625,792.1611938476562,801.025634765625,804.6520385742188
1187,787.3259887695312,792.967041015625,803.040283203125,797.8021850585938
1188,785.7142944335938,792.1611938476562,803.4432373046875,794.5787353515625
1189,789.3406372070312,790.952392578125,803.4432373046875,796.5933837890625
1190,788.5347900390625,788.5347900390625,797.8021850585938,794.981689453125
1191,785.7142944335938,785.3113403320312,794.5787353515625,794.1758422851562
1192,785.7142944335938,789.3406372070312,800.6226806640625,800.6226806640625
1193,784.5054931640625,789.7435913085938,801.025634765625,800.6226806640625
1194,788.937744140625,787.3259887695312,800.6226806640625,797.8021850585938
1195,799.8168334960938,788.5347900390625,800.2197875976562,799.010986328125
1196,809.084228515625,792.1611938476562,797.3992919921875,805.054931640625
1197,809.084228515625,792.967041015625,796.5933837890625,809.084228515625
1198,796.996337890625,788.1318969726562,795.7875366210938,803.040283203125
1199,792.1611938476562,790.1465454101562,796.996337890625,792.967041015625
1200,796.1904907226562,795.7875366210938,797.3992919921875,791.7582397460938
1201,801.4285888671875,799.8168334960938,798.2051391601562,794.5787353515625
1202,798.2051391601562,801.8314819335938,800.6226806640625,789.7435913085938
1203,792.5640869140625,798.6080322265625,796.5933837890625,781.6849975585938
1204,794.1758422851562,798.2051391601562,798.6080322265625,780.4761962890625
1205,796.996337890625,796.1904907226562,797.3992919921875,784.908447265625
1206,800.2197875976562,791.3552856445312,790.1465454101562,790.952392578125
1207,798.2051391601562,792.5640869140625,792.967041015625,790.1465454101562
1208,794.5787353515625,792.967041015625,794.5787353515625,791.3552856445312
1209,790.952392578125,788.5347900390625,792.967041015625,794.981689453125
1210,791.7582397460938,791.7582397460938,789.3406372070312,789.3406372070312
1211,793.3699340820312,793.7728881835938,787.7289428710938,792.1611938476562
1212,793.7728881835938,790.5494384765625,790.952392578125,798.2051391601562
1213,796.1904907226562,788.1318969726562,791.3552856445312,793.7728881835938
1214,791.3552856445312,783.2966918945312,790.952392578125,791.7582397460938
1215,793.3699340820312,781.6849975585938,789.3406372070312,796.1904907226562
1216,801.025634765625,789.7435913085938,787.3259887695312,802.2344360351562
1217,796.5933837890625,790.952392578125,789.7435913085938,802.2344360351562
1218,797.8021850585938,786.1171875,790.1465454101562,799.010986328125
1219,801.8314819335938,789.3406372070312,788.937744140625,799.010986328125
1220,800.2197875976562,788.5347900390625,789.7435913085938,807.4725341796875
1221,797.3992919921875,791.3552856445312,790.952392578125,809.4871826171875
1222,793.7728881835938,794.5787353515625,792.5640869140625,801.025634765625
1223,788.1318969726562,792.5640869140625,791.7582397460938,799.8168334960938
1224,787.7289428710938,786.923095703125,791.7582397460938,801.4285888671875
1225,791.7582397460938,782.4908447265625,794.981689453125,799.010986328125
1226,793.7728881835938,784.908447265625,799.4139404296875,804.2490844726562
1227,793.3699340820312,788.1318969726562,803.4432373046875,805.8607788085938
1228,786.923095703125,786.923095703125,803.040283203125,797.8021850585938
1229,782.893798828125,788.1318969726562,801.4285888671875,799.010986328125
1230,785.3113403320312,786.5201416015625,802.6373901367188,803.4432373046875
1231,793.3699340820312,789.7435913085938,802.6373901367188,806.6666870117188
1232,796.1904907226562,796.5933837890625,801.025634765625,806.2637329101562
1233,790.1465454101562,798.6080322265625,799.8168334960938,801.025634765625
1234,791.7582397460938,802.6373901367188,797.3992919921875,799.8168334960938
1235,795.7875366210938,796.996337890625,794.1758422851562,795.3846435546875
1236,801.4285888671875,792.1611938476562,792.1611938476562,791.3552856445312
1237,805.8607788085938,793.3699340820312,795.3846435546875,792.5640869140625
1238,804.6520385742188,796.996337890625,798.6080322265625,791.7582397460938
1239,801.4285888671875,797.3992919921875,797.3992919921875,790.952392578125
1240,799.4139404296875,799.8168334960938,792.967041015625,784.908447265625
1241,811.5018310546875,803.4432373046875,792.967041015625,788.5347900390625
1242,811.098876953125,802.6373901367188,797.8021850585938,787.3259887695312
1243,803.040283203125,800.6226806640625,794.981689453125,787.7289428710938
1244,799.4139404296875,799.4139404296875,786.5201416015625,788.1318969726562
1245,798.2051391601562,798.6080322265625,784.5054931640625,780.879150390625
1246,799.4139404296875,799.010986328125,790.1465454101562,782.4908447265625
1247,794.5787353515625,793.3699340820312,794.5787353515625,786.1171875
1248,789.3406372070312,796.5933837890625,796.996337890625,789.7435913085938
1249,781.2820434570312,798.2051391601562,799.8168334960938,792.967041015625
1250,775.6410522460938,788.5347900390625,798.2051391601562,797.8021850585938
1251,768.7911987304688,786.923095703125,797.8021850585938,800.6226806640625
1252,766.7765502929688,786.923095703125,804.6520385742188,798.6080322265625
1253,772.8204956054688,788.1318969726562,805.8607788085938,798.2051391601562
1254,778.4615478515625,790.952392578125,803.4432373046875,805.4578857421875
1255,787.3259887695312,789.3406372070312,804.6520385742188,810.6959838867188
1256,790.952392578125,792.1611938476562,805.054931640625,807.069580078125
1257,792.5640869140625,793.3699340820312,803.040283203125,805.054931640625
1258,799.010986328125,790.1465454101562,801.4285888671875,807.069580078125
1259,801.4285888671875,787.3259887695312,801.8314819335938,808.2783813476562
1260,801.025634765625,790.5494384765625,797.8021850585938,799.4139404296875
1261,800.2197875976562,798.6080322265625,791.3552856445312,792.5640869140625
1262,799.4139404296875,797.8021850585938,788.1318969726562,788.937744140625
1263,804.2490844726562,796.1904907226562,784.5054931640625,785.3113403320312
1264,804.2490844726562,796.1904907226562,778.4615478515625,784.1025390625
1265,805.054931640625,800.2197875976562,774.4322509765625,781.2820434570312
1266,809.89013671875,803.4432373046875,779.2673950195312,780.0732421875
1267,810.6959838867188,800.6226806640625,778.8644409179688,776.4468994140625
1268,803.8461303710938,801.8314819335938,774.029296875,771.2088012695312
1269,795.3846435546875,805.4578857421875,779.2673950195312,770.8058471679688
1270,793.3699340820312,803.8461303710938,782.087890625,770.0
1271,788.5347900390625,797.8021850585938,777.2527465820312,766.3735961914062
1272,780.879150390625,793.3699340820312,778.05859375,767.9853515625
1273,780.0732421875,800.2197875976562,783.2966918945312,770.4029541015625
1274,770.0,801.8314819335938,786.1171875,769.5970458984375
1275,759.5238037109375,796.1904907226562,789.3406372070312,773.2234497070312
1276,764.3589477539062,796.1904907226562,794.981689453125,782.893798828125
1277,770.0,793.3699340820312,797.3992919921875,786.923095703125
1278,775.2380981445312,789.7435913085938,797.3992919921875,784.5054931640625
1279,778.8644409179688,783.6996459960938,801.025634765625,786.5201416015625
1280,781.6849975585938,783.6996459960938,802.2344360351562,789.7435913085938
1281,785.7142944335938,783.6996459960938,803.040283203125,790.952392578125
1282,794.981689453125,787.7289428710938,803.040283203125,799.010986328125
1283,803.040283203125,790.952392578125,803.040283203125,802.2344360351562
1284,809.89013671875,792.5640869140625,803.8461303710938,794.981689453125
1285,809.89013671875,798.6080322265625,801.4285888671875,794.1758422851562
1286,809.084228515625,799.4139404296875,797.3992919921875,795.7875366210938
1287,816.7399291992188,801.8314819335938,797.3992919921875,795.3846435546875
1288,820.3662719726562,798.6080322265625,796.5933837890625,792.5640869140625
1289,826.00732421875,791.7582397460938,788.1318969726562,800.2197875976562
1290,824.7985229492188,789.7435913085938,787.3259887695312,807.069580078125
1291,820.3662719726562,794.5787353515625,794.5787353515625,802.6373901367188
1292,819.5604248046875,798.6080322265625,792.1611938476562,796.996337890625
1293,821.1721801757812,800.2197875976562,789.3406372070312,803.4432373046875
1294,814.7252807617188,800.6226806640625,789.7435913085938,799.010986328125
1295,806.2637329101562,801.8314819335938,788.1318969726562,788.937744140625
1296,809.4871826171875,801.8314819335938,786.5201416015625,795.7875366210938
1297,811.5018310546875,802.2344360351562,786.923095703125,796.5933837890625
1298,812.7106323242188,804.2490844726562,785.7142944335938,791.7582397460938
1299,808.2783813476562,801.4285888671875,783.2966918945312,788.1318969726562
1300,800.6226806640625,799.010986328125,780.4761962890625,782.087890625
1301,796.996337890625,800.2197875976562,780.879150390625,776.0439453125
1302,795.3846435546875,798.2051391601562,782.4908447265625,768.7911987304688
1303,786.923095703125,791.3552856445312,779.6703491210938,766.3735961914062
1304,780.0732421875,788.1318969726562,774.8351440429688,770.4029541015625
1305,774.8351440429688,792.1611938476562,778.4615478515625,774.029296875
1306,775.6410522460938,788.1318969726562,780.0732421875,772.8204956054688
1307,782.893798828125,784.1025390625,782.893798828125,776.8497924804688
1308,784.1025390625,787.3259887695312,791.7582397460938,786.923095703125
1309,781.2820434570312,785.3113403320312,792.967041015625,790.952392578125
1310,778.05859375,782.893798828125,791.7582397460938,785.7142944335938
1311,780.4761962890625,785.3113403320312,792.967041015625,785.7142944335938
1312,784.1025390625,784.5054931640625,794.5787353515625,786.1171875
1313,787.3259887695312,788.1318969726562,792.967041015625,786.5201416015625
1314,792.967041015625,793.7728881835938,790.1465454101562,786.1171875
1315,796.996337890625,789.7435913085938,787.7289428710938,783.2966918945312
1316,794.1758422851562,786.923095703125,790.1465454101562,790.1465454101562
1317,795.7875366210938,792.1611938476562,789.7435913085938,793.7728881835938
1318,800.2197875976562,796.1904907226562,787.3259887695312,789.3406372070312
1319,801.025634765625,794.5787353515625,783.6996459960938,787.3259887695312
1320,802.2344360351562,793.3699340820312,784.908447265625,788.5347900390625
1321,796.1904907226562,790.5494384765625,785.3113403320312,783.2966918945312
1322,791.7582397460938,790.5494384765625,781.6849975585938,779.6703491210938
1323,790.1465454101562,790.952392578125,785.3113403320312,790.952392578125
1324,794.1758422851562,791.7582397460938,788.1318969726562,799.010986328125
1325,795.7875366210938,792.5640869140625,789.7435913085938,797.3992919921875
1326,792.1611938476562,790.5494384765625,788.5347900390625,794.981689453125
1327,793.7728881835938,789.3406372070312,784.908447265625,801.025634765625
1328,793.7728881835938,789.7435913085938,786.923095703125,808.6813354492188
1329,796.1904907226562,794.5787353515625,794.981689453125,804.2490844726562
1330,794.981689453125,796.1904907226562,799.010986328125,800.6226806640625
1331,788.5347900390625,795.7875366210938,801.4285888671875,799.4139404296875
1332,783.6996459960938,796.1904907226562,804.6520385742188,801.025634765625
1333,787.7289428710938,791.7582397460938,809.084228515625,803.8461303710938
1334,784.5054931640625,793.3699340820312,810.6959838867188,800.6226806640625
1335,774.4322509765625,792.1611938476562,812.3076782226562,799.010986328125
1336,769.5970458984375,791.7582397460938,813.113525390625,796.1904907226562
1337,767.5823974609375,790.1465454101562,810.6959838867188,792.967041015625
1338,776.8497924804688,786.1171875,808.6813354492188,793.3699340820312
1339,780.879150390625,787.7289428710938,804.6520385742188,799.8168334960938
1340,777.2527465820312,790.1465454101562,796.5933837890625,795.3846435546875
1341,774.4322509765625,796.1904907226562,797.8021850585938,782.4908447265625
1342,778.05859375,794.981689453125,798.6080322265625,780.879150390625
1343,787.3259887695312,791.7582397460938,792.1611938476562,785.7142944335938
1344,800.6226806640625,796.5933837890625,788.937744140625,789.3406372070312
1345,808.2783813476562,805.054931640625,789.7435913085938,792.967041015625
1346,804.2490844726562,803.040283203125,792.967041015625,791.7582397460938
1347,804.2490844726562,802.6373901367188,791.7582397460938,790.5494384765625
1348,802.6373901367188,804.6520385742188,785.7142944335938,792.5640869140625
1349,804.6520385742188,804.2490844726562,784.1025390625,792.967041015625
1350,808.6813354492188,799.8168334960938,781.6849975585938,794.1758422851562
1351,805.054931640625,796.996337890625,780.4761962890625,792.967041015625
1352,805.8607788085938,805.054931640625,780.4761962890625,785.3113403320312
1353,811.5018310546875,808.2783813476562,788.5347900390625,793.7728881835938
1354,821.1721801757812,805.4578857421875,792.967041015625,812.3076782226562
1355,819.1575317382812,803.8461303710938,790.5494384765625,812.7106323242188
1356,813.5164794921875,806.6666870117188,790.952392578125,814.3223266601562
1357,809.4871826171875,803.040283203125,789.7435913085938,818.7545776367188
1358,798.6080322265625,795.7875366210938,787.3259887695312,811.098876953125
1359,798.6080322265625,790.5494384765625,787.3259887695312,813.5164794921875
1360,796.1904907226562,786.923095703125,790.952392578125,817.5457763671875
1361,790.5494384765625,790.1465454101562,795.3846435546875,817.5457763671875
1362,786.923095703125,793.7728881835938,799.4139404296875,811.098876953125
1363,782.087890625,792.1611938476562,796.1904907226562,799.4139404296875
1364,782.4908447265625,786.923095703125,793.3699340820312,794.981689453125
1365,781.2820434570312,790.952392578125,794.5787353515625,789.3406372070312
1366,779.6703491210938,793.7728881835938,796.1904907226562,791.3552856445312
1367,778.05859375,794.1758422851562,793.7728881835938,788.1318969726562
1368,782.893798828125,794.981689453125,794.1758422851562,778.05859375
1369,788.5347900390625,789.3406372070312,792.967041015625,778.05859375
1370,792.5640869140625,793.7728881835938,790.5494384765625,776.8497924804688
1371,790.1465454101562,796.1904907226562,790.952392578125,776.4468994140625
1372,790.1465454101562,795.3846435546875,788.1318969726562,774.029296875
1373,792.5640869140625,798.2051391601562,788.937744140625,772.4176025390625
1374,792.967041015625,802.2344360351562,788.937744140625,772.4176025390625
1375,796.5933837890625,799.010986328125,781.2820434570312,767.5823974609375
1376,794.981689453125,797.8021850585938,782.087890625,765.5677490234375
1377,791.3552856445312,797.3992919921875,782.4908447265625,767.5823974609375
1378,786.5201416015625,794.5787353515625,782.4908447265625,768.7911987304688
1379,788.1318969726562,801.8314819335938,790.1465454101562,762.7472534179688
1380,785.3113403320312,800.6226806640625,788.5347900390625,754.2857055664062
1381,770.8058471679688,791.3552856445312,787.3259887695312,752.6740112304688
1382,763.1502075195312,787.3259887695312,788.5347900390625,753.076904296875
1383,762.3442993164062,784.1025390625,789.3406372070312,751.4652099609375
1384,764.7619018554688,778.8644409179688,790.1465454101562,754.6886596679688
1385,770.8058471679688,778.05859375,788.1318969726562,759.120849609375
1386,772.8204956054688,774.029296875,786.5201416015625,759.9267578125
1387,770.4029541015625,772.8204956054688,785.3113403320312,764.7619018554688
1388,763.5531005859375,778.8644409179688,789.3406372070312,766.7765502929688
1389,768.3883056640625,780.879150390625,793.3699340820312,777.2527465820312
1390,774.029296875,781.6849975585938,796.1904907226562,786.5201416015625
1391,771.2088012695312,783.2966918945312,798.6080322265625,783.6996459960938
1392,777.2527465820312,786.1171875,799.8168334960938,784.908447265625
1393,783.2966918945312,793.7728881835938,802.6373901367188,788.5347900390625
1394,790.1465454101562,794.981689453125,803.4432373046875,792.5640869140625
1395,802.6373901367188,793.7728881835938,805.8607788085938,795.3846435546875
1396,804.2490844726562,798.2051391601562,800.2197875976562,794.1758422851562
1397,789.7435913085938,797.3992919921875,793.3699340820312,789.3406372070312
1398,781.6849975585938,794.981689453125,797.3992919921875,787.7289428710938
1399,783.6996459960938,798.2051391601562,798.2051391601562,788.1318969726562
1400,790.1465454101562,803.4432373046875,800.6226806640625,797.3992919921875
1401,784.1025390625,802.2344360351562,799.010986328125,795.3846435546875
1402,781.2820434570312,799.8168334960938,797.3992919921875,783.6996459960938
1403,782.893798828125,801.025634765625,801.025634765625,786.1171875
1404,778.8644409179688,802.6373901367188,802.6373901367188,789.7435913085938
1405,786.1171875,805.4578857421875,802.2344360351562,789.3406372070312
1406,788.937744140625,803.8461303710938,800.6226806640625,787.3259887695312
1407,784.1025390625,802.6373901367188,801.4285888671875,786.923095703125
1408,781.2820434570312,802.6373901367188,803.8461303710938,791.3552856445312
1409,785.3113403320312,801.025634765625,807.069580078125,795.3846435546875
1410,783.6996459960938,794.1758422851562,801.025634765625,792.5640869140625
1411,784.908447265625,789.7435913085938,801.025634765625,797.3992919921875
1412,788.5347900390625,794.1758422851562,801.025634765625,804.6520385742188
1413,786.1171875,798.2051391601562,799.8168334960938,801.025634765625
1414,784.5054931640625,794.5787353515625,801.4285888671875,795.7875366210938
1415,792.5640869140625,794.5787353515625,798.2051391601562,801.8314819335938
1416,797.3992919921875,792.967041015625,793.7728881835938,800.6226806640625
1417,788.5347900390625,794.1758422851562,796.1904907226562,798.2051391601562
1418,788.5347900390625,797.8021850585938,798.2051391601562,801.4285888671875
1419,794.5787353515625,795.7875366210938,797.8021850585938,797.8021850585938
1420,800.2197875976562,796.1904907226562,799.4139404296875,797.3992919921875
1421,796.996337890625,790.5494384765625,795.3846435546875,791.7582397460938
1422,794.1758422851562,794.1758422851562,797.8021850585938,790.1465454101562
1423,800.6226806640625,807.4725341796875,800.2197875976562,796.5933837890625
1424,798.6080322265625,806.6666870117188,800.2197875976562,803.4432373046875
1425,792.5640869140625,805.4578857421875,799.8168334960938,794.981689453125
1426,793.3699340820312,801.8314819335938,795.7875366210938,782.087890625
1427,791.7582397460938,801.8314819335938,797.3992919921875,777.6557006835938
1428,792.5640869140625,805.4578857421875,799.4139404296875,781.2820434570312
1429,790.952392578125,804.6520385742188,801.4285888671875,785.3113403320312
1430,796.5933837890625,803.4432373046875,801.8314819335938,787.7289428710938
1431,799.010986328125,797.3992919921875,793.3699340820312,789.3406372070312
1432,792.1611938476562,793.3699340820312,791.3552856445312,788.937744140625
1433,794.981689453125,795.3846435546875,793.7728881835938,788.937744140625
1434,798.6080322265625,799.4139404296875,794.1758422851562,788.1318969726562
1435,795.7875366210938,796.5933837890625,792.1611938476562,790.5494384765625
1436,792.5640869140625,789.7435913085938,791.7582397460938,791.3552856445312
1437,791.7582397460938,791.7582397460938,792.1611938476562,796.1904907226562
1438,789.7435913085938,793.3699340820312,788.937744140625,796.1904907226562
1439,787.7289428710938,792.1611938476562,786.1171875,792.5640869140625
1440,793.7728881835938,793.7728881835938,787.7289428710938,793.3699340820312
1441,797.3992919921875,789.7435913085938,787.3259887695312,795.3846435546875
1442,790.1465454101562,791.3552856445312,788.937744140625,797.3992919921875
1443,790.1465454101562,801.025634765625,793.7728881835938,807.87548828125
1444,796.1904907226562,794.981689453125,794.5787353515625,802.6373901367188
1445,799.8168334960938,791.3552856445312,790.952392578125,793.3699340820312
1446,801.8314819335938,794.981689453125,787.3259887695312,796.1904907226562
1447,803.040283203125,797.3992919921875,787.7289428710938,793.3699340820312
1448,801.025634765625,799.8168334960938,787.7289428710938,789.3406372070312
1449,794.1758422851562,796.996337890625,790.952392578125,782.893798828125
1450,794.5787353515625,797.8021850585938,790.1465454101562,783.2966918945312
1451,796.996337890625,797.8021850585938,789.3406372070312,790.5494384765625
1452,789.7435913085938,799.8168334960938,793.3699340820312,789.7435913085938
1453,791.7582397460938,798.6080322265625,795.7875366210938,788.1318969726562
1454,789.3406372070312,797.3992919921875,792.5640869140625,784.1025390625
1455,781.2820434570312,796.5933837890625,789.7435913085938,781.6849975585938
1456,786.1171875,794.1758422851562,794.1758422851562,788.1318969726562
1457,788.1318969726562,798.2051391601562,793.3699340820312,791.7582397460938
1458,784.908447265625,794.981689453125,793.3699340820312,787.7289428710938
1459,784.5054931640625,792.5640869140625,796.1904907226562,786.5201416015625
1460,790.5494384765625,792.5640869140625,795.7875366210938,787.7289428710938
1461,799.4139404296875,792.5640869140625,793.3699340820312,794.5787353515625
1462,799.8168334960938,794.5787353515625,791.7582397460938,803.040283203125
1463,799.010986328125,798.2051391601562,794.981689453125,807.069580078125
1464,796.5933837890625,799.010986328125,795.7875366210938,802.6373901367188
1465,799.4139404296875,793.7728881835938,797.8021850585938,801.4285888671875
1466,805.054931640625,795.7875366210938,796.1904907226562,802.2344360351562
1467,805.4578857421875,797.8021850585938,799.010986328125,801.4285888671875
1468,801.4285888671875,797.8021850585938,800.6226806640625,801.4285888671875
1469,796.5933837890625,797.8021850585938,800.6226806640625,801.4285888671875
1470,796.5933837890625,794.5787353515625,804.6520385742188,803.040283203125
1471,799.4139404296875,799.4139404296875,797.3992919921875,800.6226806640625
1472,799.4139404296875,803.4432373046875,792.967041015625,796.1904907226562
1473,795.3846435546875,800.6226806640625,793.3699340820312,799.010986328125
1474,789.3406372070312,799.010986328125,788.937744140625,802.2344360351562
1475,780.4761962890625,795.7875366210938,791.7582397460938,790.1465454101562
1476,782.4908447265625,792.967041015625,797.3992919921875,786.1171875
1477,789.7435913085938,793.3699340820312,799.4139404296875,789.3406372070312
1478,783.6996459960938,789.3406372070312,795.7875366210938,790.5494384765625
1479,782.893798828125,787.7289428710938,791.3552856445312,787.3259887695312
1480,788.937744140625,790.5494384765625,792.1611938476562,786.923095703125
1481,790.952392578125,791.3552856445312,789.3406372070312,785.7142944335938
1482,795.3846435546875,793.3699340820312,787.7289428710938,784.1025390625
1483,797.8021850585938,796.5933837890625,788.1318969726562,785.3113403320312
1484,801.025634765625,794.981689453125,785.3113403320312,784.1025390625
1485,796.5933837890625,792.1611938476562,783.2966918945312,785.3113403320312
1486,789.3406372070312,794.5787353515625,785.3113403320312,784.908447265625
1487,794.5787353515625,794.1758422851562,784.5054931640625,790.5494384765625
1488,795.3846435546875,790.952392578125,788.1318969726562,795.3846435546875
1489,796.5933837890625,789.3406372070312,797.8021850585938,799.010986328125
1490,797.8021850585938,793.7728881835938,796.5933837890625,798.2051391601562
1491,798.6080322265625,798.2051391601562,795.3846435546875,795.7875366210938
1492,795.7875366210938,797.8021850585938,796.1904907226562,797.8021850585938
1493,788.1318969726562,796.1904907226562,795.3846435546875,798.2051391601562
1494,792.1611938476562,794.981689453125,798.2051391601562,796.996337890625
1495,790.952392578125,793.7728881835938,798.2051391601562,793.7728881835938
1496,786.1171875,793.3699340820312,793.3699340820312,793.7728881835938
1497,793.7728881835938,796.996337890625,793.7728881835938,797.8021850585938
1498,796.1904907226562,796.996337890625,794.5787353515625,793.7728881835938
1499,790.952392578125,792.967041015625,793.3699340820312,791.3552856445312
1500,781.6849975585938,790.5494384765625,794.1758422851562,790.5494384765625
1501,778.4615478515625,789.3406372070312,794.1758422851562,790.5494384765625
1502,779.6703491210938,788.937744140625,793.3699340820312,788.937744140625
1503,777.2527465820312,791.3552856445312,791.3552856445312,789.7435913085938
1504,775.6410522460938,792.5640869140625,792.1611938476562,786.1171875
1505,773.6264038085938,795.3846435546875,796.5933837890625,780.0732421875
1506,778.4615478515625,791.7582397460938,792.5640869140625,774.029296875
1507,784.908447265625,789.7435913085938,788.937744140625,770.0
1508,784.1025390625,790.5494384765625,791.7582397460938,779.2673950195312
1509,778.05859375,786.5201416015625,794.5787353515625,782.893798828125
1510,773.2234497070312,790.952392578125,794.1758422851562,771.2088012695312
1511,779.6703491210938,791.3552856445312,795.7875366210938,775.2380981445312
1512,787.7289428710938,789.7435913085938,798.2051391601562,784.908447265625
1513,792.967041015625,792.5640869140625,799.010986328125,787.3259887695312
1514,794.981689453125,798.2051391601562,803.040283203125,790.5494384765625
1515,798.2051391601562,803.040283203125,798.6080322265625,793.7728881835938
1516,800.6226806640625,799.4139404296875,794.5787353515625,796.5933837890625
1517,805.4578857421875,799.4139404296875,793.7728881835938,800.6226806640625
1518,807.069580078125,799.4139404296875,791.3552856445312,803.040283203125
1519,803.040283203125,794.1758422851562,786.923095703125,798.6080322265625
1520,801.4285888671875,792.5640869140625,784.908447265625,799.010986328125
1521,801.8314819335938,795.3846435546875,789.7435913085938,801.8314819335938
1522,808.2783813476562,797.8021850585938,790.952392578125,803.4432373046875
1523,808.2783813476562,797.3992919921875,791.3552856445312,804.2490844726562
1524,802.6373901367188,802.2344360351562,791.3552856445312,801.025634765625
1525,798.6080322265625,804.2490844726562,787.7289428710938,796.5933837890625
1526,793.7728881835938,800.2197875976562,788.937744140625,798.2051391601562
1527,790.952392578125,798.6080322265625,790.1465454101562,802.2344360351562
1528,788.1318969726562,795.7875366210938,794.981689453125,799.010986328125
1529,786.5201416015625,793.3699340820312,791.7582397460938,793.3699340820312
1530,786.923095703125,792.1611938476562,784.5054931640625,784.1025390625
1531,781.6849975585938,788.1318969726562,784.1025390625,783.6996459960938
1532,776.0439453125,786.5201416015625,786.1171875,784.5054931640625
1533,780.879150390625,792.5640869140625,787.7289428710938,776.4468994140625
1534,784.1025390625,796.5933837890625,787.3259887695312,776.0439453125
1535,782.087890625,795.3846435546875,790.1465454101562,775.6410522460938
1536,782.087890625,794.5787353515625,790.952392578125,773.6264038085938
1537,785.7142944335938,794.5787353515625,786.1171875,777.6557006835938
1538,794.981689453125,796.1904907226562,787.3259887695312,787.7289428710938
1539,801.025634765625,799.010986328125,788.937744140625,790.5494384765625
1540,800.2197875976562,797.3992919921875,788.5347900390625,789.7435913085938
1541,803.8461303710938,796.996337890625,788.5347900390625,789.7435913085938
1542,804.2490844726562,792.967041015625,783.6996459960938,792.1611938476562
1543,805.8607788085938,790.1465454101562,780.4761962890625,794.981689453125
1544,804.2490844726562,796.1904907226562,785.3113403320312,793.7728881835938
1545,796.1904907226562,795.3846435546875,791.3552856445312,793.3699340820312
1546,792.967041015625,791.7582397460938,792.967041015625,794.1758422851562
1547,794.981689453125,795.3846435546875,792.1611938476562,797.3992919921875
1548,793.7728881835938,794.5787353515625,792.1611938476562,796.1904907226562
1549,789.7435913085938,786.1171875,794.5787353515625,793.3699340820312
1550,786.5201416015625,787.3259887695312,794.5787353515625,799.8168334960938
1551,785.3113403320312,789.7435913085938,797.8021850585938,805.8607788085938
1552,786.923095703125,784.5054931640625,797.3992919921875,797.3992919921875
1553,786.923095703125,783.2966918945312,797.8021850585938,798.2051391601562
1554,779.2673950195312,786.5201416015625,799.4139404296875,800.6226806640625
1555,778.05859375,787.7289428710938,796.996337890625,794.981689453125
1556,776.8497924804688,785.7142944335938,792.5640869140625,787.7289428710938
1557,779.6703491210938,786.5201416015625,793.3699340820312,788.1318969726562
1558,786.1171875,788.937744140625,797.3992919921875,796.996337890625
1559,784.1025390625,788.1318969726562,795.3846435546875,789.3406372070312
1560,784.908447265625,787.3259887695312,792.5640869140625,780.4761962890625
1561,782.087890625,788.5347900390625,792.1611938476562,783.2966918945312
1562,774.4322509765625,784.1025390625,790.952392578125,777.6557006835938
1563,776.8497924804688,782.893798828125,790.5494384765625,778.8644409179688
1564,786.1171875,789.3406372070312,796.5933837890625,784.5054931640625
1565,793.3699340820312,799.8168334960938,801.025634765625,786.923095703125
1566,792.1611938476562,802.6373901367188,796.5933837890625,787.7289428710938
1567,787.7289428710938,801.025634765625,792.1611938476562,780.879150390625
1568,786.5201416015625,797.3992919921875,790.952392578125,780.0732421875
1569,790.5494384765625,794.981689453125,786.1171875,787.3259887695312
1570,792.1611938476562,797.8021850585938,786.923095703125,795.3846435546875
1571,784.5054931640625,799.010986328125,792.1611938476562,791.7582397460938
1572,783.6996459960938,796.5933837890625,793.3699340820312,791.7582397460938
1573,790.952392578125,794.1758422851562,793.3699340820312,791.7582397460938
1574,792.5640869140625,794.5787353515625,792.5640869140625,787.3259887695312
1575,792.5640869140625,794.5787353515625,794.5787353515625,787.3259887695312
1576,790.5494384765625,796.1904907226562,794.5787353515625,787.3259887695312
1577,793.7728881835938,796.1904907226562,796.1904907226562,795.3846435546875
1578,794.1758422851562,794.981689453125,801.025634765625,796.1904907226562
1579,788.937744140625,796.1904907226562,802.2344360351562,791.3552856445312
1580,781.6849975585938,795.3846435546875,802.2344360351562,792.1611938476562
1581,774.029296875,792.1611938476562,801.025634765625,793.3699340820312
1582,773.6264038085938,790.952392578125,802.2344360351562,791.3552856445312
1583,780.879150390625,794.5787353515625,799.010986328125,784.1025390625
1584,793.7728881835938,793.3699340820312,796.996337890625,784.5054931640625
