timestamp,RAW_TP9,RAW_AF7,RAW_AF8,RAW_TP10
1,792.967041015625,785.3113403320312,788.5347900390625,801.025634765625
2,791.7582397460938,787.3259887695312,786.923095703125,790.1465454101562
3,793.7728881835938,786.923095703125,784.908447265625,792.1611938476562
4,792.967041015625,783.6996459960938,790.5494384765625,799.4139404296875
5,789.7435913085938,786.5201416015625,796.5933837890625,791.3552856445312
6,791.7582397460938,790.952392578125,796.996337890625,782.893798828125
7,790.5494384765625,793.3699340820312,789.7435913085938,785.7142944335938
8,792.1611938476562,791.7582397460938,783.6996459960938,784.1025390625
9,796.5933837890625,794.1758422851562,788.1318969726562,782.087890625
10,793.7728881835938,791.3552856445312,787.7289428710938,782.893798828125
11,793.7728881835938,790.1465454101562,789.3406372070312,786.5201416015625
12,796.996337890625,794.5787353515625,793.3699340820312,789.7435913085938
13,799.010986328125,796.996337890625,788.1318969726562,786.1171875
14,799.010986328125,793.3699340820312,785.7142944335938,786.923095703125
15,797.8021850585938,786.5201416015625,788.5347900390625,798.2051391601562
16,796.5933837890625,793.7728881835938,788.5347900390625,797.8021850585938
17,796.996337890625,800.6226806640625,785.7142944335938,790.5494384765625
18,800.2197875976562,794.981689453125,786.923095703125,793.7728881835938
19,801.4285888671875,797.8021850585938,785.3113403320312,790.952392578125
20,803.040283203125,804.2490844726562,788.1318969726562,787.3259887695312
21,799.8168334960938,800.2197875976562,788.937744140625,789.3406372070312
22,795.3846435546875,793.3699340820312,786.5201416015625,792.5640869140625
23,797.3992919921875,793.7728881835938,788.1318969726562,796.1904907226562
24,794.5787353515625,796.996337890625,793.7728881835938,795.7875366210938
25,795.3846435546875,799.010986328125,797.8021850585938,792.5640869140625
26,801.4285888671875,799.010986328125,797.3992919921875,796.5933837890625
27,793.7728881835938,790.5494384765625,794.1758422851562,798.2051391601562
28,788.1318969726562,786.5201416015625,793.7728881835938,790.5494384765625
29,787.3259887695312,791.7582397460938,796.1904907226562,786.5201416015625
30,788.937744140625,795.3846435546875,792.967041015625,796.996337890625
31,787.7289428710938,794.981689453125,791.3552856445312,799.4139404296875
32,781.6849975585938,789.7435913085938,791.7582397460938,788.5347900390625
33,789.7435913085938,790.5494384765625,793.7728881835938,791.7582397460938
34,801.025634765625,797.3992919921875,792.967041015625,801.4285888671875
35,794.1758422851562,794.1758422851562,793.7728881835938,801.4285888671875
36,786.1171875,792.1611938476562,795.3846435546875,792.967041015625
37,788.5347900390625,795.7875366210938,792.5640869140625,793.3699340820312
38,790.5494384765625,790.5494384765625,792.967041015625,792.967041015625
39,789.7435913085938,790.952392578125,789.3406372070312,788.1318969726562
40,790.1465454101562,789.7435913085938,784.1025390625,790.1465454101562
41,796.1904907226562,785.3113403320312,790.952392578125,796.996337890625
42,793.7728881835938,789.3406372070312,791.3552856445312,799.010986328125
43,789.7435913085938,794.5787353515625,790.1465454101562,793.7728881835938
44,796.1904907226562,796.5933837890625,791.7582397460938,790.952392578125
45,797.8021850585938,796.1904907226562,789.7435913085938,792.967041015625
46,792.1611938476562,790.1465454101562,794.981689453125,797.8021850585938
47,792.967041015625,785.3113403320312,797.3992919921875,796.1904907226562
48,795.7875366210938,791.3552856445312,792.967041015625,791.7582397460938
49,799.4139404296875,793.7728881835938,792.5640869140625,798.2051391601562
50,796.996337890625,789.7435913085938,794.5787353515625,797.8021850585938
51,789.7435913085938,786.1171875,794.5787353515625,793.3699340820312
52,789.3406372070312,786.923095703125,795.7875366210938,797.3992919921875
53,792.5640869140625,783.6996459960938,796.996337890625,800.6226806640625
54,795.3846435546875,778.8644409179688,794.981689453125,799.010986328125
55,791.3552856445312,784.908447265625,793.7728881835938,788.5347900390625
56,785.7142944335938,790.1465454101562,792.967041015625,787.7289428710938
57,790.5494384765625,790.1465454101562,791.3552856445312,788.5347900390625
58,788.937744140625,789.3406372070312,791.3552856445312,788.937744140625
59,782.893798828125,792.5640869140625,788.5347900390625,787.7289428710938
60,785.7142944335938,789.3406372070312,792.967041015625,787.7289428710938
61,788.1318969726562,788.5347900390625,799.8168334960938,794.5787353515625
62,784.5054931640625,787.7289428710938,797.8021850585938,791.3552856445312
63,781.2820434570312,785.7142944335938,798.2051391601562,785.3113403320312
64,784.5054931640625,784.908447265625,797.8021850585938,785.3113403320312
65,793.7728881835938,788.5347900390625,795.7875366210938,796.1904907226562
66,787.7289428710938,791.3552856445312,796.1904907226562,796.5933837890625
67,785.3113403320312,785.3113403320312,797.8021850585938,790.5494384765625
68,790.1465454101562,785.7142944335938,799.010986328125,793.7728881835938
69,786.5201416015625,786.923095703125,796.5933837890625,793.3699340820312
70,785.3113403320312,787.7289428710938,795.7875366210938,790.1465454101562
71,784.1025390625,789.7435913085938,794.1758422851562,787.7289428710938
72,786.5201416015625,795.3846435546875,793.3699340820312,795.3846435546875
73,793.3699340820312,803.8461303710938,799.010986328125,801.4285888671875
74,787.7289428710938,799.010986328125,796.996337890625,792.967041015625
75,785.3113403320312,792.1611938476562,794.981689453125,792.5640869140625
76,794.981689453125,790.952392578125,795.3846435546875,799.010986328125
77,791.3552856445312,789.3406372070312,791.3552856445312,802.6373901367188
78,782.893798828125,792.1611938476562,792.1611938476562,795.3846435546875
79,782.087890625,796.1904907226562,796.5933837890625,792.1611938476562
80,783.2966918945312,796.5933837890625,796.1904907226562,796.996337890625
81,785.7142944335938,792.1611938476562,790.1465454101562,793.3699340820312
82,786.923095703125,792.1611938476562,797.3992919921875,789.3406372070312
83,786.5201416015625,796.1904907226562,799.010986328125,785.7142944335938
84,788.5347900390625,792.967041015625,790.5494384765625,784.908447265625
85,788.937744140625,794.981689453125,792.967041015625,785.3113403320312
86,791.7582397460938,793.3699340820312,794.1758422851562,784.1025390625
87,792.1611938476562,781.6849975585938,794.1758422851562,788.5347900390625
88,801.025634765625,788.1318969726562,794.981689453125,797.3992919921875
89,806.2637329101562,800.2197875976562,795.7875366210938,792.967041015625
90,795.3846435546875,794.5787353515625,796.5933837890625,789.3406372070312
91,791.7582397460938,788.1318969726562,793.3699340820312,797.3992919921875
92,791.3552856445312,792.967041015625,790.5494384765625,804.2490844726562
93,785.7142944335938,796.996337890625,796.5933837890625,799.010986328125
94,795.3846435546875,794.981689453125,803.8461303710938,794.981689453125
95,799.8168334960938,800.6226806640625,801.025634765625,794.1758422851562
96,794.981689453125,805.054931640625,796.996337890625,793.7728881835938
97,790.952392578125,797.3992919921875,798.6080322265625,784.908447265625
98,790.5494384765625,788.1318969726562,798.6080322265625,785.3113403320312
99,797.8021850585938,788.937744140625,799.010986328125,799.8168334960938
100,798.6080322265625,797.3992919921875,794.981689453125,797.3992919921875
101,795.3846435546875,801.8314819335938,795.7875366210938,790.1465454101562
102,790.1465454101562,798.2051391601562,799.8168334960938,793.3699340820312
103,791.7582397460938,793.7728881835938,799.010986328125,791.3552856445312
104,798.2051391601562,791.3552856445312,796.996337890625,791.7582397460938
105,790.1465454101562,790.5494384765625,796.5933837890625,788.1318969726562
106,784.908447265625,792.5640869140625,793.7728881835938,783.6996459960938
107,786.5201416015625,791.3552856445312,790.1465454101562,787.7289428710938
108,780.879150390625,782.893798828125,792.5640869140625,785.7142944335938
109,782.893798828125,781.6849975585938,795.3846435546875,784.908447265625
110,789.3406372070312,789.7435913085938,794.5787353515625,788.937744140625
111,796.5933837890625,797.8021850585938,795.3846435546875,797.8021850585938
112,800.6226806640625,801.4285888671875,800.6226806640625,797.3992919921875
113,796.5933837890625,799.4139404296875,799.010986328125,788.937744140625
114,795.7875366210938,794.981689453125,791.7582397460938,788.937744140625
115,798.2051391601562,792.1611938476562,788.5347900390625,790.5494384765625
116,797.8021850585938,792.1611938476562,788.937744140625,790.952392578125
117,798.6080322265625,801.8314819335938,794.1758422851562,794.1758422851562
118,798.6080322265625,798.2051391601562,792.5640869140625,794.1758422851562
119,796.5933837890625,787.7289428710938,790.5494384765625,793.7728881835938
120,800.2197875976562,795.3846435546875,792.967041015625,793.7728881835938
121,802.2344360351562,799.8168334960938,791.7582397460938,791.3552856445312
122,797.3992919921875,796.1904907226562,791.3552856445312,787.3259887695312
123,790.5494384765625,794.5787353515625,792.967041015625,788.5347900390625
124,792.1611938476562,796.996337890625,794.1758422851562,788.5347900390625
125,789.3406372070312,795.7875366210938,793.7728881835938,792.967041015625
126,783.2966918945312,788.1318969726562,794.1758422851562,797.8021850585938
127,789.3406372070312,788.937744140625,794.1758422851562,794.981689453125
128,787.7289428710938,794.1758422851562,790.1465454101562,786.5201416015625
129,778.05859375,790.1465454101562,788.937744140625,782.4908447265625
130,780.0732421875,789.7435913085938,792.967041015625,786.5201416015625
131,790.1465454101562,789.3406372070312,796.5933837890625,789.7435913085938
132,795.3846435546875,781.2820434570312,791.3552856445312,788.937744140625
133,795.7875366210938,779.2673950195312,788.937744140625,788.937744140625
134,799.8168334960938,785.7142944335938,790.5494384765625,793.7728881835938
135,797.3992919921875,795.7875366210938,795.3846435546875,790.1465454101562
136,797.8021850585938,796.5933837890625,802.2344360351562,786.1171875
137,800.6226806640625,790.5494384765625,800.6226806640625,791.3552856445312
138,799.4139404296875,794.1758422851562,792.5640869140625,802.2344360351562
139,794.981689453125,798.2051391601562,788.937744140625,799.4139404296875
140,793.7728881835938,790.952392578125,792.5640869140625,786.923095703125
141,793.3699340820312,790.952392578125,796.1904907226562,788.5347900390625
142,793.7728881835938,793.3699340820312,794.1758422851562,792.1611938476562
143,796.5933837890625,785.7142944335938,792.967041015625,795.3846435546875
144,799.010986328125,788.937744140625,794.1758422851562,799.010986328125
145,794.981689453125,795.7875366210938,790.5494384765625,794.1758422851562
146,792.1611938476562,798.6080322265625,790.1465454101562,794.1758422851562
147,796.1904907226562,797.8021850585938,790.5494384765625,796.5933837890625
148,792.967041015625,796.1904907226562,786.5201416015625,790.1465454101562
149,781.6849975585938,792.967041015625,782.893798828125,785.3113403320312
150,782.087890625,792.1611938476562,780.879150390625,786.923095703125
151,788.937744140625,794.5787353515625,786.1171875,788.5347900390625
152,790.5494384765625,790.5494384765625,791.7582397460938,789.7435913085938
153,790.1465454101562,781.6849975585938,789.7435913085938,788.5347900390625
154,785.3113403320312,782.893798828125,788.937744140625,787.3259887695312
155,786.923095703125,784.908447265625,790.5494384765625,791.7582397460938
156,791.7582397460938,785.3113403320312,793.7728881835938,790.952392578125
157,792.5640869140625,792.1611938476562,794.1758422851562,796.996337890625
158,793.3699340820312,793.7728881835938,796.5933837890625,805.4578857421875
159,789.3406372070312,785.3113403320312,801.4285888671875,802.2344360351562
160,786.923095703125,780.879150390625,797.3992919921875,801.4285888671875
161,788.1318969726562,786.923095703125,793.7728881835938,803.040283203125
162,786.923095703125,791.7582397460938,801.025634765625,799.010986328125
163,788.1318969726562,787.3259887695312,803.8461303710938,795.3846435546875
164,795.3846435546875,786.1171875,792.967041015625,799.8168334960938
165,793.7728881835938,788.5347900390625,790.952392578125,795.3846435546875
166,791.7582397460938,786.923095703125,795.7875366210938,790.1465454101562
167,798.2051391601562,788.937744140625,793.3699340820312,797.3992919921875
168,795.7875366210938,793.7728881835938,793.7728881835938,791.7582397460938
169,792.1611938476562,796.1904907226562,798.6080322265625,790.952392578125
170,789.7435913085938,795.7875366210938,795.7875366210938,795.3846435546875
171,792.5640869140625,796.1904907226562,791.7582397460938,789.7435913085938
172,792.1611938476562,793.3699340820312,790.952392578125,787.7289428710938
173,787.7289428710938,792.967041015625,792.5640869140625,792.1611938476562
174,786.5201416015625,795.7875366210938,796.1904907226562,790.1465454101562
175,783.6996459960938,793.7728881835938,797.8021850585938,785.7142944335938
176,789.3406372070312,792.1611938476562,794.5787353515625,789.7435913085938
177,792.5640869140625,790.1465454101562,792.5640869140625,796.996337890625
178,791.7582397460938,792.1611938476562,796.996337890625,793.7728881835938
179,793.7728881835938,796.5933837890625,794.5787353515625,789.7435913085938
180,790.952392578125,793.7728881835938,789.3406372070312,792.5640869140625
181,790.952392578125,788.1318969726562,791.7582397460938,798.2051391601562
182,790.1465454101562,788.1318969726562,792.1611938476562,790.952392578125
183,784.5054931640625,792.5640869140625,791.7582397460938,787.3259887695312
184,789.7435913085938,794.5787353515625,794.5787353515625,791.7582397460938
185,794.1758422851562,792.967041015625,795.7875366210938,787.3259887695312
186,790.5494384765625,791.3552856445312,791.7582397460938,780.879150390625
187,794.981689453125,795.3846435546875,791.7582397460938,776.8497924804688
188,797.8021850585938,797.3992919921875,794.5787353515625,781.2820434570312
189,786.5201416015625,794.981689453125,791.7582397460938,785.7142944335938
190,784.908447265625,791.3552856445312,788.1318969726562,785.3113403320312
191,790.5494384765625,790.5494384765625,790.1465454101562,786.1171875
192,791.7582397460938,788.937744140625,792.967041015625,786.5201416015625
193,790.1465454101562,792.1611938476562,792.5640869140625,789.3406372070312
194,786.923095703125,795.3846435546875,789.3406372070312,786.1171875
195,785.7142944335938,791.3552856445312,789.7435913085938,789.7435913085938
196,788.937744140625,791.3552856445312,791.7582397460938,803.4432373046875
197,792.5640869140625,790.5494384765625,793.7728881835938,799.4139404296875
198,803.040283203125,792.967041015625,795.3846435546875,798.2051391601562
199,801.8314819335938,798.6080322265625,795.3846435546875,801.4285888671875
200,791.7582397460938,798.2051391601562,796.5933837890625,796.996337890625
201,792.967041015625,799.4139404296875,796.996337890625,792.1611938476562
202,799.010986328125,801.8314819335938,797.8021850585938,799.8168334960938
203,799.010986328125,799.4139404296875,801.4285888671875,807.87548828125
204,796.5933837890625,802.6373901367188,803.040283203125,808.6813354492188
205,799.8168334960938,805.054931640625,797.3992919921875,805.4578857421875
206,799.4139404296875,795.3846435546875,798.6080322265625,804.2490844726562
207,797.8021850585938,790.952392578125,799.010986328125,813.113525390625
208,792.967041015625,788.937744140625,794.981689453125,802.2344360351562
209,788.1318969726562,791.7582397460938,795.7875366210938,788.5347900390625
210,792.967041015625,795.7875366210938,795.7875366210938,790.5494384765625
211,798.2051391601562,797.8021850585938,794.981689453125,791.3552856445312
212,800.6226806640625,799.4139404296875,799.010986328125,790.1465454101562
213,798.2051391601562,801.4285888671875,796.996337890625,784.908447265625
214,788.1318969726562,799.010986328125,794.5787353515625,778.05859375
215,782.893798828125,793.7728881835938,794.5787353515625,775.6410522460938
216,790.1465454101562,794.5787353515625,792.1611938476562,784.1025390625
217,793.7728881835938,794.5787353515625,794.1758422851562,788.937744140625
218,787.3259887695312,783.6996459960938,792.5640869140625,785.7142944335938
219,788.1318969726562,782.087890625,788.1318969726562,790.5494384765625
220,791.3552856445312,788.1318969726562,792.5640869140625,788.5347900390625
221,790.5494384765625,790.5494384765625,798.2051391601562,789.3406372070312
222,786.1171875,780.0732421875,794.1758422851562,785.7142944335938
223,788.5347900390625,775.2380981445312,790.1465454101562,784.5054931640625
224,787.7289428710938,783.6996459960938,786.5201416015625,783.6996459960938
225,786.5201416015625,788.1318969726562,788.937744140625,782.087890625
226,788.1318969726562,784.5054931640625,790.5494384765625,788.5347900390625
227,787.7289428710938,784.908447265625,789.7435913085938,792.5640869140625
228,790.952392578125,790.5494384765625,796.996337890625,792.967041015625
229,796.1904907226562,794.1758422851562,796.996337890625,798.6080322265625
230,796.996337890625,796.5933837890625,795.7875366210938,801.4285888671875
231,796.1904907226562,798.2051391601562,801.4285888671875,795.7875366210938
232,799.8168334960938,794.5787353515625,799.8168334960938,790.1465454101562
233,801.4285888671875,792.1611938476562,796.1904907226562,791.7582397460938
234,802.2344360351562,788.937744140625,795.3846435546875,802.2344360351562
235,798.2051391601562,791.3552856445312,796.5933837890625,798.6080322265625
236,792.1611938476562,797.3992919921875,797.3992919921875,785.3113403320312
237,798.6080322265625,800.2197875976562,794.1758422851562,788.5347900390625
238,801.4285888671875,795.3846435546875,792.5640869140625,792.967041015625
239,795.7875366210938,793.7728881835938,796.996337890625,790.5494384765625
240,797.3992919921875,797.8021850585938,792.967041015625,786.1171875
241,794.5787353515625,798.2051391601562,791.3552856445312,788.1318969726562
242,790.5494384765625,792.1611938476562,791.3552856445312,787.3259887695312
243,792.5640869140625,786.1171875,791.7582397460938,785.3113403320312
244,791.7582397460938,788.5347900390625,794.981689453125,788.5347900390625
245,793.7728881835938,789.3406372070312,791.7582397460938,792.5640869140625
246,796.1904907226562,789.7435913085938,793.7728881835938,794.981689453125
247,794.1758422851562,792.5640869140625,798.6080322265625,790.1465454101562
248,793.3699340820312,794.981689453125,798.2051391601562,783.2966918945312
249,791.7582397460938,794.5787353515625,800.6226806640625,788.5347900390625
250,791.3552856445312,794.1758422851562,799.4139404296875,793.3699340820312
251,789.7435913085938,796.5933837890625,784.5054931640625,788.5347900390625
252,790.1465454101562,800.6226806640625,785.7142944335938,789.3406372070312
253,797.8021850585938,801.025634765625,796.1904907226562,801.025634765625
254,796.5933837890625,796.5933837890625,796.1904907226562,796.5933837890625
255,792.1611938476562,794.981689453125,794.981689453125,785.3113403320312
256,795.3846435546875,796.1904907226562,793.3699340820312,788.5347900390625
257,795.7875366210938,792.1611938476562,792.5640869140625,795.3846435546875
258,793.7728881835938,790.5494384765625,793.7728881835938,794.5787353515625
259,798.2051391601562,788.5347900390625,794.1758422851562,792.5640869140625
260,799.8168334960938,791.7582397460938,791.3552856445312,790.1465454101562
261,795.7875366210938,797.3992919921875,787.7289428710938,788.1318969726562
262,795.3846435546875,796.996337890625,787.7289428710938,785.3113403320312
263,793.7728881835938,793.3699340820312,784.5054931640625,786.5201416015625
264,797.3992919921875,788.5347900390625,783.2966918945312,790.5494384765625
265,800.2197875976562,787.7289428710938,790.1465454101562,789.7435913085938
266,795.7875366210938,790.952392578125,791.3552856445312,792.5640869140625
267,795.3846435546875,790.1465454101562,790.952392578125,786.1171875
268,797.3992919921875,789.3406372070312,796.5933837890625,790.5494384765625
269,797.3992919921875,788.1318969726562,797.8021850585938,799.4139404296875
270,798.2051391601562,786.1171875,795.7875366210938,791.7582397460938
271,796.5933837890625,786.923095703125,794.981689453125,789.7435913085938
272,792.1611938476562,792.5640869140625,790.952392578125,786.1171875
273,794.5787353515625,796.996337890625,790.5494384765625,788.5347900390625
274,787.7289428710938,796.996337890625,792.5640869140625,789.3406372070312
275,782.4908447265625,796.996337890625,793.7728881835938,786.5201416015625
276,785.7142944335938,791.3552856445312,789.3406372070312,794.981689453125
277,783.6996459960938,789.3406372070312,787.3259887695312,786.1171875
278,780.4761962890625,787.3259887695312,790.952392578125,778.05859375
279,776.4468994140625,782.4908447265625,792.1611938476562,784.1025390625
280,779.2673950195312,782.893798828125,791.7582397460938,791.7582397460938
281,782.087890625,780.879150390625,790.1465454101562,783.2966918945312
282,778.4615478515625,773.2234497070312,787.7289428710938,770.0
283,780.0732421875,779.6703491210938,790.1465454101562,777.2527465820312
284,784.5054931640625,791.7582397460938,792.967041015625,783.6996459960938
285,786.923095703125,799.4139404296875,793.7728881835938,786.1171875
286,790.1465454101562,799.8168334960938,790.952392578125,786.5201416015625
287,787.7289428710938,794.981689453125,790.5494384765625,787.3259887695312
288,788.5347900390625,792.1611938476562,795.7875366210938,788.937744140625
289,789.3406372070312,793.3699340820312,796.1904907226562,786.923095703125
290,783.6996459960938,793.7728881835938,794.981689453125,785.3113403320312
291,786.5201416015625,791.7582397460938,790.952392578125,790.952392578125
292,789.7435913085938,792.1611938476562,790.952392578125,798.2051391601562
293,786.5201416015625,794.5787353515625,796.1904907226562,790.5494384765625
294,788.1318969726562,797.3992919921875,794.1758422851562,784.908447265625
295,786.923095703125,796.1904907226562,792.967041015625,794.5787353515625
296,786.5201416015625,799.010986328125,792.5640869140625,794.981689453125
297,782.893798828125,797.8021850585938,792.1611938476562,788.5347900390625
298,784.1025390625,794.5787353515625,796.996337890625,792.1611938476562
299,786.5201416015625,794.981689453125,796.5933837890625,801.4285888671875
300,791.3552856445312,793.3699340820312,796.996337890625,801.4285888671875
301,797.3992919921875,797.8021850585938,797.3992919921875,796.1904907226562
302,800.2197875976562,798.6080322265625,797.8021850585938,800.6226806640625
303,798.6080322265625,789.7435913085938,796.996337890625,803.4432373046875
304,792.967041015625,787.3259887695312,796.996337890625,794.981689453125
305,797.8021850585938,792.5640869140625,796.1904907226562,790.5494384765625
306,799.010986328125,792.1611938476562,788.937744140625,789.7435913085938
307,794.1758422851562,790.5494384765625,790.1465454101562,789.7435913085938
308,787.7289428710938,789.7435913085938,796.996337890625,785.7142944335938
309,787.7289428710938,789.3406372070312,796.996337890625,781.2820434570312
310,797.8021850585938,794.5787353515625,794.1758422851562,783.6996459960938
311,799.4139404296875,799.4139404296875,792.5640869140625,784.908447265625
312,795.7875366210938,790.1465454101562,791.3552856445312,780.879150390625
313,790.5494384765625,786.5201416015625,793.3699340820312,780.879150390625
314,786.1171875,793.3699340820312,794.1758422851562,783.6996459960938
315,791.3552856445312,791.3552856445312,790.5494384765625,787.3259887695312
316,793.7728881835938,786.923095703125,791.7582397460938,785.7142944335938
317,790.952392578125,785.7142944335938,794.5787353515625,786.923095703125
318,795.3846435546875,783.2966918945312,790.1465454101562,789.7435913085938
319,799.4139404296875,786.923095703125,790.5494384765625,793.7728881835938
320,796.5933837890625,790.5494384765625,794.1758422851562,791.7582397460938
321,793.3699340820312,790.952392578125,795.3846435546875,789.3406372070312
322,795.7875366210938,792.967041015625,790.952392578125,792.5640869140625
323,791.7582397460938,790.952392578125,787.7289428710938,784.1025390625
324,788.937744140625,792.5640869140625,793.7728881835938,777.6557006835938
325,787.3259887695312,796.1904907226562,791.3552856445312,782.087890625
326,782.087890625,792.1611938476562,782.893798828125,782.087890625
327,787.7289428710938,791.7582397460938,788.1318969726562,783.2966918945312
328,791.7582397460938,795.3846435546875,792.967041015625,789.3406372070312
329,793.7728881835938,792.5640869140625,789.7435913085938,798.6080322265625
330,800.6226806640625,785.3113403320312,790.952392578125,805.054931640625
331,797.3992919921875,785.3113403320312,794.981689453125,794.5787353515625
332,795.3846435546875,792.967041015625,794.5787353515625,784.1025390625
333,796.5933837890625,790.5494384765625,794.1758422851562,791.3552856445312
334,797.8021850585938,790.5494384765625,793.7728881835938,789.7435913085938
335,793.3699340820312,792.967041015625,794.5787353515625,782.4908447265625
336,792.1611938476562,789.3406372070312,792.967041015625,787.7289428710938
337,796.1904907226562,792.1611938476562,788.1318969726562,787.7289428710938
338,793.7728881835938,796.1904907226562,786.923095703125,789.3406372070312
339,791.7582397460938,794.5787353515625,791.3552856445312,793.7728881835938
340,792.5640869140625,793.3699340820312,794.981689453125,799.010986328125
341,796.996337890625,791.7582397460938,792.5640869140625,803.4432373046875
342,796.996337890625,788.937744140625,788.937744140625,796.5933837890625
343,791.7582397460938,786.5201416015625,790.952392578125,792.5640869140625
344,791.7582397460938,790.952392578125,790.952392578125,797.3992919921875
345,797.3992919921875,785.3113403320312,791.7582397460938,798.2051391601562
346,798.2051391601562,786.1171875,794.5787353515625,803.040283203125
347,798.2051391601562,792.5640869140625,797.8021850585938,804.6520385742188
348,801.8314819335938,797.3992919921875,799.8168334960938,806.6666870117188
349,802.6373901367188,796.996337890625,799.4139404296875,811.5018310546875
350,798.6080322265625,791.7582397460938,798.2051391601562,806.2637329101562
351,796.5933837890625,790.1465454101562,799.010986328125,806.2637329101562
352,795.3846435546875,787.3259887695312,796.1904907226562,805.8607788085938
353,791.7582397460938,784.5054931640625,789.3406372070312,802.6373901367188
354,787.7289428710938,788.937744140625,792.967041015625,799.4139404296875
355,789.7435913085938,792.1611938476562,798.6080322265625,791.7582397460938
356,793.3699340820312,792.5640869140625,794.5787353515625,793.3699340820312
357,795.3846435546875,789.3406372070312,794.1758422851562,802.2344360351562
358,797.8021850585938,790.952392578125,803.4432373046875,803.040283203125
359,800.2197875976562,794.1758422851562,801.4285888671875,801.4285888671875
360,796.5933837890625,792.5640869140625,796.1904907226562,802.6373901367188
361,788.5347900390625,788.1318969726562,798.2051391601562,805.054931640625
362,786.923095703125,786.5201416015625,794.5787353515625,802.6373901367188
363,793.3699340820312,791.7582397460938,797.8021850585938,796.5933837890625
364,796.996337890625,794.981689453125,796.1904907226562,796.996337890625
365,795.3846435546875,794.1758422851562,791.3552856445312,803.040283203125
366,791.7582397460938,792.967041015625,800.6226806640625,796.996337890625
367,791.3552856445312,790.952392578125,800.6226806640625,793.7728881835938
368,796.996337890625,789.7435913085938,797.8021850585938,794.1758422851562
369,795.3846435546875,790.1465454101562,796.996337890625,791.3552856445312
370,794.1758422851562,788.5347900390625,794.5787353515625,798.2051391601562
371,794.981689453125,791.3552856445312,789.7435913085938,795.7875366210938
372,788.937744140625,789.3406372070312,784.1025390625,788.1318969726562
373,788.937744140625,790.952392578125,786.5201416015625,789.3406372070312
374,788.1318969726562,797.3992919921875,785.7142944335938,789.7435913085938
375,787.7289428710938,796.996337890625,787.7289428710938,783.6996459960938
376,793.7728881835938,791.3552856445312,790.5494384765625,791.7582397460938
377,796.5933837890625,793.7728881835938,792.1611938476562,805.4578857421875
378,794.981689453125,794.981689453125,794.981689453125,797.8021850585938
379,794.981689453125,796.5933837890625,793.7728881835938,788.937744140625
380,789.7435913085938,801.8314819335938,793.3699340820312,785.7142944335938
381,788.937744140625,796.996337890625,791.7582397460938,785.3113403320312
382,791.3552856445312,798.6080322265625,790.952392578125,790.952392578125
383,787.7289428710938,791.3552856445312,792.1611938476562,791.7582397460938
384,791.3552856445312,784.908447265625,792.5640869140625,796.5933837890625
385,798.6080322265625,797.8021850585938,795.7875366210938,800.2197875976562
386,797.3992919921875,800.6226806640625,795.7875366210938,801.025634765625
387,794.5787353515625,799.8168334960938,794.1758422851562,801.4285888671875
388,795.7875366210938,797.3992919921875,788.5347900390625,805.4578857421875
389,799.4139404296875,796.1904907226562,791.7582397460938,800.2197875976562
390,798.6080322265625,791.7582397460938,796.5933837890625,797.3992919921875
391,794.5787353515625,786.1171875,796.5933837890625,798.2051391601562
392,792.967041015625,789.7435913085938,798.6080322265625,801.025634765625
393,796.996337890625,794.981689453125,798.6080322265625,809.084228515625
394,799.4139404296875,791.3552856445312,796.5933837890625,807.87548828125
395,799.4139404296875,795.7875366210938,796.5933837890625,803.8461303710938
396,804.2490844726562,804.2490844726562,796.5933837890625,808.2783813476562
397,810.2930297851562,803.4432373046875,796.5933837890625,805.8607788085938
398,808.6813354492188,801.4285888671875,795.7875366210938,799.010986328125
399,804.2490844726562,801.8314819335938,796.996337890625,808.6813354492188
400,800.2197875976562,798.2051391601562,800.6226806640625,808.6813354492188
401,797.3992919921875,793.3699340820312,798.2051391601562,796.1904907226562
402,805.054931640625,789.3406372070312,794.981689453125,801.025634765625
403,815.1282348632812,788.1318969726562,792.1611938476562,811.90478515625
404,809.89013671875,799.8168334960938,793.3699340820312,797.3992919921875
405,795.7875366210938,800.6226806640625,794.5787353515625,781.6849975585938
406,793.3699340820312,793.3699340820312,789.7435913085938,782.087890625
407,795.7875366210938,797.3992919921875,790.1465454101562,786.5201416015625
408,794.981689453125,797.3992919921875,792.5640869140625,788.937744140625
409,790.1465454101562,794.1758422851562,793.7728881835938,787.3259887695312
410,786.1171875,788.937744140625,792.5640869140625,788.1318969726562
411,782.893798828125,787.7289428710938,791.3552856445312,790.952392578125
412,785.3113403320312,789.7435913085938,788.937744140625,787.7289428710938
413,785.7142944335938,785.7142944335938,792.5640869140625,782.4908447265625
414,781.6849975585938,788.937744140625,790.952392578125,783.2966918945312
415,785.7142944335938,791.3552856445312,789.3406372070312,786.923095703125
416,785.7142944335938,787.7289428710938,796.5933837890625,787.3259887695312
417,783.6996459960938,791.3552856445312,798.2051391601562,788.1318969726562
418,784.1025390625,795.3846435546875,793.3699340820312,790.1465454101562
419,788.937744140625,795.3846435546875,792.967041015625,790.952392578125
420,796.5933837890625,798.2051391601562,797.3992919921875,790.5494384765625
421,801.025634765625,795.7875366210938,796.996337890625,790.5494384765625
422,804.2490844726562,793.3699340820312,788.5347900390625,796.5933837890625
423,799.8168334960938,790.1465454101562,790.1465454101562,801.4285888671875
424,799.010986328125,786.923095703125,792.967041015625,795.3846435546875
425,800.2197875976562,793.3699340820312,791.3552856445312,793.3699340820312
426,798.2051391601562,796.1904907226562,794.5787353515625,800.6226806640625
427,790.952392578125,787.7289428710938,793.7728881835938,795.7875366210938
428,788.1318969726562,781.2820434570312,790.1465454101562,788.1318969726562
429,793.7728881835938,790.5494384765625,794.5787353515625,792.967041015625
430,790.1465454101562,795.7875366210938,792.5640869140625,796.1904907226562
431,785.7142944335938,793.3699340820312,790.1465454101562,789.3406372070312
432,783.6996459960938,794.981689453125,791.7582397460938,786.1171875
433,782.4908447265625,791.3552856445312,791.3552856445312,790.1465454101562
434,785.7142944335938,787.3259887695312,793.7728881835938,787.3259887695312
435,785.7142944335938,789.3406372070312,794.981689453125,780.879150390625
436,782.4908447265625,789.7435913085938,790.5494384765625,778.8644409179688
437,782.893798828125,788.1318969726562,785.3113403320312,781.2820434570312
438,788.937744140625,790.1465454101562,789.7435913085938,792.1611938476562
439,790.952392578125,799.010986328125,797.8021850585938,791.7582397460938
440,792.967041015625,799.4139404296875,797.3992919921875,796.1904907226562
441,795.7875366210938,796.1904907226562,798.2051391601562,804.2490844726562
442,801.025634765625,799.4139404296875,801.4285888671875,804.2490844726562
443,799.8168334960938,799.4139404296875,799.8168334960938,801.8314819335938
444,793.7728881835938,794.1758422851562,799.8168334960938,801.4285888671875
445,791.7582397460938,792.1611938476562,792.967041015625,802.2344360351562
446,792.967041015625,794.981689453125,786.1171875,796.996337890625
447,798.6080322265625,797.3992919921875,791.7582397460938,799.8168334960938
448,799.8168334960938,794.5787353515625,794.1758422851562,802.6373901367188
449,801.8314819335938,794.981689453125,792.967041015625,805.054931640625
450,799.4139404296875,799.4139404296875,794.981689453125,803.4432373046875
451,792.1611938476562,801.8314819335938,792.1611938476562,792.967041015625
452,788.937744140625,799.4139404296875,787.7289428710938,789.7435913085938
453,793.7728881835938,794.5787353515625,785.7142944335938,788.937744140625
454,800.2197875976562,790.952392578125,790.5494384765625,787.3259887695312
455,802.2344360351562,794.1758422851562,799.8168334960938,791.3552856445312
456,802.6373901367188,796.5933837890625,794.1758422851562,790.952392578125
457,803.040283203125,791.7582397460938,789.3406372070312,792.1611938476562
458,803.8461303710938,792.5640869140625,793.3699340820312,795.7875366210938
459,799.010986328125,799.010986328125,794.981689453125,786.5201416015625
460,796.5933837890625,796.996337890625,792.5640869140625,781.2820434570312
461,793.7728881835938,786.5201416015625,790.1465454101562,789.3406372070312
462,787.7289428710938,788.5347900390625,793.7728881835938,790.5494384765625
463,785.7142944335938,792.1611938476562,799.8168334960938,794.5787353515625
464,786.923095703125,792.5640869140625,800.2197875976562,802.2344360351562
465,785.3113403320312,789.3406372070312,794.5787353515625,795.7875366210938
466,782.4908447265625,786.1171875,796.5933837890625,788.937744140625
467,781.2820434570312,788.937744140625,797.8021850585938,794.981689453125
468,780.0732421875,792.1611938476562,786.1171875,792.5640869140625
469,781.6849975585938,794.1758422851562,784.908447265625,792.967041015625
470,792.5640869140625,794.1758422851562,792.1611938476562,797.3992919921875
471,792.5640869140625,789.7435913085938,790.5494384765625,794.1758422851562
472,791.3552856445312,788.937744140625,790.1465454101562,801.4285888671875
473,794.5787353515625,791.3552856445312,794.5787353515625,804.2490844726562
474,793.3699340820312,786.923095703125,795.3846435546875,792.1611938476562
475,794.5787353515625,785.7142944335938,793.3699340820312,789.3406372070312
476,794.1758422851562,793.7728881835938,791.3552856445312,790.1465454101562
477,794.5787353515625,793.3699340820312,789.7435913085938,790.1465454101562
478,801.4285888671875,791.7582397460938,791.3552856445312,798.6080322265625
479,804.6520385742188,794.981689453125,790.952392578125,794.1758422851562
480,805.054931640625,798.6080322265625,791.7582397460938,790.952392578125
481,802.6373901367188,794.981689453125,793.3699340820312,796.996337890625
482,797.8021850585938,793.3699340820312,793.3699340820312,792.5640869140625
483,795.7875366210938,794.1758422851562,793.3699340820312,796.5933837890625
484,799.010986328125,787.7289428710938,791.7582397460938,809.89013671875
485,792.967041015625,792.5640869140625,793.3699340820312,798.2051391601562
486,786.5201416015625,791.7582397460938,790.952392578125,792.5640869140625
487,790.5494384765625,790.5494384765625,786.923095703125,800.6226806640625
488,788.937744140625,791.3552856445312,791.7582397460938,794.5787353515625
489,790.1465454101562,793.3699340820312,792.1611938476562,790.5494384765625
490,792.967041015625,796.1904907226562,790.5494384765625,792.967041015625
491,793.3699340820312,793.7728881835938,791.3552856445312,792.5640869140625
492,792.1611938476562,789.7435913085938,788.1318969726562,792.967041015625
493,789.3406372070312,788.937744140625,790.1465454101562,792.5640869140625
494,789.7435913085938,787.7289428710938,791.7582397460938,786.923095703125
495,790.1465454101562,786.1171875,790.1465454101562,794.5787353515625
496,787.7289428710938,785.7142944335938,795.7875366210938,794.981689453125
497,787.3259887695312,788.1318969726562,794.5787353515625,781.2820434570312
498,789.3406372070312,784.1025390625,784.5054931640625,781.6849975585938
499,786.923095703125,778.8644409179688,786.1171875,784.1025390625
500,790.952392578125,786.1171875,792.1611938476562,792.1611938476562
501,793.3699340820312,792.967041015625,790.5494384765625,797.8021850585938
502,790.1465454101562,788.5347900390625,788.937744140625,788.5347900390625
503,790.952392578125,790.5494384765625,788.5347900390625,788.1318969726562
504,789.7435913085938,797.3992919921875,788.5347900390625,792.1611938476562
505,792.1611938476562,797.3992919921875,790.1465454101562,790.5494384765625
506,794.1758422851562,794.1758422851562,792.967041015625,798.6080322265625
507,792.1611938476562,783.2966918945312,791.3552856445312,805.4578857421875
508,788.937744140625,784.908447265625,793.3699340820312,799.010986328125
509,791.7582397460938,791.7582397460938,800.2197875976562,800.2197875976562
510,796.996337890625,792.1611938476562,797.3992919921875,805.054931640625
511,796.5933837890625,796.996337890625,794.1758422851562,805.4578857421875
512,793.3699340820312,800.2197875976562,792.5640869140625,801.8314819335938
513,792.5640869140625,795.7875366210938,792.1611938476562,790.5494384765625
514,796.5933837890625,796.5933837890625,793.3699340820312,785.3113403320312
515,797.8021850585938,797.8021850585938,791.3552856445312,782.893798828125
516,795.3846435546875,793.7728881835938,791.3552856445312,780.0732421875
517,794.1758422851562,789.7435913085938,797.3992919921875,781.2820434570312
518,796.5933837890625,792.1611938476562,796.1904907226562,787.3259887695312
519,793.3699340820312,796.5933837890625,791.3552856445312,785.7142944335938
520,787.3259887695312,792.967041015625,792.1611938476562,777.6557006835938
521,786.1171875,786.1171875,790.5494384765625,783.6996459960938
522,789.7435913085938,784.1025390625,792.967041015625,791.3552856445312
523,788.1318969726562,793.3699340820312,791.7582397460938,790.1465454101562
524,786.923095703125,796.5933837890625,790.5494384765625,791.3552856445312
525,790.952392578125,796.1904907226562,796.1904907226562,794.5787353515625
526,794.5787353515625,800.2197875976562,796.5933837890625,803.040283203125
527,791.7582397460938,796.1904907226562,793.3699340820312,798.2051391601562
528,790.1465454101562,791.7582397460938,788.1318969726562,788.1318969726562
529,790.5494384765625,789.7435913085938,789.3406372070312,792.1611938476562
530,789.7435913085938,794.5787353515625,796.1904907226562,797.3992919921875
531,793.7728881835938,799.4139404296875,799.4139404296875,794.981689453125
532,794.1758422851562,793.7728881835938,799.010986328125,793.7728881835938
533,792.1611938476562,786.1171875,794.981689453125,790.5494384765625
534,788.937744140625,786.923095703125,792.1611938476562,791.7582397460938
535,786.5201416015625,796.5933837890625,796.1904907226562,792.5640869140625
536,789.3406372070312,798.6080322265625,799.4139404296875,796.5933837890625
537,787.3259887695312,792.5640869140625,801.4285888671875,794.981689453125
538,782.4908447265625,795.3846435546875,802.2344360351562,786.5201416015625
539,782.087890625,799.010986328125,802.6373901367188,785.7142944335938
540,788.937744140625,796.996337890625,799.010986328125,784.1025390625
541,792.5640869140625,796.1904907226562,794.5787353515625,784.5054931640625
542,794.981689453125,795.7875366210938,796.1904907226562,783.2966918945312
543,797.3992919921875,789.3406372070312,797.8021850585938,782.087890625
544,791.3552856445312,787.7289428710938,796.996337890625,784.1025390625
545,794.1758422851562,790.5494384765625,795.3846435546875,790.952392578125
546,796.5933837890625,791.3552856445312,793.7728881835938,791.7582397460938
547,792.967041015625,789.7435913085938,794.981689453125,787.7289428710938
548,796.5933837890625,794.1758422851562,797.3992919921875,791.3552856445312
549,801.025634765625,801.025634765625,792.1611938476562,790.1465454101562
550,798.2051391601562,800.6226806640625,788.1318969726562,787.3259887695312
551,795.7875366210938,799.010986328125,790.1465454101562,788.1318969726562
552,794.1758422851562,797.3992919921875,787.7289428710938,792.1611938476562
553,792.5640869140625,795.3846435546875,785.3113403320312,792.1611938476562
554,796.996337890625,794.1758422851562,793.3699340820312,794.5787353515625
555,801.8314819335938,795.3846435546875,795.3846435546875,794.1758422851562
556,800.2197875976562,796.5933837890625,791.7582397460938,796.5933837890625
557,803.4432373046875,795.3846435546875,790.1465454101562,806.6666870117188
558,803.4432373046875,796.5933837890625,794.5787353515625,797.3992919921875
559,796.5933837890625,799.4139404296875,797.8021850585938,790.952392578125
560,796.5933837890625,796.996337890625,796.996337890625,797.3992919921875
561,792.5640869140625,790.1465454101562,794.1758422851562,790.5494384765625
562,790.952392578125,792.5640869140625,794.981689453125,790.1465454101562
563,792.1611938476562,799.010986328125,796.996337890625,798.2051391601562
564,792.1611938476562,801.8314819335938,793.3699340820312,794.981689453125
565,793.3699340820312,798.2051391601562,794.1758422851562,791.7582397460938
566,790.1465454101562,791.7582397460938,795.3846435546875,797.8021850585938
567,789.3406372070312,794.981689453125,792.967041015625,794.5787353515625
568,794.981689453125,801.025634765625,800.2197875976562,796.5933837890625
569,796.996337890625,802.2344360351562,803.8461303710938,797.8021850585938
570,794.981689453125,799.4139404296875,802.6373901367188,791.3552856445312
571,796.1904907226562,794.981689453125,803.4432373046875,795.7875366210938
572,797.3992919921875,793.3699340820312,803.8461303710938,800.2197875976562
573,793.3699340820312,792.5640869140625,802.6373901367188,793.3699340820312
574,787.3259887695312,790.5494384765625,799.8168334960938,788.1318969726562
575,786.1171875,787.7289428710938,799.4139404296875,798.2051391601562
576,789.3406372070312,791.3552856445312,799.010986328125,799.010986328125
577,789.7435913085938,793.7728881835938,798.6080322265625,797.3992919921875
578,791.7582397460938,793.7728881835938,797.8021850585938,805.054931640625
579,792.1611938476562,792.967041015625,794.1758422851562,799.010986328125
580,789.7435913085938,786.923095703125,791.3552856445312,792.967041015625
581,787.3259887695312,788.5347900390625,792.1611938476562,788.1318969726562
582,792.1611938476562,796.5933837890625,796.5933837890625,792.967041015625
583,799.010986328125,795.7875366210938,798.6080322265625,797.3992919921875
584,798.6080322265625,792.1611938476562,798.6080322265625,795.3846435546875
585,792.5640869140625,792.1611938476562,798.2051391601562,794.1758422851562
586,787.3259887695312,796.5933837890625,796.5933837890625,789.7435913085938
587,790.1465454101562,795.3846435546875,794.981689453125,787.3259887695312
588,785.7142944335938,786.1171875,796.1904907226562,791.3552856445312
589,782.4908447265625,788.1318969726562,793.3699340820312,793.7728881835938
590,790.952392578125,797.8021850585938,794.5787353515625,792.5640869140625
591,796.996337890625,798.6080322265625,795.3846435546875,789.3406372070312
592,799.8168334960938,793.7728881835938,791.3552856445312,795.3846435546875
593,807.87548828125,792.967041015625,792.967041015625,806.2637329101562
594,806.6666870117188,795.3846435546875,794.1758422851562,797.8021850585938
595,795.3846435546875,795.3846435546875,798.2051391601562,784.908447265625
596,791.7582397460938,794.981689453125,795.7875366210938,783.6996459960938
597,791.7582397460938,791.7582397460938,794.981689453125,782.893798828125
598,789.7435913085938,790.5494384765625,792.967041015625,784.1025390625
599,790.1465454101562,795.7875366210938,790.1465454101562,792.967041015625
600,788.937744140625,798.6080322265625,789.3406372070312,790.1465454101562
601,789.3406372070312,793.7728881835938,788.5347900390625,782.087890625
602,792.967041015625,792.5640869140625,788.1318969726562,789.3406372070312
603,786.5201416015625,794.1758422851562,790.952392578125,790.952392578125
604,782.893798828125,793.3699340820312,792.5640869140625,783.6996459960938
605,785.3113403320312,792.967041015625,790.5494384765625,778.05859375
606,791.3552856445312,788.5347900390625,789.3406372070312,783.2966918945312
607,793.3699340820312,788.5347900390625,788.937744140625,789.3406372070312
608,787.3259887695312,796.5933837890625,791.7582397460938,776.8497924804688
609,785.7142944335938,799.8168334960938,789.7435913085938,779.6703491210938
610,786.923095703125,793.3699340820312,786.1171875,783.6996459960938
611,785.3113403320312,788.1318969726562,790.1465454101562,782.087890625
612,790.952392578125,790.5494384765625,794.1758422851562,788.1318969726562
613,800.6226806640625,794.1758422851562,791.3552856445312,799.4139404296875
614,800.6226806640625,792.1611938476562,790.1465454101562,807.4725341796875
615,793.7728881835938,790.1465454101562,792.1611938476562,799.010986328125
616,794.1758422851562,787.7289428710938,794.5787353515625,793.3699340820312
617,797.8021850585938,784.908447265625,795.3846435546875,791.7582397460938
618,800.2197875976562,790.1465454101562,796.5933837890625,806.6666870117188
619,799.010986328125,790.5494384765625,800.2197875976562,811.098876953125
620,792.967041015625,794.1758422851562,796.996337890625,797.3992919921875
621,786.5201416015625,796.996337890625,791.7582397460938,792.5640869140625
622,791.3552856445312,792.5640869140625,796.996337890625,797.8021850585938
623,795.7875366210938,788.5347900390625,798.6080322265625,801.025634765625
624,796.1904907226562,786.1171875,794.1758422851562,799.4139404296875
625,795.3846435546875,785.7142944335938,796.1904907226562,798.2051391601562
626,793.3699340820312,782.893798828125,798.6080322265625,798.6080322265625
627,787.3259887695312,779.2673950195312,793.3699340820312,794.1758422851562
628,790.1465454101562,788.937744140625,793.7728881835938,791.3552856445312
629,795.7875366210938,795.3846435546875,796.5933837890625,794.981689453125
630,792.5640869140625,792.967041015625,796.1904907226562,795.7875366210938
631,790.952392578125,796.996337890625,794.1758422851562,789.7435913085938
632,789.3406372070312,798.6080322265625,792.967041015625,785.3113403320312
633,786.5201416015625,791.7582397460938,793.7728881835938,784.908447265625
634,785.7142944335938,790.952392578125,792.967041015625,789.3406372070312
635,789.3406372070312,791.3552856445312,790.952392578125,794.1758422851562
636,791.7582397460938,792.967041015625,790.5494384765625,796.1904907226562
637,792.1611938476562,800.2197875976562,792.1611938476562,797.3992919921875
638,794.5787353515625,797.8021850585938,794.5787353515625,794.981689453125
639,796.1904907226562,790.5494384765625,794.981689453125,794.5787353515625
640,793.7728881835938,796.996337890625,789.3406372070312,789.3406372070312
641,793.7728881835938,798.6080322265625,786.923095703125,787.3259887695312
642,798.6080322265625,796.1904907226562,793.3699340820312,794.5787353515625
643,794.1758422851562,800.2197875976562,796.5933837890625,795.7875366210938
644,791.7582397460938,801.8314819335938,792.967041015625,796.1904907226562
645,796.1904907226562,801.4285888671875,793.3699340820312,801.025634765625
646,789.3406372070312,791.7582397460938,795.3846435546875,792.967041015625
647,787.3259887695312,789.7435913085938,793.7728881835938,784.1025390625
648,795.3846435546875,796.1904907226562,794.1758422851562,788.1318969726562
649,793.7728881835938,794.1758422851562,792.967041015625,793.3699340820312
650,792.967041015625,792.967041015625,792.1611938476562,793.7728881835938
651,792.5640869140625,790.952392578125,790.1465454101562,787.3259887695312
652,789.3406372070312,788.5347900390625,787.3259887695312,786.5201416015625
653,786.5201416015625,787.7289428710938,790.5494384765625,794.1758422851562
654,786.1171875,787.3259887695312,790.1465454101562,786.5201416015625
655,791.7582397460938,795.7875366210938,793.3699340820312,787.7289428710938
656,790.952392578125,794.5787353515625,799.010986328125,788.5347900390625
657,791.3552856445312,789.3406372070312,796.1904907226562,783.6996459960938
658,796.996337890625,792.5640869140625,794.981689453125,788.1318969726562
659,797.8021850585938,791.3552856445312,794.981689453125,786.923095703125
660,799.010986328125,789.7435913085938,791.7582397460938,782.893798828125
661,794.981689453125,789.3406372070312,790.952392578125,780.879150390625
662,792.5640869140625,782.4908447265625,790.1465454101562,790.1465454101562
663,791.3552856445312,784.908447265625,789.7435913085938,794.1758422851562
664,791.3552856445312,789.7435913085938,792.967041015625,801.025634765625
665,790.1465454101562,789.7435913085938,792.1611938476562,799.8168334960938
666,784.5054931640625,789.7435913085938,789.3406372070312,784.5054931640625
667,782.893798828125,792.967041015625,789.3406372070312,789.3406372070312
668,784.1025390625,794.5787353515625,794.1758422851562,798.2051391601562
669,782.087890625,792.1611938476562,800.6226806640625,796.996337890625
670,785.3113403320312,788.5347900390625,794.981689453125,796.996337890625
671,786.5201416015625,792.5640869140625,790.1465454101562,791.7582397460938
672,786.1171875,794.981689453125,791.3552856445312,787.7289428710938
673,790.5494384765625,793.7728881835938,792.5640869140625,786.923095703125
674,790.952392578125,790.952392578125,794.5787353515625,784.1025390625
675,791.3552856445312,789.7435913085938,790.952392578125,784.1025390625
676,786.5201416015625,788.1318969726562,789.3406372070312,782.4908447265625
677,778.8644409179688,794.5787353515625,796.5933837890625,780.879150390625
678,780.879150390625,792.1611938476562,797.3992919921875,788.1318969726562
679,786.1171875,792.1611938476562,798.2051391601562,790.5494384765625
680,784.908447265625,796.996337890625,800.2197875976562,785.3113403320312
681,783.6996459960938,794.5787353515625,796.1904907226562,784.1025390625
682,786.923095703125,796.1904907226562,797.3992919921875,780.879150390625
683,785.7142944335938,797.3992919921875,796.996337890625,786.1171875
684,786.1171875,797.8021850585938,793.7728881835938,796.5933837890625
685,784.908447265625,795.7875366210938,796.996337890625,792.967041015625
686,786.5201416015625,789.3406372070312,795.3846435546875,793.7728881835938
687,793.3699340820312,790.5494384765625,790.5494384765625,798.2051391601562
688,798.6080322265625,792.1611938476562,794.5787353515625,800.2197875976562
689,805.054931640625,794.981689453125,799.8168334960938,799.8168334960938
690,798.6080322265625,792.5640869140625,796.1904907226562,792.5640869140625
691,790.952392578125,789.3406372070312,795.3846435546875,790.1465454101562
692,792.1611938476562,796.1904907226562,794.981689453125,790.5494384765625
693,795.3846435546875,800.2197875976562,792.967041015625,792.967041015625
694,797.3992919921875,799.010986328125,792.967041015625,794.1758422851562
695,797.8021850585938,792.967041015625,788.1318969726562,800.6226806640625
696,800.2197875976562,787.7289428710938,789.7435913085938,795.7875366210938
697,796.5933837890625,788.937744140625,790.952392578125,790.5494384765625
698,794.1758422851562,791.3552856445312,788.1318969726562,794.5787353515625
699,795.3846435546875,786.923095703125,786.1171875,800.2197875976562
700,790.952392578125,787.3259887695312,786.1171875,799.010986328125
701,788.937744140625,786.923095703125,792.1611938476562,789.3406372070312
702,792.1611938476562,787.7289428710938,794.5787353515625,794.5787353515625
703,789.7435913085938,791.7582397460938,791.3552856445312,792.967041015625
704,787.7289428710938,791.3552856445312,787.7289428710938,785.7142944335938
705,790.5494384765625,790.952392578125,788.1318969726562,789.7435913085938
706,790.1465454101562,790.1465454101562,790.952392578125,788.1318969726562
707,791.7582397460938,793.3699340820312,788.5347900390625,791.7582397460938
708,791.7582397460938,795.3846435546875,788.5347900390625,795.3846435546875
709,790.1465454101562,793.3699340820312,787.7289428710938,790.5494384765625
710,795.7875366210938,795.3846435546875,785.3113403320312,790.1465454101562
711,798.2051391601562,796.5933837890625,789.3406372070312,790.5494384765625
712,793.7728881835938,796.1904907226562,797.3992919921875,794.1758422851562
713,799.8168334960938,788.937744140625,799.8168334960938,797.8021850585938
714,808.6813354492188,784.908447265625,795.7875366210938,807.069580078125
715,805.054931640625,792.1611938476562,794.981689453125,804.6520385742188
716,801.025634765625,792.5640869140625,795.7875366210938,786.5201416015625
717,800.2197875976562,790.5494384765625,789.3406372070312,792.1611938476562
718,797.3992919921875,793.7728881835938,794.1758422851562,796.5933837890625
719,795.3846435546875,793.3699340820312,797.3992919921875,786.1171875
720,799.010986328125,792.1611938476562,794.1758422851562,788.5347900390625
721,794.981689453125,798.6080322265625,792.967041015625,796.5933837890625
722,795.3846435546875,800.2197875976562,792.967041015625,796.996337890625
723,798.2051391601562,797.3992919921875,796.1904907226562,799.4139404296875
724,794.981689453125,800.2197875976562,798.2051391601562,795.3846435546875
725,797.3992919921875,798.6080322265625,796.5933837890625,794.1758422851562
726,800.2197875976562,789.7435913085938,793.7728881835938,804.2490844726562
727,794.1758422851562,787.7289428710938,791.7582397460938,798.6080322265625
728,793.3699340820312,792.967041015625,784.908447265625,792.967041015625
729,795.3846435546875,795.7875366210938,785.7142944335938,801.8314819335938
730,797.3992919921875,796.1904907226562,790.5494384765625,802.6373901367188
731,798.6080322265625,796.1904907226562,792.967041015625,798.6080322265625
732,794.981689453125,793.7728881835938,796.1904907226562,800.2197875976562
733,795.3846435546875,782.4908447265625,797.8021850585938,801.4285888671875
734,791.3552856445312,785.3113403320312,796.5933837890625,796.1904907226562
735,788.5347900390625,799.010986328125,794.1758422851562,790.5494384765625
736,796.1904907226562,802.6373901367188,797.3992919921875,793.3699340820312
737,797.8021850585938,799.010986328125,798.6080322265625,798.2051391601562
738,788.1318969726562,797.3992919921875,794.981689453125,794.5787353515625
739,784.1025390625,794.5787353515625,790.5494384765625,789.3406372070312
740,792.5640869140625,790.952392578125,790.5494384765625,794.981689453125
741,799.8168334960938,791.7582397460938,793.3699340820312,796.1904907226562
742,796.1904907226562,792.5640869140625,794.5787353515625,798.6080322265625
743,790.5494384765625,793.3699340820312,792.5640869140625,797.8021850585938
744,797.3992919921875,795.3846435546875,794.5787353515625,797.3992919921875
745,794.981689453125,794.5787353515625,798.2051391601562,800.2197875976562
746,796.996337890625,797.8021850585938,796.996337890625,798.2051391601562
747,797.8021850585938,802.6373901367188,796.996337890625,795.3846435546875
748,789.7435913085938,796.1904907226562,796.1904907226562,794.5787353515625
749,795.3846435546875,793.3699340820312,796.5933837890625,799.010986328125
750,799.8168334960938,792.5640869140625,800.6226806640625,799.010986328125
751,800.6226806640625,794.1758422851562,801.8314819335938,799.010986328125
752,790.952392578125,796.5933837890625,795.7875366210938,793.3699340820312
753,786.1171875,794.981689453125,794.981689453125,794.1758422851562
754,788.937744140625,792.1611938476562,798.6080322265625,792.967041015625
755,784.1025390625,790.952392578125,798.2051391601562,785.7142944335938
756,787.7289428710938,786.5201416015625,796.996337890625,784.908447265625
757,789.3406372070312,788.1318969726562,797.8021850585938,792.1611938476562
758,781.6849975585938,794.1758422851562,794.981689453125,797.8021850585938
759,778.8644409179688,793.7728881835938,793.7728881835938,797.3992919921875
760,785.7142944335938,790.5494384765625,800.2197875976562,805.4578857421875
761,784.1025390625,788.1318969726562,799.8168334960938,806.6666870117188
762,780.879150390625,791.7582397460938,794.1758422851562,795.7875366210938
763,786.1171875,796.996337890625,796.5933837890625,795.3846435546875
764,789.3406372070312,798.2051391601562,796.1904907226562,796.996337890625
765,792.5640869140625,799.8168334960938,792.5640869140625,790.5494384765625
766,800.2197875976562,797.3992919921875,797.8021850585938,789.3406372070312
767,799.4139404296875,791.3552856445312,795.7875366210938,789.3406372070312
768,798.6080322265625,796.1904907226562,795.3846435546875,792.1611938476562
769,794.981689453125,800.6226806640625,796.1904907226562,791.3552856445312
770,790.1465454101562,797.3992919921875,793.3699340820312,782.087890625
771,788.1318969726562,790.1465454101562,791.3552856445312,777.6557006835938
772,791.3552856445312,790.5494384765625,789.7435913085938,783.6996459960938
773,789.3406372070312,794.981689453125,795.7875366210938,785.3113403320312
774,785.7142944335938,799.010986328125,798.2051391601562,781.2820434570312
775,789.7435913085938,801.4285888671875,789.3406372070312,785.3113403320312
776,790.5494384765625,799.8168334960938,788.1318969726562,782.893798828125
777,790.952392578125,796.996337890625,793.7728881835938,782.087890625
778,791.3552856445312,797.3992919921875,793.7728881835938,791.7582397460938
779,794.1758422851562,791.7582397460938,793.7728881835938,796.1904907226562
780,800.6226806640625,787.7289428710938,796.1904907226562,800.2197875976562
781,801.4285888671875,795.7875366210938,791.3552856445312,801.025634765625
782,790.1465454101562,791.7582397460938,788.937744140625,789.7435913085938
783,783.6996459960938,781.2820434570312,790.5494384765625,791.3552856445312
784,786.923095703125,781.2820434570312,788.1318969726562,792.1611938476562
785,786.1171875,790.5494384765625,792.1611938476562,784.5054931640625
786,786.5201416015625,800.6226806640625,798.2051391601562,785.3113403320312
787,790.1465454101562,799.010986328125,792.5640869140625,784.5054931640625
788,790.952392578125,794.5787353515625,789.7435913085938,776.0439453125
789,789.7435913085938,788.937744140625,788.1318969726562,772.8204956054688
790,786.1171875,791.3552856445312,783.6996459960938,775.2380981445312
791,785.7142944335938,798.6080322265625,784.1025390625,778.05859375
792,790.1465454101562,792.967041015625,787.3259887695312,782.087890625
793,794.981689453125,794.5787353515625,793.3699340820312,788.937744140625
794,798.2051391601562,801.025634765625,792.967041015625,792.967041015625
795,800.2197875976562,800.2197875976562,792.5640869140625,795.7875366210938
796,799.4139404296875,795.7875366210938,792.1611938476562,791.7582397460938
797,798.2051391601562,794.981689453125,794.981689453125,790.952392578125
798,797.3992919921875,796.1904907226562,796.5933837890625,799.4139404296875
799,795.3846435546875,797.3992919921875,789.7435913085938,796.1904907226562
800,792.1611938476562,804.2490844726562,794.5787353515625,790.5494384765625
801,793.7728881835938,801.025634765625,796.5933837890625,795.7875366210938
802,796.996337890625,796.1904907226562,790.5494384765625,796.1904907226562
803,789.7435913085938,795.7875366210938,791.3552856445312,788.937744140625
804,784.908447265625,786.5201416015625,788.5347900390625,790.1465454101562
805,792.1611938476562,788.1318969726562,790.1465454101562,802.2344360351562
806,796.996337890625,794.1758422851562,792.5640869140625,802.6373901367188
807,794.1758422851562,795.3846435546875,793.7728881835938,796.1904907226562
808,790.1465454101562,795.7875366210938,794.981689453125,794.5787353515625
809,788.937744140625,794.1758422851562,789.3406372070312,794.5787353515625
810,787.3259887695312,794.981689453125,787.7289428710938,799.010986328125
811,790.1465454101562,797.8021850585938,792.967041015625,792.967041015625
812,797.8021850585938,794.981689453125,799.010986328125,785.7142944335938
813,800.2197875976562,791.3552856445312,796.1904907226562,793.7728881835938
814,798.6080322265625,790.952392578125,788.937744140625,799.010986328125
815,792.967041015625,786.1171875,792.1611938476562,793.7728881835938
816,790.5494384765625,784.5054931640625,793.3699340820312,791.3552856445312
817,792.5640869140625,785.7142944335938,789.3406372070312,789.7435913085938
818,792.5640869140625,784.1025390625,788.937744140625,791.3552856445312
819,793.7728881835938,789.3406372070312,789.7435913085938,799.4139404296875
820,794.5787353515625,792.967041015625,790.5494384765625,793.7728881835938
821,795.7875366210938,792.5640869140625,793.7728881835938,793.7728881835938
822,800.6226806640625,796.5933837890625,793.7728881835938,799.8168334960938
823,801.8314819335938,798.2051391601562,796.5933837890625,796.996337890625
824,797.8021850585938,794.981689453125,795.3846435546875,796.1904907226562
825,798.2051391601562,792.1611938476562,793.7728881835938,795.3846435546875
826,799.010986328125,791.3552856445312,795.7875366210938,795.3846435546875
827,795.3846435546875,792.5640869140625,794.1758422851562,799.4139404296875
828,794.5787353515625,795.3846435546875,790.952392578125,800.6226806640625
829,792.5640869140625,788.1318969726562,789.3406372070312,802.6373901367188
830,788.5347900390625,789.7435913085938,791.3552856445312,804.2490844726562
831,787.7289428710938,799.010986328125,796.5933837890625,801.4285888671875
832,791.3552856445312,788.5347900390625,801.8314819335938,799.4139404296875
833,789.3406372070312,786.5201416015625,800.6226806640625,802.6373901367188
834,788.1318969726562,796.996337890625,800.6226806640625,799.010986328125
835,790.1465454101562,798.2051391601562,802.6373901367188,791.3552856445312
836,788.1318969726562,794.1758422851562,800.6226806640625,793.7728881835938
837,793.3699340820312,790.5494384765625,798.6080322265625,797.3992919921875
838,793.3699340820312,792.5640869140625,794.5787353515625,787.3259887695312
839,786.1171875,794.1758422851562,795.3846435546875,782.087890625
840,784.1025390625,792.1611938476562,796.1904907226562,789.7435913085938
841,789.7435913085938,789.3406372070312,794.5787353515625,788.5347900390625
842,792.5640869140625,789.7435913085938,796.5933837890625,792.5640869140625
843,791.3552856445312,795.3846435546875,794.5787353515625,791.7582397460938
844,794.981689453125,798.2051391601562,794.981689453125,787.3259887695312
845,796.5933837890625,791.3552856445312,796.996337890625,797.8021850585938
846,799.8168334960938,791.7582397460938,800.2197875976562,796.1904907226562
847,805.054931640625,798.6080322265625,799.4139404296875,788.1318969726562
848,807.069580078125,795.7875366210938,797.8021850585938,791.3552856445312
849,803.8461303710938,793.7728881835938,799.4139404296875,791.3552856445312
850,799.010986328125,797.8021850585938,793.7728881835938,786.923095703125
851,799.4139404296875,796.1904907226562,790.5494384765625,789.7435913085938
852,795.3846435546875,790.1465454101562,793.3699340820312,793.7728881835938
853,794.1758422851562,793.3699340820312,792.1611938476562,792.1611938476562
854,792.1611938476562,794.5787353515625,788.937744140625,792.5640869140625
855,788.937744140625,790.5494384765625,789.3406372070312,795.7875366210938
856,788.937744140625,788.937744140625,791.7582397460938,800.6226806640625
857,784.1025390625,792.1611938476562,794.981689453125,796.996337890625
858,785.7142944335938,798.2051391601562,792.1611938476562,794.5787353515625
859,795.7875366210938,790.5494384765625,788.5347900390625,799.4139404296875
860,793.7728881835938,784.908447265625,794.5787353515625,799.4139404296875
861,788.5347900390625,792.5640869140625,797.8021850585938,796.5933837890625
862,793.7728881835938,799.010986328125,792.5640869140625,798.2051391601562
863,793.7728881835938,796.5933837890625,792.1611938476562,800.6226806640625
864,796.5933837890625,790.952392578125,792.1611938476562,799.010986328125
865,796.1904907226562,790.952392578125,792.5640869140625,798.6080322265625
866,789.7435913085938,797.3992919921875,792.967041015625,795.7875366210938
867,788.1318969726562,794.5787353515625,786.5201416015625,793.3699340820312
868,793.7728881835938,789.3406372070312,786.1171875,804.2490844726562
869,803.4432373046875,793.7728881835938,791.7582397460938,808.2783813476562
870,804.6520385742188,792.1611938476562,793.3699340820312,800.2197875976562
871,794.1758422851562,790.5494384765625,795.7875366210938,795.7875366210938
872,794.1758422851562,792.1611938476562,794.981689453125,794.1758422851562
873,788.1318969726562,800.2197875976562,794.1758422851562,789.3406372070312
874,792.5640869140625,799.010986328125,793.3699340820312,791.3552856445312
875,792.5640869140625,794.981689453125,790.952392578125,796.5933837890625
876,785.7142944335938,796.996337890625,794.981689453125,792.5640869140625
877,783.6996459960938,796.1904907226562,794.981689453125,785.7142944335938
878,790.1465454101562,794.981689453125,791.3552856445312,780.4761962890625
879,791.7582397460938,798.2051391601562,788.1318969726562,785.3113403320312
880,792.967041015625,800.2197875976562,791.7582397460938,785.7142944335938
881,792.5640869140625,799.8168334960938,793.7728881835938,782.087890625
882,791.7582397460938,796.5933837890625,792.5640869140625,782.4908447265625
883,793.3699340820312,794.1758422851562,794.5787353515625,786.1171875
884,790.952392578125,790.1465454101562,792.967041015625,785.3113403320312
885,783.6996459960938,789.7435913085938,788.5347900390625,781.2820434570312
886,780.4761962890625,798.6080322265625,790.952392578125,783.2966918945312
887,780.0732421875,798.2051391601562,792.967041015625,786.5201416015625
888,782.087890625,796.1904907226562,790.952392578125,785.7142944335938
889,787.3259887695312,798.6080322265625,788.1318969726562,787.3259887695312
890,788.5347900390625,795.7875366210938,791.7582397460938,794.981689453125
891,787.7289428710938,792.967041015625,796.996337890625,791.3552856445312
892,788.1318969726562,793.3699340820312,794.981689453125,785.3113403320312
893,785.3113403320312,784.908447265625,792.1611938476562,785.7142944335938
894,782.087890625,788.1318969726562,793.7728881835938,792.1611938476562
895,781.6849975585938,795.3846435546875,793.3699340820312,793.3699340820312
896,789.7435913085938,800.2197875976562,793.3699340820312,792.967041015625
897,795.3846435546875,799.8168334960938,789.7435913085938,788.1318969726562
898,795.7875366210938,793.3699340820312,787.3259887695312,785.3113403320312
899,794.5787353515625,794.1758422851562,792.1611938476562,784.5054931640625
900,794.1758422851562,794.1758422851562,792.5640869140625,783.6996459960938
901,792.1611938476562,792.5640869140625,792.1611938476562,785.7142944335938
902,788.937744140625,790.1465454101562,790.5494384765625,787.3259887695312
903,791.3552856445312,788.5347900390625,790.5494384765625,786.5201416015625
904,792.5640869140625,794.1758422851562,790.5494384765625,783.6996459960938
905,784.1025390625,795.3846435546875,786.1171875,788.937744140625
906,783.2966918945312,789.3406372070312,785.3113403320312,792.1611938476562
907,784.1025390625,791.3552856445312,792.1611938476562,781.2820434570312
908,784.908447265625,792.1611938476562,796.1904907226562,783.2966918945312
909,785.7142944335938,789.3406372070312,792.1611938476562,790.1465454101562
910,783.2966918945312,794.1758422851562,792.5640869140625,788.1318969726562
911,786.5201416015625,799.4139404296875,797.3992919921875,790.952392578125
912,788.1318969726562,792.967041015625,795.7875366210938,793.3699340820312
913,788.5347900390625,792.967041015625,790.5494384765625,789.7435913085938
914,788.1318969726562,794.5787353515625,789.3406372070312,792.967041015625
915,787.3259887695312,789.7435913085938,787.7289428710938,790.1465454101562
916,787.7289428710938,791.7582397460938,785.7142944335938,778.8644409179688
917,792.1611938476562,792.967041015625,788.5347900390625,784.5054931640625
918,794.1758422851562,793.3699340820312,793.7728881835938,789.7435913085938
919,792.967041015625,796.5933837890625,800.6226806640625,786.5201416015625
920,788.937744140625,795.7875366210938,797.3992919921875,786.923095703125
921,786.923095703125,789.3406372070312,795.3846435546875,791.3552856445312
922,786.923095703125,787.3259887695312,795.3846435546875,791.3552856445312
923,788.937744140625,787.7289428710938,794.5787353515625,788.937744140625
924,791.3552856445312,784.5054931640625,792.967041015625,790.1465454101562
925,789.3406372070312,789.7435913085938,791.7582397460938,790.1465454101562
926,784.908447265625,794.1758422851562,787.7289428710938,791.3552856445312
927,785.3113403320312,791.7582397460938,785.7142944335938,790.1465454101562
928,792.5640869140625,792.5640869140625,792.967041015625,792.1611938476562
929,793.7728881835938,788.1318969726562,794.5787353515625,800.6226806640625
930,792.1611938476562,790.5494384765625,796.996337890625,798.2051391601562
931,790.5494384765625,797.3992919921875,795.3846435546875,794.1758422851562
932,791.7582397460938,799.8168334960938,797.3992919921875,796.996337890625
933,794.1758422851562,799.8168334960938,802.6373901367188,794.5787353515625
934,790.952392578125,788.937744140625,798.2051391601562,791.3552856445312
935,784.5054931640625,781.6849975585938,793.7728881835938,791.7582397460938
936,784.908447265625,786.1171875,794.981689453125,794.5787353515625
937,790.1465454101562,794.1758422851562,789.3406372070312,792.1611938476562
938,788.1318969726562,794.1758422851562,785.3113403320312,791.7582397460938
939,783.6996459960938,794.5787353515625,785.7142944335938,794.5787353515625
940,784.908447265625,794.5787353515625,786.5201416015625,797.3992919921875
941,784.908447265625,792.1611938476562,789.3406372070312,799.4139404296875
942,791.3552856445312,796.5933837890625,786.5201416015625,799.4139404296875
943,794.5787353515625,795.7875366210938,785.7142944335938,796.1904907226562
944,790.1465454101562,789.3406372070312,787.7289428710938,794.1758422851562
945,787.3259887695312,786.923095703125,787.7289428710938,791.3552856445312
946,788.1318969726562,794.5787353515625,789.3406372070312,792.967041015625
947,790.952392578125,801.025634765625,787.3259887695312,793.3699340820312
948,792.1611938476562,801.025634765625,789.7435913085938,786.5201416015625
949,792.1611938476562,800.2197875976562,791.7582397460938,788.1318969726562
950,788.1318969726562,799.8168334960938,791.3552856445312,788.5347900390625
951,789.3406372070312,799.010986328125,791.3552856445312,786.5201416015625
952,789.7435913085938,794.1758422851562,790.952392578125,792.1611938476562
953,785.3113403320312,789.7435913085938,793.7728881835938,794.1758422851562
954,785.3113403320312,785.3113403320312,790.952392578125,780.879150390625
955,786.5201416015625,786.1171875,788.937744140625,777.6557006835938
956,790.952392578125,787.3259887695312,791.3552856445312,785.3113403320312
957,788.937744140625,789.3406372070312,790.952392578125,786.923095703125
958,784.908447265625,800.2197875976562,794.1758422851562,791.3552856445312
959,791.7582397460938,801.4285888671875,794.981689453125,797.3992919921875
960,793.3699340820312,797.8021850585938,796.1904907226562,792.1611938476562
961,788.5347900390625,799.8168334960938,797.8021850585938,790.5494384765625
962,791.3552856445312,799.010986328125,793.7728881835938,794.981689453125
963,794.981689453125,794.981689453125,792.967041015625,798.2051391601562
964,794.5787353515625,794.981689453125,795.3846435546875,796.1904907226562
965,787.3259887695312,786.923095703125,794.1758422851562,788.1318969726562
966,786.923095703125,781.2820434570312,797.8021850585938,791.7582397460938
967,791.7582397460938,788.937744140625,799.8168334960938,793.7728881835938
968,790.5494384765625,786.923095703125,793.7728881835938,792.1611938476562
969,788.937744140625,787.3259887695312,788.5347900390625,790.952392578125
970,786.923095703125,794.1758422851562,788.5347900390625,790.952392578125
971,783.2966918945312,792.5640869140625,794.981689453125,795.7875366210938
972,784.1025390625,794.981689453125,797.3992919921875,795.7875366210938
973,789.3406372070312,796.996337890625,796.1904907226562,793.7728881835938
974,794.1758422851562,796.1904907226562,794.1758422851562,791.3552856445312
975,791.3552856445312,793.7728881835938,794.981689453125,795.7875366210938
976,787.7289428710938,788.937744140625,799.010986328125,794.1758422851562
977,792.1611938476562,788.5347900390625,796.5933837890625,796.996337890625
978,791.3552856445312,787.3259887695312,788.937744140625,801.4285888671875
979,793.7728881835938,786.923095703125,790.1465454101562,799.010986328125
980,791.7582397460938,785.7142944335938,786.923095703125,801.025634765625
981,792.967041015625,793.7728881835938,784.5054931640625,800.6226806640625
982,791.3552856445312,799.010986328125,786.5201416015625,791.3552856445312
983,785.3113403320312,796.1904907226562,790.952392578125,790.1465454101562
984,796.5933837890625,796.996337890625,794.1758422851562,794.5787353515625
985,798.6080322265625,797.8021850585938,788.937744140625,792.967041015625
986,792.5640869140625,794.1758422851562,787.7289428710938,798.2051391601562
987,793.7728881835938,792.5640869140625,796.1904907226562,803.040283203125
988,792.1611938476562,801.8314819335938,799.8168334960938,794.981689453125
989,793.7728881835938,801.4285888671875,794.981689453125,800.2197875976562
990,801.8314819335938,794.5787353515625,800.6226806640625,814.3223266601562
991,797.3992919921875,794.1758422851562,804.6520385742188,805.8607788085938
992,792.5640869140625,791.7582397460938,799.8168334960938,794.981689453125
993,794.981689453125,786.5201416015625,799.8168334960938,796.1904907226562
994,791.3552856445312,788.937744140625,801.025634765625,793.7728881835938
995,792.967041015625,794.981689453125,798.2051391601562,792.967041015625
996,792.1611938476562,793.7728881835938,797.3992919921875,791.3552856445312
997,790.952392578125,787.3259887695312,799.010986328125,796.996337890625
998,790.1465454101562,787.3259887695312,795.3846435546875,799.4139404296875
999,789.7435913085938,791.3552856445312,789.3406372070312,794.1758422851562
1000,792.1611938476562,790.5494384765625,794.5787353515625,790.5494384765625
1001,786.923095703125,784.5054931640625,796.1904907226562,789.3406372070312
1002,786.1171875,777.6557006835938,793.3699340820312,797.8021850585938
1003,786.923095703125,784.5054931640625,793.7728881835938,790.952392578125
1004,790.1465454101562,794.1758422851562,791.3552856445312,784.908447265625
1005,792.967041015625,790.5494384765625,792.967041015625,793.3699340820312
1006,794.1758422851562,787.7289428710938,795.3846435546875,794.981689453125
1007,798.6080322265625,792.5640869140625,791.3552856445312,789.3406372070312
1008,796.1904907226562,798.6080322265625,789.7435913085938,789.3406372070312
1009,801.025634765625,796.5933837890625,788.937744140625,792.967041015625
1010,807.87548828125,791.3552856445312,788.937744140625,792.5640869140625
1011,796.1904907226562,795.3846435546875,787.3259887695312,783.2966918945312
1012,788.1318969726562,797.3992919921875,786.1171875,776.8497924804688
1013,793.7728881835938,790.5494384765625,786.5201416015625,786.5201416015625
1014,795.3846435546875,791.3552856445312,788.1318969726562,793.3699340820312
1015,791.7582397460938,796.5933837890625,790.952392578125,788.1318969726562
1016,793.3699340820312,797.8021850585938,793.7728881835938,787.3259887695312
1017,790.952392578125,793.7728881835938,792.967041015625,787.7289428710938
1018,789.3406372070312,791.7582397460938,788.1318969726562,786.1171875
1019,793.3699340820312,792.967041015625,789.3406372070312,790.1465454101562
1020,793.7728881835938,790.952392578125,792.1611938476562,790.1465454101562
1021,801.8314819335938,795.7875366210938,792.1611938476562,792.967041015625
1022,801.4285888671875,799.8168334960938,795.3846435546875,792.967041015625
1023,795.3846435546875,799.010986328125,794.1758422851562,788.1318969726562
1024,799.010986328125,802.2344360351562,793.7728881835938,792.5640869140625
1025,796.1904907226562,800.6226806640625,793.3699340820312,800.2197875976562
1026,788.5347900390625,796.1904907226562,795.7875366210938,795.7875366210938
1027,796.5933837890625,798.6080322265625,795.3846435546875,798.2051391601562
1028,799.8168334960938,800.2197875976562,792.5640869140625,800.6226806640625
1029,796.1904907226562,801.4285888671875,788.937744140625,798.2051391601562
1030,795.7875366210938,797.8021850585938,786.923095703125,800.2197875976562
1031,797.3992919921875,799.010986328125,792.967041015625,804.6520385742188
1032,796.1904907226562,800.6226806640625,794.5787353515625,809.4871826171875
1033,795.7875366210938,792.967041015625,794.5787353515625,812.7106323242188
1034,796.1904907226562,793.3699340820312,794.1758422851562,803.4432373046875
1035,794.5787353515625,796.5933837890625,791.3552856445312,796.5933837890625
1036,796.996337890625,795.3846435546875,792.1611938476562,806.2637329101562
1037,796.1904907226562,796.5933837890625,795.3846435546875,803.4432373046875
1038,796.5933837890625,796.996337890625,793.7728881835938,794.5787353515625
1039,799.010986328125,790.952392578125,793.7728881835938,794.981689453125
1040,794.1758422851562,788.5347900390625,791.3552856445312,785.7142944335938
1041,792.5640869140625,792.967041015625,788.937744140625,785.7142944335938
1042,798.6080322265625,796.5933837890625,789.3406372070312,791.3552856445312
1043,797.3992919921875,797.3992919921875,789.7435913085938,792.1611938476562
1044,796.996337890625,792.5640869140625,790.952392578125,792.5640869140625
1045,797.3992919921875,792.967041015625,788.937744140625,790.5494384765625
1046,795.7875366210938,796.996337890625,792.1611938476562,793.3699340820312
1047,787.3259887695312,797.8021850585938,793.3699340820312,797.3992919921875
1048,785.7142944335938,797.3992919921875,788.1318969726562,794.5787353515625
1049,788.5347900390625,796.1904907226562,791.3552856445312,784.908447265625
1050,787.3259887695312,791.3552856445312,794.1758422851562,786.1171875
1051,788.1318969726562,787.7289428710938,794.1758422851562,786.5201416015625
1052,786.923095703125,789.3406372070312,793.3699340820312,779.2673950195312
1053,784.5054931640625,794.1758422851562,792.967041015625,778.8644409179688
1054,777.6557006835938,792.1611938476562,795.3846435546875,780.0732421875
1055,782.893798828125,786.923095703125,796.5933837890625,782.893798828125
1056,791.7582397460938,792.5640869140625,790.1465454101562,785.7142944335938
1057,787.7289428710938,794.5787353515625,791.7582397460938,783.6996459960938
1058,783.2966918945312,784.908447265625,795.3846435546875,786.5201416015625
1059,787.7289428710938,785.7142944335938,794.981689453125,788.1318969726562
1060,792.5640869140625,789.3406372070312,795.3846435546875,789.3406372070312
1061,789.7435913085938,788.5347900390625,793.7728881835938,787.3259887695312
1062,788.1318969726562,789.3406372070312,788.1318969726562,786.5201416015625
1063,790.952392578125,793.7728881835938,785.3113403320312,784.1025390625
1064,789.3406372070312,795.3846435546875,789.3406372070312,779.2673950195312
1065,788.937744140625,792.1611938476562,789.7435913085938,779.2673950195312
1066,793.3699340820312,792.967041015625,785.3113403320312,783.2966918945312
1067,798.6080322265625,792.1611938476562,786.5201416015625,799.010986328125
1068,798.6080322265625,792.967041015625,795.3846435546875,799.4139404296875
1069,801.025634765625,794.981689453125,803.040283203125,794.5787353515625
1070,804.6520385742188,797.3992919921875,801.4285888671875,793.7728881835938
1071,801.4285888671875,795.3846435546875,793.3699340820312,786.1171875
1072,799.8168334960938,795.7875366210938,792.967041015625,778.8644409179688
1073,796.996337890625,796.5933837890625,800.6226806640625,776.0439453125
1074,788.937744140625,790.952392578125,798.6080322265625,782.087890625
1075,782.4908447265625,790.952392578125,793.3699340820312,790.1465454101562
1076,786.1171875,797.8021850585938,797.8021850585938,786.923095703125
1077,793.3699340820312,796.5933837890625,795.7875366210938,788.1318969726562
1078,794.1758422851562,793.7728881835938,794.5787353515625,790.1465454101562
1079,796.5933837890625,794.1758422851562,797.3992919921875,793.7728881835938
1080,798.6080322265625,793.7728881835938,792.1611938476562,796.996337890625
1081,798.6080322265625,794.1758422851562,791.3552856445312,796.1904907226562
1082,803.040283203125,795.3846435546875,791.7582397460938,801.8314819335938
1083,796.996337890625,794.1758422851562,788.937744140625,804.6520385742188
1084,796.5933837890625,796.1904907226562,790.952392578125,800.6226806640625
1085,803.4432373046875,798.6080322265625,789.3406372070312,799.8168334960938
1086,797.3992919921875,787.7289428710938,786.5201416015625,804.6520385742188
1087,790.952392578125,786.1171875,790.952392578125,801.025634765625
1088,790.5494384765625,792.5640869140625,792.1611938476562,789.7435913085938
1089,794.5787353515625,795.3846435546875,791.3552856445312,788.1318969726562
1090,796.5933837890625,793.7728881835938,791.7582397460938,797.3992919921875
1091,790.5494384765625,792.967041015625,793.7728881835938,791.3552856445312
1092,792.5640869140625,792.1611938476562,793.3699340820312,785.3113403320312
1093,797.3992919921875,794.1758422851562,791.7582397460938,790.1465454101562
1094,789.7435913085938,796.996337890625,793.3699340820312,789.3406372070312
1095,783.6996459960938,790.5494384765625,790.952392578125,786.1171875
1096,786.923095703125,789.3406372070312,792.967041015625,783.2966918945312
1097,791.7582397460938,786.1171875,794.1758422851562,787.7289428710938
1098,791.7582397460938,786.5201416015625,790.5494384765625,796.5933837890625
1099,782.893798828125,788.937744140625,790.952392578125,786.1171875
1100,790.5494384765625,788.1318969726562,796.996337890625,787.3259887695312
1101,799.4139404296875,794.5787353515625,798.6080322265625,790.952392578125
1102,794.1758422851562,795.7875366210938,794.981689453125,785.3113403320312
1103,793.7728881835938,796.1904907226562,796.996337890625,787.3259887695312
1104,792.5640869140625,796.5933837890625,798.2051391601562,791.7582397460938
1105,788.5347900390625,794.981689453125,797.8021850585938,799.8168334960938
1106,787.7289428710938,792.967041015625,797.8021850585938,803.4432373046875
1107,789.7435913085938,788.5347900390625,797.3992919921875,805.4578857421875
1108,803.040283203125,793.3699340820312,797.3992919921875,808.2783813476562
1109,804.6520385742188,796.5933837890625,795.3846435546875,806.6666870117188
1110,797.3992919921875,798.6080322265625,793.7728881835938,797.8021850585938
1111,799.4139404296875,791.3552856445312,796.5933837890625,793.3699340820312
1112,802.2344360351562,778.8644409179688,793.7728881835938,791.3552856445312
1113,791.7582397460938,789.7435913085938,788.1318969726562,786.1171875
1114,786.5201416015625,796.1904907226562,790.1465454101562,786.5201416015625
1115,792.1611938476562,790.952392578125,792.5640869140625,792.5640869140625
1116,791.3552856445312,792.1611938476562,791.7582397460938,793.7728881835938
1117,789.7435913085938,796.996337890625,789.7435913085938,788.937744140625
1118,797.3992919921875,797.3992919921875,786.923095703125,796.1904907226562
1119,799.4139404296875,796.5933837890625,786.923095703125,796.1904907226562
1120,796.5933837890625,800.2197875976562,789.3406372070312,792.1611938476562
1121,798.2051391601562,802.6373901367188,786.923095703125,801.4285888671875
1122,796.996337890625,801.025634765625,787.7289428710938,797.3992919921875
1123,796.5933837890625,795.3846435546875,790.1465454101562,794.5787353515625
1124,791.3552856445312,795.3846435546875,790.1465454101562,790.5494384765625
1125,786.5201416015625,801.025634765625,794.1758422851562,788.937744140625
1126,782.893798828125,796.996337890625,794.5787353515625,786.1171875
1127,782.893798828125,791.7582397460938,792.5640869140625,783.2966918945312
1128,790.952392578125,790.5494384765625,790.952392578125,790.5494384765625
1129,790.952392578125,792.967041015625,791.7582397460938,794.1758422851562
1130,789.7435913085938,797.3992919921875,792.967041015625,793.7728881835938
1131,794.5787353515625,794.1758422851562,790.952392578125,799.010986328125
1132,796.1904907226562,793.3699340820312,785.7142944335938,805.054931640625
1133,793.7728881835938,796.5933837890625,791.3552856445312,802.6373901367188
1134,791.3552856445312,796.5933837890625,797.3992919921875,791.3552856445312
1135,790.952392578125,794.981689453125,797.3992919921875,788.1318969726562
1136,792.1611938476562,789.7435913085938,793.7728881835938,791.7582397460938
1137,792.1611938476562,793.3699340820312,789.7435913085938,792.1611938476562
1138,791.7582397460938,797.3992919921875,790.1465454101562,789.3406372070312
1139,793.7728881835938,795.3846435546875,790.5494384765625,787.3259887695312
1140,795.3846435546875,792.1611938476562,793.7728881835938,794.1758422851562
1141,792.967041015625,788.1318969726562,792.1611938476562,796.5933837890625
1142,796.1904907226562,789.3406372070312,792.1611938476562,801.025634765625
1143,793.3699340820312,791.3552856445312,796.1904907226562,803.4432373046875
1144,786.923095703125,788.1318969726562,787.3259887695312,803.040283203125
1145,787.3259887695312,790.5494384765625,790.952392578125,795.3846435546875
1146,784.1025390625,795.3846435546875,796.5933837890625,789.7435913085938
1147,785.7142944335938,791.7582397460938,786.923095703125,793.7728881835938
1148,788.1318969726562,786.923095703125,783.6996459960938,793.3699340820312
1149,788.5347900390625,789.3406372070312,790.952392578125,792.967041015625
1150,784.5054931640625,786.5201416015625,793.7728881835938,794.5787353515625
1151,788.5347900390625,788.1318969726562,792.5640869140625,794.5787353515625
1152,793.3699340820312,791.3552856445312,792.5640869140625,798.6080322265625
1153,796.5933837890625,798.2051391601562,793.7728881835938,804.2490844726562
1154,799.8168334960938,800.6226806640625,794.5787353515625,804.2490844726562
1155,796.5933837890625,792.967041015625,792.1611938476562,803.040283203125
1156,801.8314819335938,790.5494384765625,789.7435913085938,806.6666870117188
1157,803.8461303710938,795.3846435546875,793.3699340820312,808.2783813476562
1158,797.8021850585938,792.967041015625,793.3699340820312,805.8607788085938
1159,798.6080322265625,794.5787353515625,791.7582397460938,808.2783813476562
1160,804.2490844726562,796.996337890625,795.3846435546875,805.4578857421875
1161,804.2490844726562,790.5494384765625,797.8021850585938,803.8461303710938
1162,796.1904907226562,785.3113403320312,791.7582397460938,805.4578857421875
1163,798.2051391601562,786.5201416015625,788.5347900390625,802.6373901367188
1164,801.025634765625,796.5933837890625,793.3699340820312,797.3992919921875
1165,788.1318969726562,799.8168334960938,796.996337890625,785.3113403320312
1166,784.908447265625,795.3846435546875,798.2051391601562,782.087890625
1167,794.1758422851562,795.3846435546875,803.040283203125,794.1758422851562
1168,792.967041015625,796.996337890625,801.4285888671875,790.5494384765625
1169,786.923095703125,798.2051391601562,796.5933837890625,782.893798828125
1170,786.5201416015625,795.3846435546875,795.7875366210938,788.5347900390625
1171,790.5494384765625,790.952392578125,801.4285888671875,797.3992919921875
1172,785.7142944335938,787.7289428710938,801.025634765625,786.5201416015625
1173,787.7289428710938,794.5787353515625,793.7728881835938,784.5054931640625
1174,797.3992919921875,796.996337890625,794.5787353515625,794.1758422851562
1175,795.7875366210938,791.7582397460938,792.1611938476562,792.5640869140625
1176,794.5787353515625,787.7289428710938,793.7728881835938,789.7435913085938
1177,792.1611938476562,789.7435913085938,794.981689453125,795.3846435546875
1178,794.981689453125,794.981689453125,794.1758422851562,799.4139404296875
1179,801.4285888671875,793.3699340820312,795.3846435546875,796.5933837890625
1180,795.7875366210938,792.967041015625,803.8461303710938,797.8021850585938
1181,792.1611938476562,792.967041015625,803.4432373046875,800.2197875976562
1182,797.8021850585938,784.1025390625,794.5787353515625,807.4725341796875
1183,794.981689453125,788.1318969726562,794.1758422851562,807.069580078125
1184,791.7582397460938,802.6373901367188,796.5933837890625,800.2197875976562
1185,796.996337890625,800.6226806640625,796.5933837890625,798.6080322265625
1186,797.8021850585938,795.7875366210938,800.2197875976562,798.6080322265625
1187,793.3699340820312,799.010986328125,803.8461303710938,796.996337890625
1188,792.1611938476562,797.3992919921875,800.6226806640625,797.3992919921875
1189,793.7728881835938,788.5347900390625,795.7875366210938,794.981689453125
1190,795.7875366210938,791.3552856445312,797.8021850585938,795.7875366210938
1191,790.1465454101562,794.981689453125,798.6080322265625,792.1611938476562
1192,784.908447265625,790.1465454101562,793.3699340820312,786.5201416015625
1193,791.3552856445312,796.1904907226562,786.5201416015625,790.1465454101562
1194,796.1904907226562,795.3846435546875,786.1171875,790.952392578125
1195,796.996337890625,789.7435913085938,791.7582397460938,784.1025390625
1196,795.3846435546875,792.5640869140625,796.5933837890625,783.2966918945312
1197,788.937744140625,791.7582397460938,792.5640869140625,785.3113403320312
1198,789.3406372070312,794.981689453125,793.3699340820312,784.1025390625
1199,788.5347900390625,792.967041015625,795.3846435546875,782.087890625
1200,788.1318969726562,789.3406372070312,794.1758422851562,783.6996459960938
1201,790.952392578125,788.5347900390625,792.5640869140625,793.3699340820312
1202,793.7728881835938,790.1465454101562,789.7435913085938,796.1904907226562
1203,795.7875366210938,798.2051391601562,790.952392578125,792.1611938476562
1204,797.3992919921875,797.8021850585938,794.981689453125,791.7582397460938
1205,797.3992919921875,792.5640869140625,792.967041015625,792.1611938476562
1206,790.5494384765625,796.5933837890625,788.937744140625,788.937744140625
1207,789.7435913085938,799.8168334960938,792.5640869140625,788.937744140625
1208,791.7582397460938,796.5933837890625,796.1904907226562,793.3699340820312
1209,791.3552856445312,797.3992919921875,799.010986328125,795.7875366210938
1210,794.1758422851562,795.3846435546875,796.5933837890625,798.6080322265625
1211,791.7582397460938,790.952392578125,796.5933837890625,796.1904907226562
1212,785.7142944335938,786.923095703125,794.5787353515625,790.5494384765625
1213,786.923095703125,792.1611938476562,795.3846435546875,794.1758422851562
1214,791.7582397460938,797.3992919921875,795.3846435546875,796.1904907226562
1215,790.5494384765625,796.996337890625,790.952392578125,786.1171875
1216,787.7289428710938,793.7728881835938,790.5494384765625,783.6996459960938
1217,786.5201416015625,796.5933837890625,792.967041015625,794.5787353515625
1218,782.4908447265625,801.4285888671875,792.967041015625,789.7435913085938
1219,782.087890625,793.3699340820312,790.5494384765625,784.5054931640625
1220,789.7435913085938,790.952392578125,792.1611938476562,787.7289428710938
1221,788.5347900390625,791.7582397460938,795.7875366210938,784.5054931640625
1222,788.937744140625,787.3259887695312,798.2051391601562,783.2966918945312
1223,790.952392578125,790.952392578125,796.996337890625,784.908447265625
1224,787.3259887695312,787.7289428710938,794.1758422851562,794.5787353515625
1225,796.1904907226562,780.0732421875,792.967041015625,806.6666870117188
1226,801.4285888671875,787.3259887695312,792.967041015625,807.069580078125
1227,796.5933837890625,794.981689453125,788.1318969726562,800.6226806640625
1228,793.7728881835938,794.981689453125,780.879150390625,796.1904907226562
1229,789.3406372070312,798.2051391601562,784.5054931640625,792.1611938476562
1230,784.1025390625,798.2051391601562,789.3406372070312,786.1171875
1231,787.7289428710938,792.5640869140625,789.7435913085938,789.3406372070312
1232,786.5201416015625,789.3406372070312,790.1465454101562,791.3552856445312
1233,782.087890625,794.981689453125,793.7728881835938,788.1318969726562
1234,782.893798828125,798.2051391601562,792.967041015625,782.4908447265625
1235,788.5347900390625,800.6226806640625,783.6996459960938,785.3113403320312
1236,795.3846435546875,802.2344360351562,781.2820434570312,794.5787353515625
1237,792.967041015625,796.996337890625,792.967041015625,797.3992919921875
1238,793.3699340820312,793.7728881835938,798.2051391601562,796.996337890625
1239,795.7875366210938,796.1904907226562,792.5640869140625,797.8021850585938
1240,794.1758422851562,794.981689453125,794.1758422851562,805.054931640625
1241,792.967041015625,794.981689453125,795.3846435546875,797.8021850585938
1242,790.1465454101562,799.8168334960938,789.7435913085938,783.6996459960938
1243,786.1171875,801.025634765625,785.7142944335938,786.923095703125
1244,787.7289428710938,790.952392578125,790.5494384765625,788.5347900390625
1245,788.5347900390625,791.3552856445312,795.3846435546875,786.923095703125
1246,788.1318969726562,799.4139404296875,793.3699340820312,786.5201416015625
1247,788.937744140625,797.3992919921875,789.7435913085938,784.908447265625
1248,785.3113403320312,795.7875366210938,788.5347900390625,790.1465454101562
1249,787.3259887695312,792.967041015625,791.7582397460938,796.1904907226562
1250,794.5787353515625,785.7142944335938,794.1758422851562,790.5494384765625
1251,798.2051391601562,786.923095703125,784.908447265625,788.5347900390625
1252,799.010986328125,797.3992919921875,788.5347900390625,793.3699340820312
1253,796.996337890625,798.6080322265625,794.1758422851562,791.3552856445312
1254,792.1611938476562,794.5787353515625,787.3259887695312,790.1465454101562
1255,790.1465454101562,793.3699340820312,788.1318969726562,796.1904907226562
1256,792.1611938476562,795.3846435546875,794.981689453125,796.5933837890625
1257,791.3552856445312,796.996337890625,794.5787353515625,789.7435913085938
1258,791.3552856445312,794.5787353515625,792.1611938476562,793.3699340820312
1259,788.1318969726562,793.3699340820312,792.967041015625,796.1904907226562
1260,784.5054931640625,790.952392578125,791.3552856445312,792.5640869140625
1261,795.3846435546875,786.923095703125,785.7142944335938,793.3699340820312
1262,800.6226806640625,788.1318969726562,782.087890625,796.1904907226562
1263,786.1171875,791.3552856445312,786.1171875,789.3406372070312
1264,783.6996459960938,799.010986328125,790.952392578125,781.6849975585938
1265,790.1465454101562,799.010986328125,793.7728881835938,786.923095703125
1266,792.967041015625,796.1904907226562,800.6226806640625,793.3699340820312
1267,791.3552856445312,798.2051391601562,799.4139404296875,798.2051391601562
1268,784.5054931640625,796.996337890625,792.967041015625,799.010986328125
1269,787.3259887695312,796.1904907226562,793.7728881835938,796.1904907226562
1270,795.7875366210938,794.981689453125,792.1611938476562,791.3552856445312
1271,798.6080322265625,790.1465454101562,788.1318969726562,789.7435913085938
1272,795.3846435546875,788.5347900390625,789.7435913085938,786.923095703125
1273,790.1465454101562,791.3552856445312,792.1611938476562,788.1318969726562
1274,790.1465454101562,793.7728881835938,797.8021850585938,797.8021850585938
1275,789.3406372070312,791.7582397460938,796.5933837890625,798.6080322265625
1276,785.7142944335938,791.7582397460938,793.3699340820312,789.7435913085938
1277,785.7142944335938,794.5787353515625,791.7582397460938,784.908447265625
1278,786.1171875,792.967041015625,787.7289428710938,787.3259887695312
1279,784.5054931640625,795.3846435546875,788.937744140625,786.5201416015625
1280,789.7435913085938,792.1611938476562,791.3552856445312,781.6849975585938
1281,799.010986328125,782.893798828125,792.967041015625,784.908447265625
1282,796.5933837890625,786.923095703125,792.967041015625,782.893798828125
1283,791.7582397460938,790.1465454101562,791.7582397460938,782.893798828125
1284,794.981689453125,791.7582397460938,794.1758422851562,793.3699340820312
1285,796.1904907226562,794.5787353515625,791.7582397460938,795.3846435546875
1286,795.7875366210938,793.3699340820312,791.3552856445312,797.8021850585938
1287,792.967041015625,791.7582397460938,796.5933837890625,793.7728881835938
1288,786.923095703125,791.7582397460938,793.7728881835938,792.5640869140625
1289,786.5201416015625,793.7728881835938,790.1465454101562,797.8021850585938
1290,794.981689453125,795.3846435546875,790.952392578125,800.2197875976562
1291,792.967041015625,799.4139404296875,795.3846435546875,795.7875366210938
1292,792.1611938476562,801.025634765625,795.3846435546875,793.3699340820312
1293,793.7728881835938,798.6080322265625,791.3552856445312,792.967041015625
1294,788.937744140625,799.010986328125,789.3406372070312,786.5201416015625
1295,794.5787353515625,799.8168334960938,795.7875366210938,793.7728881835938
1296,800.2197875976562,799.4139404296875,798.2051391601562,799.8168334960938
1297,790.952392578125,795.3846435546875,794.1758422851562,795.7875366210938
1298,785.7142944335938,790.1465454101562,795.7875366210938,792.967041015625
1299,792.5640869140625,791.3552856445312,799.4139404296875,787.7289428710938
1300,792.967041015625,797.8021850585938,798.2051391601562,777.2527465820312
1301,781.2820434570312,791.7582397460938,794.5787353515625,779.6703491210938
1302,782.087890625,788.5347900390625,787.7289428710938,786.5201416015625
1303,779.6703491210938,791.7582397460938,785.7142944335938,783.2966918945312
1304,774.4322509765625,790.5494384765625,790.952392578125,778.05859375
1305,777.6557006835938,788.1318969726562,794.1758422851562,781.6849975585938
1306,776.8497924804688,792.1611938476562,793.3699340820312,774.8351440429688
1307,779.6703491210938,796.996337890625,794.5787353515625,772.8204956054688
1308,782.893798828125,792.967041015625,796.996337890625,786.1171875
1309,780.879150390625,790.952392578125,793.3699340820312,787.7289428710938
1310,781.2820434570312,790.952392578125,791.3552856445312,786.923095703125
1311,787.3259887695312,787.3259887695312,793.7728881835938,790.5494384765625
1312,789.3406372070312,788.1318969726562,795.7875366210938,795.3846435546875
1313,785.3113403320312,791.3552856445312,796.996337890625,803.040283203125
1314,783.2966918945312,793.7728881835938,799.8168334960938,792.967041015625
1315,784.908447265625,790.5494384765625,802.6373901367188,784.908447265625
1316,789.3406372070312,792.1611938476562,799.010986328125,790.5494384765625
1317,788.937744140625,790.952392578125,794.5787353515625,788.937744140625
1318,791.3552856445312,787.3259887695312,798.6080322265625,787.3259887695312
1319,792.1611938476562,789.7435913085938,796.996337890625,786.923095703125
1320,790.1465454101562,787.3259887695312,790.5494384765625,787.3259887695312
1321,790.952392578125,784.5054931640625,794.5787353515625,789.3406372070312
1322,792.5640869140625,784.1025390625,795.3846435546875,790.1465454101562
1323,791.3552856445312,785.3113403320312,790.5494384765625,791.3552856445312
1324,788.937744140625,786.5201416015625,790.952392578125,793.7728881835938
1325,797.3992919921875,794.5787353515625,794.1758422851562,800.6226806640625
1326,796.996337890625,792.5640869140625,792.1611938476562,799.010986328125
1327,794.981689453125,793.7728881835938,791.3552856445312,796.5933837890625
1328,802.2344360351562,800.2197875976562,789.3406372070312,799.8168334960938
1329,797.8021850585938,798.6080322265625,779.6703491210938,794.1758422851562
1330,797.3992919921875,800.2197875976562,780.4761962890625,791.7582397460938
1331,801.025634765625,799.010986328125,791.3552856445312,796.996337890625
1332,803.040283203125,792.1611938476562,793.7728881835938,796.1904907226562
1333,807.87548828125,793.7728881835938,796.1904907226562,801.8314819335938
1334,799.4139404296875,796.1904907226562,794.981689453125,801.025634765625
1335,803.8461303710938,794.5787353515625,794.981689453125,799.4139404296875
1336,811.90478515625,795.7875366210938,799.010986328125,806.6666870117188
1337,800.6226806640625,794.1758422851562,794.981689453125,797.3992919921875
1338,802.2344360351562,794.981689453125,794.981689453125,796.1904907226562
1339,807.87548828125,792.5640869140625,798.6080322265625,806.6666870117188
1340,803.4432373046875,791.7582397460938,795.3846435546875,801.025634765625
1341,801.025634765625,797.8021850585938,793.7728881835938,792.5640869140625
1342,800.6226806640625,794.981689453125,798.6080322265625,792.967041015625
1343,802.2344360351562,796.1904907226562,798.6080322265625,794.1758422851562
1344,795.3846435546875,798.2051391601562,792.967041015625,790.5494384765625
1345,791.3552856445312,796.1904907226562,795.3846435546875,789.3406372070312
1346,792.5640869140625,793.3699340820312,794.5787353515625,792.1611938476562
1347,792.967041015625,788.1318969726562,791.3552856445312,801.025634765625
1348,794.1758422851562,786.1171875,794.5787353515625,810.6959838867188
1349,798.2051391601562,792.967041015625,799.4139404296875,809.4871826171875
1350,802.6373901367188,796.996337890625,798.2051391601562,809.4871826171875
1351,798.6080322265625,799.8168334960938,791.7582397460938,806.6666870117188
1352,796.1904907226562,801.025634765625,789.7435913085938,803.040283203125
1353,798.6080322265625,791.3552856445312,794.1758422851562,800.2197875976562
1354,797.3992919921875,790.952392578125,793.7728881835938,794.1758422851562
1355,794.5787353515625,795.3846435546875,791.3552856445312,794.1758422851562
1356,793.7728881835938,795.7875366210938,793.7728881835938,796.1904907226562
1357,793.3699340820312,791.7582397460938,790.952392578125,793.7728881835938
1358,799.010986328125,784.908447265625,795.3846435546875,799.8168334960938
1359,801.8314819335938,787.3259887695312,798.2051391601562,801.4285888671875
1360,793.3699340820312,786.923095703125,794.981689453125,784.908447265625
1361,786.5201416015625,781.2820434570312,791.7582397460938,774.8351440429688
1362,788.5347900390625,784.5054931640625,794.981689453125,787.3259887695312
1363,790.5494384765625,787.7289428710938,795.7875366210938,790.5494384765625
1364,789.3406372070312,787.3259887695312,792.967041015625,786.923095703125
1365,790.1465454101562,788.5347900390625,791.7582397460938,788.1318969726562
1366,789.3406372070312,789.3406372070312,787.7289428710938,789.7435913085938
1367,782.893798828125,783.6996459960938,789.3406372070312,791.7582397460938
1368,782.893798828125,783.6996459960938,791.7582397460938,790.5494384765625
1369,792.1611938476562,794.5787353515625,794.981689453125,795.7875366210938
1370,795.3846435546875,796.1904907226562,794.1758422851562,804.2490844726562
1371,788.5347900390625,798.6080322265625,794.5787353515625,805.054931640625
1372,786.923095703125,797.3992919921875,800.2197875976562,797.3992919921875
1373,795.7875366210938,794.1758422851562,798.6080322265625,799.010986328125
1374,794.981689453125,796.5933837890625,798.6080322265625,804.2490844726562
1375,788.937744140625,799.8168334960938,802.2344360351562,799.4139404296875
1376,792.967041015625,801.4285888671875,797.8021850585938,796.996337890625
1377,795.7875366210938,799.8168334960938,794.981689453125,792.967041015625
1378,790.5494384765625,796.5933837890625,792.5640869140625,783.6996459960938
1379,791.7582397460938,798.6080322265625,793.3699340820312,783.2966918945312
1380,799.010986328125,801.8314819335938,792.5640869140625,790.5494384765625
1381,801.8314819335938,796.1904907226562,789.7435913085938,791.7582397460938
1382,794.981689453125,792.967041015625,789.7435913085938,792.967041015625
1383,793.7728881835938,798.2051391601562,788.1318969726562,790.952392578125
1384,792.1611938476562,797.3992919921875,790.952392578125,786.5201416015625
1385,793.7728881835938,791.3552856445312,792.5640869140625,788.1318969726562
1386,792.5640869140625,789.7435913085938,791.7582397460938,794.1758422851562
1387,791.7582397460938,787.3259887695312,799.010986328125,791.3552856445312
1388,796.5933837890625,793.7728881835938,798.2051391601562,785.7142944335938
1389,794.981689453125,797.3992919921875,794.981689453125,783.6996459960938
1390,794.1758422851562,801.025634765625,799.010986328125,786.923095703125
1391,790.952392578125,799.4139404296875,794.981689453125,788.1318969726562
1392,785.3113403320312,794.5787353515625,794.5787353515625,790.5494384765625
1393,782.4908447265625,796.996337890625,796.996337890625,788.937744140625
1394,783.2966918945312,796.1904907226562,795.3846435546875,788.937744140625
1395,785.7142944335938,793.3699340820312,794.1758422851562,796.1904907226562
1396,782.087890625,793.7728881835938,793.7728881835938,792.5640869140625
1397,788.1318969726562,794.981689453125,792.5640869140625,794.981689453125
1398,793.7728881835938,796.996337890625,792.1611938476562,798.6080322265625
1399,797.8021850585938,795.7875366210938,796.5933837890625,794.5787353515625
1400,799.8168334960938,795.3846435546875,794.981689453125,794.5787353515625
1401,799.4139404296875,801.8314819335938,792.967041015625,789.7435913085938
1402,797.8021850585938,800.6226806640625,794.1758422851562,787.7289428710938
1403,796.1904907226562,802.6373901367188,796.996337890625,791.3552856445312
1404,799.8168334960938,799.4139404296875,802.2344360351562,794.1758422851562
1405,801.025634765625,796.1904907226562,797.3992919921875,794.5787353515625
1406,796.5933837890625,796.996337890625,792.5640869140625,788.5347900390625
1407,796.1904907226562,793.3699340820312,793.7728881835938,785.3113403320312
1408,795.3846435546875,790.1465454101562,790.1465454101562,786.923095703125
1409,791.3552856445312,788.1318969726562,788.937744140625,782.4908447265625
1410,790.1465454101562,789.3406372070312,790.1465454101562,786.1171875
1411,792.5640869140625,794.5787353515625,793.7728881835938,793.3699340820312
1412,790.952392578125,799.4139404296875,796.1904907226562,788.5347900390625
1413,788.5347900390625,801.4285888671875,792.967041015625,785.3113403320312
1414,788.5347900390625,797.3992919921875,792.5640869140625,787.3259887695312
1415,790.5494384765625,795.7875366210938,794.5787353515625,787.3259887695312
1416,791.7582397460938,792.5640869140625,788.1318969726562,793.7728881835938
1417,790.5494384765625,790.952392578125,788.5347900390625,802.6373901367188
1418,788.937744140625,792.1611938476562,797.3992919921875,799.4139404296875
1419,784.1025390625,793.3699340820312,795.7875366210938,795.3846435546875
1420,786.1171875,794.981689453125,795.7875366210938,792.967041015625
1421,790.5494384765625,795.7875366210938,802.2344360351562,795.3846435546875
1422,788.1318969726562,796.5933837890625,798.6080322265625,790.952392578125
1423,788.937744140625,793.7728881835938,794.1758422851562,786.923095703125
1424,787.3259887695312,797.3992919921875,794.1758422851562,790.1465454101562
1425,787.7289428710938,799.4139404296875,795.3846435546875,791.7582397460938
1426,789.3406372070312,794.981689453125,793.3699340820312,794.5787353515625
1427,791.3552856445312,791.7582397460938,789.7435913085938,794.5787353515625
1428,792.5640869140625,791.3552856445312,789.7435913085938,795.7875366210938
1429,796.5933837890625,794.1758422851562,790.5494384765625,792.1611938476562
1430,801.8314819335938,794.1758422851562,790.952392578125,787.7289428710938
1431,796.5933837890625,794.981689453125,788.937744140625,784.1025390625
1432,796.996337890625,797.8021850585938,789.3406372070312,792.1611938476562
1433,793.7728881835938,796.5933837890625,788.937744140625,788.5347900390625
1434,787.3259887695312,792.5640869140625,788.5347900390625,781.6849975585938
1435,794.5787353515625,791.3552856445312,794.981689453125,789.7435913085938
1436,798.2051391601562,795.3846435546875,796.996337890625,791.7582397460938
1437,796.5933837890625,799.8168334960938,792.967041015625,788.1318969726562
1438,790.5494384765625,797.8021850585938,795.3846435546875,788.937744140625
1439,787.7289428710938,799.010986328125,796.996337890625,794.981689453125
1440,791.3552856445312,800.2197875976562,795.7875366210938,799.8168334960938
1441,795.3846435546875,793.3699340820312,796.5933837890625,802.6373901367188
1442,797.3992919921875,793.7728881835938,796.996337890625,805.8607788085938
1443,802.2344360351562,798.6080322265625,797.3992919921875,812.7106323242188
1444,806.6666870117188,801.025634765625,804.2490844726562,815.1282348632812
1445,800.2197875976562,803.8461303710938,806.2637329101562,808.2783813476562
1446,797.3992919921875,798.6080322265625,801.8314819335938,807.87548828125
1447,799.010986328125,785.7142944335938,794.1758422851562,802.6373901367188
1448,791.3552856445312,785.3113403320312,789.3406372070312,796.996337890625
1449,786.5201416015625,795.7875366210938,794.1758422851562,799.4139404296875
1450,787.3259887695312,796.1904907226562,793.7728881835938,791.3552856445312
1451,784.1025390625,794.5787353515625,792.967041015625,787.7289428710938
1452,786.1171875,794.1758422851562,792.967041015625,787.3259887695312
1453,789.7435913085938,795.3846435546875,789.7435913085938,780.0732421875
1454,786.923095703125,794.981689453125,792.967041015625,781.2820434570312
1455,784.5054931640625,786.5201416015625,788.5347900390625,788.1318969726562
1456,783.2966918945312,787.7289428710938,790.1465454101562,784.1025390625
1457,783.6996459960938,796.996337890625,797.3992919921875,782.087890625
1458,780.0732421875,794.1758422851562,792.5640869140625,782.4908447265625
1459,781.6849975585938,786.923095703125,791.7582397460938,783.2966918945312
1460,785.3113403320312,786.923095703125,788.5347900390625,783.6996459960938
1461,788.1318969726562,788.937744140625,783.6996459960938,783.6996459960938
1462,783.6996459960938,789.7435913085938,786.923095703125,785.7142944335938
1463,785.7142944335938,794.1758422851562,791.7582397460938,782.893798828125
1464,788.5347900390625,794.5787353515625,790.1465454101562,778.8644409179688
1465,784.1025390625,793.3699340820312,780.0732421875,779.2673950195312
1466,791.7582397460938,799.010986328125,784.1025390625,791.7582397460938
1467,791.3552856445312,797.8021850585938,791.7582397460938,794.981689453125
1468,784.5054931640625,791.7582397460938,789.3406372070312,793.3699340820312
1469,786.1171875,792.5640869140625,788.1318969726562,791.7582397460938
1470,794.1758422851562,790.952392578125,786.923095703125,796.1904907226562
1471,796.1904907226562,795.7875366210938,786.923095703125,805.054931640625
1472,789.3406372070312,799.010986328125,790.5494384765625,791.7582397460938
1473,790.5494384765625,796.1904907226562,787.3259887695312,787.7289428710938
1474,794.5787353515625,794.981689453125,785.3113403320312,790.952392578125
1475,791.7582397460938,794.5787353515625,791.3552856445312,787.7289428710938
1476,788.1318969726562,799.010986328125,792.5640869140625,787.3259887695312
1477,792.5640869140625,796.1904907226562,786.5201416015625,786.1171875
1478,791.3552856445312,792.5640869140625,784.1025390625,786.5201416015625
1479,791.3552856445312,795.3846435546875,791.3552856445312,791.3552856445312
1480,796.5933837890625,796.996337890625,794.1758422851562,787.7289428710938
1481,794.5787353515625,797.8021850585938,793.7728881835938,790.5494384765625
1482,790.5494384765625,794.5787353515625,790.1465454101562,799.4139404296875
1483,793.7728881835938,799.010986328125,788.5347900390625,799.4139404296875
1484,794.1758422851562,802.2344360351562,792.1611938476562,793.7728881835938
1485,792.5640869140625,796.5933837890625,792.967041015625,789.3406372070312
1486,796.5933837890625,791.3552856445312,796.1904907226562,793.3699340820312
1487,796.996337890625,794.5787353515625,794.981689453125,799.010986328125
1488,793.3699340820312,795.3846435546875,794.5787353515625,799.010986328125
1489,794.981689453125,787.7289428710938,796.996337890625,806.2637329101562
1490,796.1904907226562,790.1465454101562,796.5933837890625,806.2637329101562
1491,793.3699340820312,792.1611938476562,794.981689453125,796.1904907226562
1492,792.5640869140625,787.7289428710938,796.996337890625,792.967041015625
1493,793.7728881835938,790.1465454101562,798.2051391601562,802.2344360351562
1494,789.3406372070312,791.3552856445312,798.2051391601562,802.6373901367188
1495,791.3552856445312,792.5640869140625,794.1758422851562,791.7582397460938
1496,792.5640869140625,796.1904907226562,790.5494384765625,790.952392578125
1497,787.7289428710938,795.7875366210938,791.3552856445312,790.1465454101562
1498,789.3406372070312,799.010986328125,795.7875366210938,790.5494384765625
1499,791.3552856445312,799.4139404296875,797.8021850585938,794.5787353515625
1500,794.1758422851562,803.4432373046875,800.6226806640625,794.5787353515625
1501,796.5933837890625,807.069580078125,802.2344360351562,794.1758422851562
1502,801.8314819335938,796.996337890625,803.040283203125,788.937744140625
1503,806.6666870117188,792.967041015625,798.6080322265625,786.1171875
1504,800.2197875976562,799.8168334960938,796.1904907226562,785.7142944335938
1505,800.6226806640625,800.6226806640625,800.6226806640625,789.7435913085938
1506,801.025634765625,801.8314819335938,800.6226806640625,788.5347900390625
1507,800.6226806640625,793.7728881835938,799.010986328125,790.5494384765625
1508,809.084228515625,793.3699340820312,799.8168334960938,803.040283203125
1509,805.054931640625,798.6080322265625,799.8168334960938,797.3992919921875
1510,799.8168334960938,803.040283203125,801.8314819335938,792.967041015625
1511,802.6373901367188,804.2490844726562,804.2490844726562,801.025634765625
1512,801.4285888671875,799.010986328125,801.8314819335938,803.8461303710938
1513,799.8168334960938,799.8168334960938,799.8168334960938,795.3846435546875
1514,802.6373901367188,795.7875366210938,802.2344360351562,794.1758422851562
1515,796.5933837890625,793.3699340820312,799.8168334960938,797.8021850585938
1516,792.1611938476562,794.1758422851562,791.7582397460938,798.6080322265625
1517,797.8021850585938,796.996337890625,790.952392578125,799.8168334960938
1518,802.2344360351562,803.040283203125,791.7582397460938,797.8021850585938
1519,792.967041015625,796.5933837890625,791.7582397460938,794.5787353515625
1520,788.5347900390625,789.7435913085938,792.967041015625,788.1318969726562
1521,790.952392578125,788.937744140625,790.952392578125,787.3259887695312
1522,788.5347900390625,782.893798828125,787.7289428710938,783.2966918945312
1523,785.3113403320312,782.4908447265625,786.5201416015625,780.879150390625
1524,781.6849975585938,788.5347900390625,788.1318969726562,786.5201416015625
1525,784.908447265625,795.3846435546875,788.937744140625,787.3259887695312
1526,790.952392578125,794.1758422851562,788.5347900390625,783.2966918945312
1527,793.7728881835938,794.5787353515625,791.7582397460938,789.7435913085938
1528,793.3699340820312,796.5933837890625,793.3699340820312,803.040283203125
1529,788.5347900390625,791.3552856445312,792.967041015625,793.3699340820312
1530,787.7289428710938,784.908447265625,791.7582397460938,782.893798828125
1531,790.1465454101562,787.7289428710938,794.5787353515625,787.3259887695312
1532,781.6849975585938,789.3406372070312,794.1758422851562,790.1465454101562
1533,779.6703491210938,788.1318969726562,791.3552856445312,786.923095703125
1534,787.7289428710938,784.908447265625,795.3846435546875,792.967041015625
1535,791.3552856445312,787.7289428710938,797.8021850585938,796.1904907226562
1536,794.981689453125,796.1904907226562,801.4285888671875,792.5640869140625
1537,797.8021850585938,792.5640869140625,796.1904907226562,789.7435913085938
1538,800.2197875976562,792.1611938476562,791.7582397460938,787.3259887695312
1539,801.025634765625,795.7875366210938,795.7875366210938,792.5640869140625
1540,797.3992919921875,794.5787353515625,797.3992919921875,794.1758422851562
1541,793.7728881835938,796.1904907226562,795.7875366210938,789.7435913085938
1542,794.1758422851562,795.7875366210938,793.3699340820312,790.1465454101562
1543,793.3699340820312,790.1465454101562,791.3552856445312,794.5787353515625
1544,794.5787353515625,787.3259887695312,794.5787353515625,795.3846435546875
1545,792.5640869140625,791.7582397460938,794.1758422851562,788.937744140625
1546,782.087890625,793.7728881835938,787.3259887695312,790.952392578125
1547,780.879150390625,793.3699340820312,787.7289428710938,794.5787353515625
1548,782.087890625,789.3406372070312,792.5640869140625,791.3552856445312
1549,779.2673950195312,788.5347900390625,797.3992919921875,784.5054931640625
1550,778.8644409179688,791.3552856445312,795.3846435546875,784.1025390625
1551,778.4615478515625,788.1318969726562,792.967041015625,788.1318969726562
1552,776.4468994140625,791.7582397460938,797.3992919921875,786.1171875
1553,778.05859375,789.3406372070312,799.010986328125,786.5201416015625
1554,778.8644409179688,781.2820434570312,794.981689453125,795.3846435546875
1555,779.6703491210938,790.952392578125,794.1758422851562,801.4285888671875
1556,780.0732421875,799.4139404296875,796.996337890625,787.3259887695312
1557,786.5201416015625,795.7875366210938,796.5933837890625,782.893798828125
1558,799.4139404296875,791.3552856445312,795.3846435546875,790.1465454101562
1559,803.4432373046875,796.1904907226562,801.4285888671875,795.3846435546875
1560,800.2197875976562,799.4139404296875,797.8021850585938,796.5933837890625
1561,800.2197875976562,796.996337890625,793.3699340820312,793.7728881835938
1562,806.2637329101562,799.4139404296875,794.981689453125,797.3992919921875
1563,807.069580078125,798.2051391601562,796.996337890625,796.996337890625
1564,805.054931640625,794.981689453125,799.4139404296875,794.981689453125
1565,798.6080322265625,796.1904907226562,796.996337890625,796.5933837890625
1566,793.3699340820312,794.1758422851562,792.1611938476562,796.1904907226562
1567,795.3846435546875,797.3992919921875,792.5640869140625,792.1611938476562
1568,791.7582397460938,798.2051391601562,795.3846435546875,787.3259887695312
1569,787.7289428710938,791.7582397460938,792.5640869140625,784.1025390625
1570,784.908447265625,784.5054931640625,789.7435913085938,787.7289428710938
1571,788.937744140625,787.7289428710938,787.3259887695312,786.1171875
1572,792.967041015625,795.3846435546875,787.7289428710938,786.5201416015625
1573,788.937744140625,796.5933837890625,788.5347900390625,792.5640869140625
1574,794.1758422851562,797.3992919921875,782.893798828125,792.5640869140625
1575,799.010986328125,797.3992919921875,784.908447265625,794.5787353515625
1576,790.952392578125,793.3699340820312,787.7289428710938,792.5640869140625
1577,791.7582397460938,794.981689453125,783.2966918945312,797.8021850585938
1578,796.1904907226562,796.996337890625,781.2820434570312,807.4725341796875
1579,788.1318969726562,790.952392578125,789.3406372070312,795.3846435546875
