timestamp,RAW_TP9,RAW_AF7,RAW_AF8,RAW_TP10
1,819.5604248046875,808.6813354492188,780.0732421875,804.2490844726562
2,815.5311279296875,803.040283203125,778.05859375,796.996337890625
3,810.2930297851562,799.4139404296875,775.6410522460938,787.7289428710938
4,811.5018310546875,806.6666870117188,772.0146484375,790.952392578125
5,807.4725341796875,803.4432373046875,774.029296875,795.7875366210938
6,814.7252807617188,803.4432373046875,779.6703491210938,800.6226806640625
7,815.93408203125,809.4871826171875,782.4908447265625,803.8461303710938
8,805.8607788085938,803.4432373046875,783.2966918945312,805.054931640625
9,794.1758422851562,796.5933837890625,784.5054931640625,799.010986328125
10,794.981689453125,794.1758422851562,781.2820434570312,801.4285888671875
11,796.5933837890625,795.7875366210938,777.2527465820312,806.2637329101562
12,800.2197875976562,799.4139404296875,780.0732421875,801.4285888671875
13,803.040283203125,796.5933837890625,780.4761962890625,802.6373901367188
14,803.8461303710938,792.967041015625,783.2966918945312,800.6226806640625
15,803.040283203125,794.5787353515625,786.1171875,793.3699340820312
16,806.2637329101562,793.7728881835938,784.1025390625,792.5640869140625
17,810.2930297851562,788.937744140625,781.6849975585938,796.996337890625
18,805.054931640625,788.937744140625,783.2966918945312,798.6080322265625
19,801.4285888671875,795.7875366210938,785.7142944335938,802.2344360351562
20,801.025634765625,794.981689453125,784.5054931640625,794.5787353515625
21,797.8021850585938,787.3259887695312,780.879150390625,791.3552856445312
22,796.1904907226562,786.1171875,780.879150390625,800.2197875976562
23,783.2966918945312,786.5201416015625,782.087890625,790.952392578125
24,767.5823974609375,784.908447265625,778.4615478515625,781.6849975585938
25,776.0439453125,790.1465454101562,781.6849975585938,785.3113403320312
26,787.3259887695312,792.5640869140625,783.2966918945312,783.6996459960938
27,783.6996459960938,790.952392578125,777.2527465820312,780.4761962890625
28,784.908447265625,790.1465454101562,779.6703491210938,778.8644409179688
29,786.923095703125,789.3406372070312,781.2820434570312,782.893798828125
30,787.7289428710938,789.7435913085938,776.8497924804688,786.1171875
31,791.7582397460938,791.3552856445312,778.05859375,786.1171875
32,791.3552856445312,790.952392578125,782.4908447265625,786.5201416015625
33,787.3259887695312,787.7289428710938,786.1171875,787.3259887695312
34,788.5347900390625,788.937744140625,783.6996459960938,787.7289428710938
35,790.1465454101562,790.952392578125,784.5054931640625,784.908447265625
36,786.923095703125,794.981689453125,787.7289428710938,792.1611938476562
37,790.952392578125,788.937744140625,786.1171875,777.6557006835938
38,785.3113403320312,790.5494384765625,787.7289428710938,773.2234497070312
39,785.7142944335938,792.1611938476562,789.3406372070312,775.2380981445312
40,787.7289428710938,787.3259887695312,788.937744140625,775.6410522460938
41,790.1465454101562,784.908447265625,789.7435913085938,778.4615478515625
42,784.1025390625,787.7289428710938,786.5201416015625,779.6703491210938
43,783.2966918945312,788.5347900390625,784.5054931640625,779.2673950195312
44,788.1318969726562,786.923095703125,787.7289428710938,785.7142944335938
45,787.7289428710938,795.7875366210938,788.1318969726562,779.2673950195312
46,792.1611938476562,801.4285888671875,790.5494384765625,776.8497924804688
47,789.7435913085938,799.010986328125,789.7435913085938,781.2820434570312
48,791.3552856445312,794.5787353515625,788.5347900390625,781.2820434570312
49,792.1611938476562,791.3552856445312,793.7728881835938,780.879150390625
50,780.4761962890625,788.937744140625,795.3846435546875,786.5201416015625
51,776.0439453125,786.1171875,793.7728881835938,789.3406372070312
52,780.879150390625,790.952392578125,789.7435913085938,788.1318969726562
53,787.3259887695312,796.5933837890625,786.923095703125,790.1465454101562
54,781.6849975585938,792.967041015625,788.1318969726562,788.5347900390625
55,778.05859375,788.937744140625,782.893798828125,788.1318969726562
56,787.7289428710938,790.5494384765625,780.4761962890625,787.3259887695312
57,786.1171875,788.5347900390625,782.893798828125,788.5347900390625
58,782.893798828125,786.923095703125,783.2966918945312,791.7582397460938
59,791.3552856445312,793.7728881835938,786.923095703125,793.3699340820312
60,788.937744140625,794.5787353515625,790.1465454101562,795.3846435546875
61,785.7142944335938,788.5347900390625,789.3406372070312,798.6080322265625
62,796.1904907226562,793.7728881835938,788.937744140625,794.981689453125
63,798.2051391601562,796.5933837890625,789.3406372070312,789.7435913085938
64,797.3992919921875,790.1465454101562,789.7435913085938,787.3259887695312
65,793.3699340820312,790.1465454101562,788.5347900390625,788.937744140625
66,796.1904907226562,787.7289428710938,788.937744140625,786.1171875
67,800.6226806640625,789.3406372070312,788.5347900390625,786.5201416015625
68,789.7435913085938,795.3846435546875,791.7582397460938,790.5494384765625
69,786.5201416015625,793.3699340820312,794.1758422851562,782.087890625
70,790.952392578125,791.3552856445312,791.3552856445312,779.2673950195312
71,787.3259887695312,788.5347900390625,792.967041015625,782.893798828125
72,783.2966918945312,784.908447265625,791.3552856445312,783.2966918945312
73,786.1171875,786.1171875,787.7289428710938,777.2527465820312
74,788.1318969726562,794.1758422851562,789.3406372070312,771.6116943359375
75,786.1171875,798.6080322265625,792.967041015625,776.0439453125
76,786.923095703125,790.952392578125,791.7582397460938,781.2820434570312
77,779.6703491210938,782.087890625,790.5494384765625,778.8644409179688
78,785.3113403320312,783.2966918945312,794.1758422851562,780.0732421875
79,790.952392578125,787.7289428710938,791.3552856445312,779.2673950195312
80,795.7875366210938,790.5494384765625,791.3552856445312,778.4615478515625
81,794.1758422851562,789.3406372070312,789.7435913085938,779.6703491210938
82,792.5640869140625,789.3406372070312,789.7435913085938,784.5054931640625
83,794.5787353515625,790.1465454101562,791.3552856445312,784.5054931640625
84,794.981689453125,788.937744140625,787.7289428710938,780.4761962890625
85,792.5640869140625,789.7435913085938,784.5054931640625,778.4615478515625
86,786.5201416015625,787.3259887695312,788.1318969726562,776.8497924804688
87,780.0732421875,790.952392578125,796.5933837890625,779.2673950195312
88,784.5054931640625,790.952392578125,798.6080322265625,782.893798828125
89,787.7289428710938,783.2966918945312,791.3552856445312,784.908447265625
90,783.6996459960938,783.6996459960938,788.5347900390625,786.923095703125
91,781.2820434570312,786.1171875,794.1758422851562,784.5054931640625
92,785.3113403320312,785.7142944335938,792.967041015625,782.893798828125
93,789.7435913085938,782.4908447265625,788.937744140625,787.3259887695312
94,794.981689453125,789.3406372070312,784.908447265625,791.7582397460938
95,793.3699340820312,794.1758422851562,784.5054931640625,789.7435913085938
96,788.1318969726562,790.5494384765625,784.5054931640625,790.5494384765625
97,788.937744140625,792.967041015625,783.2966918945312,790.5494384765625
98,794.1758422851562,799.4139404296875,785.3113403320312,791.7582397460938
99,802.6373901367188,797.3992919921875,789.3406372070312,795.7875366210938
100,804.2490844726562,791.7582397460938,788.937744140625,794.981689453125
101,795.7875366210938,794.5787353515625,787.3259887695312,791.7582397460938
102,794.1758422851562,799.8168334960938,789.7435913085938,792.967041015625
103,788.937744140625,799.010986328125,791.3552856445312,793.7728881835938
104,794.1758422851562,794.981689453125,793.7728881835938,797.8021850585938
105,807.87548828125,791.3552856445312,788.937744140625,807.87548828125
106,795.7875366210938,785.7142944335938,786.923095703125,796.5933837890625
107,780.879150390625,790.5494384765625,791.3552856445312,787.3259887695312
108,781.6849975585938,798.2051391601562,788.937744140625,796.996337890625
109,778.4615478515625,796.5933837890625,784.908447265625,805.054931640625
110,784.908447265625,792.1611938476562,784.908447265625,803.4432373046875
111,793.3699340820312,784.908447265625,786.5201416015625,798.6080322265625
112,787.7289428710938,791.3552856445312,785.3113403320312,796.5933837890625
113,794.1758422851562,798.6080322265625,785.7142944335938,799.4139404296875
114,802.6373901367188,796.996337890625,786.1171875,799.8168334960938
115,803.040283203125,790.1465454101562,788.1318969726562,799.8168334960938
116,804.2490844726562,786.923095703125,792.1611938476562,799.4139404296875
117,802.6373901367188,791.3552856445312,792.5640869140625,797.8021850585938
118,793.7728881835938,788.1318969726562,791.7582397460938,796.5933837890625
119,790.952392578125,787.7289428710938,790.1465454101562,799.4139404296875
120,799.4139404296875,790.1465454101562,790.952392578125,803.8461303710938
121,797.3992919921875,794.1758422851562,793.7728881835938,806.2637329101562
122,785.3113403320312,795.3846435546875,796.1904907226562,793.3699340820312
123,782.4908447265625,788.937744140625,792.5640869140625,785.7142944335938
124,794.5787353515625,788.937744140625,791.3552856445312,796.1904907226562
125,801.8314819335938,790.1465454101562,794.5787353515625,800.6226806640625
126,802.6373901367188,789.7435913085938,793.3699340820312,799.010986328125
127,801.4285888671875,786.923095703125,794.1758422851562,793.7728881835938
128,799.8168334960938,784.1025390625,795.3846435546875,799.4139404296875
129,796.996337890625,784.908447265625,790.5494384765625,806.2637329101562
130,803.040283203125,787.3259887695312,791.3552856445312,800.6226806640625
131,804.2490844726562,788.5347900390625,791.7582397460938,791.3552856445312
132,795.3846435546875,784.908447265625,791.7582397460938,789.3406372070312
133,790.5494384765625,785.7142944335938,792.1611938476562,790.5494384765625
134,788.5347900390625,794.5787353515625,788.937744140625,789.3406372070312
135,788.5347900390625,795.7875366210938,791.3552856445312,791.7582397460938
136,796.5933837890625,791.3552856445312,789.3406372070312,787.7289428710938
137,795.3846435546875,786.5201416015625,787.7289428710938,782.4908447265625
138,786.5201416015625,776.0439453125,790.952392578125,784.5054931640625
139,792.1611938476562,773.6264038085938,788.1318969726562,791.7582397460938
140,801.025634765625,781.6849975585938,784.908447265625,786.5201416015625
141,796.5933837890625,784.1025390625,789.3406372070312,790.1465454101562
142,785.7142944335938,783.6996459960938,789.7435913085938,791.7582397460938
143,785.3113403320312,785.3113403320312,788.937744140625,789.7435913085938
144,790.952392578125,786.5201416015625,796.996337890625,802.2344360351562
145,799.4139404296875,787.7289428710938,798.2051391601562,794.1758422851562
146,801.8314819335938,791.7582397460938,799.8168334960938,789.3406372070312
147,790.952392578125,790.5494384765625,796.996337890625,788.5347900390625
148,784.5054931640625,786.5201416015625,790.1465454101562,782.087890625
149,784.908447265625,788.5347900390625,788.5347900390625,778.4615478515625
150,786.5201416015625,789.3406372070312,785.3113403320312,783.6996459960938
151,789.3406372070312,788.937744140625,783.2966918945312,789.3406372070312
152,784.1025390625,786.1171875,782.893798828125,786.1171875
153,780.0732421875,782.4908447265625,783.6996459960938,786.5201416015625
154,785.3113403320312,783.2966918945312,784.908447265625,787.3259887695312
155,787.3259887695312,784.1025390625,785.3113403320312,787.7289428710938
156,787.7289428710938,791.7582397460938,788.1318969726562,796.1904907226562
157,781.2820434570312,793.3699340820312,790.1465454101562,790.1465454101562
158,772.4176025390625,784.5054931640625,790.1465454101562,779.2673950195312
159,779.6703491210938,788.1318969726562,791.3552856445312,787.7289428710938
160,788.937744140625,789.7435913085938,787.7289428710938,785.7142944335938
161,790.952392578125,786.5201416015625,784.908447265625,776.8497924804688
162,794.5787353515625,789.7435913085938,786.5201416015625,781.6849975585938
163,790.5494384765625,789.3406372070312,788.5347900390625,783.2966918945312
164,782.893798828125,782.4908447265625,789.3406372070312,776.4468994140625
165,780.4761962890625,779.2673950195312,791.7582397460938,776.0439453125
166,787.3259887695312,782.4908447265625,788.5347900390625,790.952392578125
167,789.3406372070312,783.2966918945312,786.1171875,801.025634765625
168,780.879150390625,784.908447265625,790.5494384765625,792.1611938476562
169,776.8497924804688,784.1025390625,790.1465454101562,781.6849975585938
170,779.2673950195312,784.908447265625,790.1465454101562,774.8351440429688
171,786.5201416015625,790.1465454101562,788.1318969726562,779.2673950195312
172,788.5347900390625,790.5494384765625,788.937744140625,782.087890625
173,795.3846435546875,786.1171875,792.5640869140625,785.7142944335938
174,798.6080322265625,783.2966918945312,789.3406372070312,788.1318969726562
175,786.1171875,785.7142944335938,788.5347900390625,784.5054931640625
176,786.1171875,790.1465454101562,791.3552856445312,787.3259887695312
177,787.3259887695312,792.1611938476562,787.7289428710938,793.3699340820312
178,782.893798828125,790.1465454101562,786.1171875,791.7582397460938
179,783.6996459960938,790.952392578125,786.923095703125,778.05859375
180,781.6849975585938,792.967041015625,790.1465454101562,773.6264038085938
181,780.0732421875,792.967041015625,783.2966918945312,774.8351440429688
182,777.6557006835938,789.7435913085938,778.4615478515625,776.0439453125
183,774.8351440429688,786.5201416015625,780.0732421875,777.2527465820312
184,777.2527465820312,784.5054931640625,779.2673950195312,774.029296875
185,778.05859375,783.2966918945312,780.879150390625,777.6557006835938
186,780.879150390625,786.923095703125,780.879150390625,787.7289428710938
187,778.05859375,785.7142944335938,779.2673950195312,777.2527465820312
188,780.0732421875,778.8644409179688,782.893798828125,772.4176025390625
189,784.908447265625,782.087890625,786.1171875,780.4761962890625
190,781.2820434570312,790.1465454101562,788.1318969726562,791.7582397460938
191,784.908447265625,792.967041015625,794.981689453125,801.4285888671875
192,786.1171875,791.3552856445312,796.5933837890625,796.5933837890625
193,788.5347900390625,791.3552856445312,792.5640869140625,794.1758422851562
194,791.7582397460938,791.7582397460938,793.3699340820312,794.5787353515625
195,781.6849975585938,788.1318969726562,794.981689453125,788.5347900390625
196,779.6703491210938,786.923095703125,796.996337890625,785.7142944335938
197,785.7142944335938,792.1611938476562,794.981689453125,789.7435913085938
198,782.893798828125,796.996337890625,791.3552856445312,792.967041015625
199,787.3259887695312,796.5933837890625,788.5347900390625,787.3259887695312
200,787.7289428710938,791.3552856445312,782.087890625,775.6410522460938
201,784.1025390625,790.5494384765625,779.6703491210938,779.2673950195312
202,785.7142944335938,794.1758422851562,780.879150390625,783.2966918945312
203,792.1611938476562,793.3699340820312,782.087890625,784.5054931640625
204,800.2197875976562,787.7289428710938,785.7142944335938,791.3552856445312
205,794.5787353515625,788.1318969726562,786.5201416015625,790.5494384765625
206,790.952392578125,796.5933837890625,786.1171875,784.908447265625
207,796.996337890625,795.7875366210938,788.5347900390625,790.1465454101562
208,794.981689453125,795.3846435546875,792.1611938476562,801.025634765625
209,795.3846435546875,801.8314819335938,793.7728881835938,791.3552856445312
210,799.4139404296875,803.040283203125,789.7435913085938,782.893798828125
211,792.5640869140625,798.2051391601562,788.1318969726562,787.7289428710938
212,783.6996459960938,792.5640869140625,787.7289428710938,793.3699340820312
213,786.1171875,788.937744140625,792.1611938476562,801.8314819335938
214,787.7289428710938,794.981689453125,794.1758422851562,797.3992919921875
215,785.7142944335938,793.7728881835938,789.7435913085938,795.7875366210938
216,787.7289428710938,789.3406372070312,790.1465454101562,794.1758422851562
217,784.908447265625,785.7142944335938,794.1758422851562,789.7435913085938
218,782.087890625,783.6996459960938,794.1758422851562,789.7435913085938
219,785.7142944335938,787.7289428710938,795.7875366210938,796.996337890625
220,782.4908447265625,783.2966918945312,797.3992919921875,800.2197875976562
221,785.7142944335938,784.1025390625,794.981689453125,788.937744140625
222,794.981689453125,787.7289428710938,794.981689453125,788.1318969726562
223,793.7728881835938,790.952392578125,795.3846435546875,793.7728881835938
224,791.3552856445312,791.7582397460938,791.7582397460938,788.1318969726562
225,802.2344360351562,791.7582397460938,793.3699340820312,786.923095703125
226,805.4578857421875,793.3699340820312,794.981689453125,788.937744140625
227,792.5640869140625,791.7582397460938,788.1318969726562,785.7142944335938
228,795.3846435546875,792.967041015625,790.952392578125,788.5347900390625
229,797.3992919921875,797.3992919921875,796.5933837890625,794.981689453125
230,792.1611938476562,796.1904907226562,795.7875366210938,793.7728881835938
231,794.1758422851562,792.1611938476562,791.7582397460938,783.2966918945312
232,790.1465454101562,786.1171875,791.3552856445312,782.893798828125
233,788.937744140625,789.3406372070312,795.7875366210938,789.3406372070312
234,795.3846435546875,795.7875366210938,799.8168334960938,792.967041015625
235,794.981689453125,793.3699340820312,797.3992919921875,794.5787353515625
236,800.2197875976562,791.7582397460938,794.1758422851562,801.8314819335938
237,798.2051391601562,796.1904907226562,792.5640869140625,799.8168334960938
238,786.1171875,795.3846435546875,790.5494384765625,792.967041015625
239,789.3406372070312,792.5640869140625,790.952392578125,800.6226806640625
240,794.981689453125,792.5640869140625,789.7435913085938,801.8314819335938
241,792.1611938476562,786.923095703125,782.4908447265625,792.967041015625
242,786.5201416015625,781.2820434570312,785.3113403320312,788.5347900390625
243,785.3113403320312,785.3113403320312,790.1465454101562,787.7289428710938
244,786.923095703125,788.5347900390625,792.1611938476562,788.937744140625
245,784.1025390625,788.1318969726562,789.3406372070312,787.7289428710938
246,786.923095703125,790.1465454101562,788.5347900390625,792.1611938476562
247,794.1758422851562,788.937744140625,792.5640869140625,796.5933837890625
248,792.967041015625,788.1318969726562,794.5787353515625,792.967041015625
249,791.7582397460938,790.5494384765625,790.952392578125,789.7435913085938
250,792.967041015625,790.952392578125,786.5201416015625,786.923095703125
251,792.5640869140625,789.7435913085938,787.3259887695312,790.1465454101562
252,796.996337890625,790.5494384765625,788.5347900390625,797.8021850585938
253,801.025634765625,796.5933837890625,790.5494384765625,800.2197875976562
254,799.010986328125,800.6226806640625,792.1611938476562,797.3992919921875
255,801.4285888671875,804.6520385742188,792.1611938476562,794.5787353515625
256,804.6520385742188,807.069580078125,789.3406372070312,788.5347900390625
257,806.2637329101562,803.8461303710938,790.1465454101562,782.4908447265625
258,799.4139404296875,800.2197875976562,791.3552856445312,783.6996459960938
259,790.952392578125,797.8021850585938,789.7435913085938,786.1171875
260,787.7289428710938,796.996337890625,788.937744140625,787.3259887695312
261,781.6849975585938,795.7875366210938,789.3406372070312,788.937744140625
262,782.4908447265625,797.8021850585938,790.5494384765625,790.1465454101562
263,783.2966918945312,797.3992919921875,793.3699340820312,797.3992919921875
264,780.0732421875,794.981689453125,793.7728881835938,793.7728881835938
265,786.923095703125,795.7875366210938,794.1758422851562,794.5787353515625
266,785.7142944335938,799.010986328125,791.3552856445312,796.1904907226562
267,783.2966918945312,798.6080322265625,788.937744140625,791.7582397460938
268,796.1904907226562,799.010986328125,792.967041015625,797.8021850585938
269,799.010986328125,796.996337890625,797.3992919921875,800.6226806640625
270,794.981689453125,793.3699340820312,796.1904907226562,799.010986328125
271,795.3846435546875,791.3552856445312,796.5933837890625,799.010986328125
272,801.8314819335938,792.5640869140625,797.8021850585938,798.6080322265625
273,805.054931640625,798.6080322265625,794.981689453125,799.4139404296875
274,802.6373901367188,797.8021850585938,794.981689453125,809.89013671875
275,800.6226806640625,796.996337890625,795.7875366210938,813.113525390625
276,793.7728881835938,796.996337890625,792.5640869140625,798.2051391601562
277,795.7875366210938,796.1904907226562,789.7435913085938,785.3113403320312
278,804.2490844726562,796.1904907226562,793.7728881835938,786.923095703125
279,801.8314819335938,795.3846435546875,794.5787353515625,786.5201416015625
280,796.5933837890625,792.1611938476562,795.3846435546875,785.3113403320312
281,804.2490844726562,793.3699340820312,793.7728881835938,793.7728881835938
282,806.2637329101562,795.3846435546875,795.3846435546875,796.996337890625
283,796.1904907226562,793.7728881835938,791.7582397460938,790.952392578125
284,796.996337890625,792.967041015625,793.7728881835938,789.7435913085938
285,792.967041015625,792.967041015625,795.3846435546875,790.5494384765625
286,787.3259887695312,792.5640869140625,790.5494384765625,790.1465454101562
287,796.1904907226562,797.3992919921875,795.7875366210938,792.5640869140625
288,796.1904907226562,798.2051391601562,797.3992919921875,788.937744140625
289,792.1611938476562,793.7728881835938,795.3846435546875,789.3406372070312
290,796.996337890625,795.3846435546875,795.7875366210938,790.952392578125
291,799.8168334960938,801.8314819335938,797.8021850585938,786.923095703125
292,797.8021850585938,799.8168334960938,794.5787353515625,788.5347900390625
293,799.4139404296875,799.4139404296875,793.3699340820312,793.7728881835938
294,796.5933837890625,802.2344360351562,793.7728881835938,789.7435913085938
295,798.2051391601562,801.8314819335938,792.5640869140625,788.1318969726562
296,797.8021850585938,795.7875366210938,793.3699340820312,789.3406372070312
297,789.7435913085938,789.7435913085938,793.3699340820312,786.923095703125
298,786.923095703125,790.952392578125,790.1465454101562,787.7289428710938
299,784.908447265625,796.996337890625,786.923095703125,790.5494384765625
300,780.879150390625,802.2344360351562,788.5347900390625,788.937744140625
301,785.7142944335938,800.2197875976562,789.3406372070312,796.5933837890625
302,782.893798828125,795.3846435546875,789.3406372070312,796.5933837890625
303,781.6849975585938,796.996337890625,791.7582397460938,784.908447265625
304,791.7582397460938,800.6226806640625,793.7728881835938,784.5054931640625
305,792.1611938476562,801.4285888671875,795.7875366210938,791.7582397460938
306,792.5640869140625,801.4285888671875,797.8021850585938,796.996337890625
307,796.1904907226562,801.8314819335938,794.981689453125,794.5787353515625
308,790.5494384765625,797.3992919921875,792.967041015625,786.923095703125
309,784.908447265625,793.7728881835938,791.3552856445312,786.923095703125
310,786.5201416015625,794.5787353515625,792.5640869140625,791.7582397460938
311,784.5054931640625,792.5640869140625,791.7582397460938,790.1465454101562
312,781.2820434570312,792.5640869140625,789.3406372070312,786.5201416015625
313,783.2966918945312,789.7435913085938,792.1611938476562,794.5787353515625
314,784.1025390625,783.6996459960938,792.967041015625,789.3406372070312
315,792.1611938476562,780.4761962890625,791.7582397460938,790.1465454101562
316,792.5640869140625,780.0732421875,794.5787353515625,792.967041015625
317,780.879150390625,776.0439453125,791.7582397460938,787.3259887695312
318,785.7142944335938,778.8644409179688,789.3406372070312,790.5494384765625
319,794.1758422851562,778.4615478515625,787.7289428710938,790.1465454101562
320,794.5787353515625,781.2820434570312,782.4908447265625,784.908447265625
321,796.1904907226562,787.7289428710938,787.3259887695312,785.7142944335938
322,797.8021850585938,786.5201416015625,793.3699340820312,785.7142944335938
323,801.4285888671875,786.5201416015625,790.1465454101562,785.7142944335938
324,801.4285888671875,788.5347900390625,786.923095703125,790.5494384765625
325,794.5787353515625,788.1318969726562,788.937744140625,789.3406372070312
326,795.3846435546875,792.1611938476562,790.5494384765625,782.4908447265625
327,794.5787353515625,791.3552856445312,790.5494384765625,785.3113403320312
328,792.1611938476562,786.5201416015625,790.952392578125,783.2966918945312
329,796.996337890625,789.3406372070312,793.3699340820312,782.893798828125
330,794.981689453125,792.5640869140625,791.7582397460938,785.3113403320312
331,787.7289428710938,792.5640869140625,790.5494384765625,782.893798828125
332,788.937744140625,791.3552856445312,795.7875366210938,786.923095703125
333,792.967041015625,793.3699340820312,796.996337890625,790.952392578125
334,790.5494384765625,790.5494384765625,790.952392578125,787.7289428710938
335,794.1758422851562,786.923095703125,787.3259887695312,787.7289428710938
336,790.5494384765625,790.5494384765625,788.5347900390625,792.967041015625
337,785.3113403320312,789.7435913085938,788.1318969726562,786.1171875
338,792.5640869140625,784.908447265625,784.5054931640625,787.3259887695312
339,798.6080322265625,794.981689453125,789.7435913085938,795.3846435546875
340,807.069580078125,799.8168334960938,791.3552856445312,788.1318969726562
341,805.4578857421875,794.1758422851562,790.952392578125,794.981689453125
342,791.7582397460938,794.981689453125,794.981689453125,797.8021850585938
343,792.1611938476562,795.3846435546875,793.3699340820312,784.908447265625
344,798.6080322265625,794.981689453125,786.1171875,784.5054931640625
345,796.5933837890625,792.967041015625,786.5201416015625,788.1318969726562
346,791.7582397460938,793.7728881835938,786.5201416015625,785.3113403320312
347,790.952392578125,790.952392578125,786.923095703125,789.7435913085938
348,790.1465454101562,790.1465454101562,786.923095703125,792.1611938476562
349,786.923095703125,793.3699340820312,786.5201416015625,780.4761962890625
350,788.937744140625,791.7582397460938,788.1318969726562,779.2673950195312
351,792.967041015625,797.3992919921875,786.5201416015625,783.2966918945312
352,795.7875366210938,799.4139404296875,792.1611938476562,784.1025390625
353,794.1758422851562,797.8021850585938,793.7728881835938,784.1025390625
354,792.1611938476562,795.3846435546875,786.1171875,787.3259887695312
355,798.2051391601562,786.1171875,789.7435913085938,792.5640869140625
356,798.6080322265625,789.3406372070312,791.7582397460938,788.5347900390625
357,790.952392578125,789.7435913085938,791.3552856445312,786.5201416015625
358,791.7582397460938,790.1465454101562,790.952392578125,788.5347900390625
359,797.3992919921875,795.7875366210938,785.7142944335938,796.5933837890625
360,795.7875366210938,798.2051391601562,789.3406372070312,798.6080322265625
361,796.1904907226562,796.5933837890625,795.3846435546875,794.981689453125
362,794.981689453125,793.7728881835938,796.1904907226562,795.3846435546875
363,791.3552856445312,793.3699340820312,792.1611938476562,793.3699340820312
364,792.5640869140625,794.1758422851562,792.967041015625,790.5494384765625
365,791.7582397460938,789.3406372070312,794.5787353515625,790.5494384765625
366,789.7435913085938,785.7142944335938,788.1318969726562,783.2966918945312
367,784.5054931640625,784.1025390625,784.908447265625,780.4761962890625
368,776.8497924804688,785.3113403320312,787.3259887695312,782.893798828125
369,778.4615478515625,789.3406372070312,788.5347900390625,785.3113403320312
370,786.5201416015625,788.937744140625,788.5347900390625,793.7728881835938
371,790.5494384765625,787.7289428710938,794.1758422851562,799.010986328125
372,788.937744140625,788.1318969726562,794.981689453125,792.967041015625
373,786.1171875,791.3552856445312,789.7435913085938,794.5787353515625
374,784.5054931640625,789.7435913085938,793.7728881835938,795.3846435546875
375,784.908447265625,780.879150390625,794.1758422851562,789.7435913085938
376,785.7142944335938,783.2966918945312,788.1318969726562,791.3552856445312
377,783.6996459960938,791.7582397460938,790.952392578125,792.1611938476562
378,792.1611938476562,794.1758422851562,794.1758422851562,794.5787353515625
379,796.5933837890625,794.1758422851562,793.3699340820312,795.7875366210938
380,792.967041015625,793.7728881835938,791.7582397460938,791.3552856445312
381,794.1758422851562,793.7728881835938,787.7289428710938,799.010986328125
382,796.1904907226562,796.5933837890625,790.5494384765625,811.098876953125
383,789.3406372070312,797.8021850585938,792.1611938476562,801.8314819335938
384,784.5054931640625,796.996337890625,789.7435913085938,794.981689453125
385,789.3406372070312,799.8168334960938,789.7435913085938,797.8021850585938
386,788.5347900390625,801.8314819335938,791.7582397460938,799.4139404296875
387,782.4908447265625,798.6080322265625,790.5494384765625,787.3259887695312
388,783.2966918945312,792.1611938476562,789.3406372070312,784.5054931640625
389,790.952392578125,790.5494384765625,788.937744140625,785.7142944335938
390,791.3552856445312,792.1611938476562,790.1465454101562,783.6996459960938
391,790.952392578125,795.3846435546875,793.7728881835938,789.3406372070312
392,791.3552856445312,798.6080322265625,790.1465454101562,788.937744140625
393,791.3552856445312,794.1758422851562,786.5201416015625,787.7289428710938
394,786.5201416015625,789.7435913085938,783.6996459960938,781.2820434570312
395,783.2966918945312,794.981689453125,783.6996459960938,774.029296875
396,790.5494384765625,797.8021850585938,784.908447265625,776.0439453125
397,795.3846435546875,791.7582397460938,786.1171875,787.3259887695312
398,783.6996459960938,788.5347900390625,787.7289428710938,789.7435913085938
399,777.2527465820312,789.7435913085938,789.3406372070312,783.2966918945312
400,777.2527465820312,786.5201416015625,790.1465454101562,787.3259887695312
401,785.3113403320312,786.923095703125,791.7582397460938,796.996337890625
402,794.5787353515625,792.5640869140625,789.7435913085938,796.996337890625
403,794.1758422851562,798.2051391601562,788.1318969726562,798.2051391601562
404,795.7875366210938,797.3992919921875,788.937744140625,796.5933837890625
405,794.1758422851562,794.981689453125,790.1465454101562,792.5640869140625
406,791.7582397460938,796.5933837890625,793.7728881835938,802.6373901367188
407,789.3406372070312,793.3699340820312,794.5787353515625,805.054931640625
408,789.7435913085938,790.952392578125,793.7728881835938,803.040283203125
409,789.3406372070312,788.1318969726562,795.7875366210938,802.2344360351562
410,788.937744140625,786.1171875,794.1758422851562,797.3992919921875
411,787.3259887695312,782.893798828125,792.1611938476562,792.1611938476562
412,788.1318969726562,786.923095703125,792.5640869140625,789.7435913085938
413,789.7435913085938,791.3552856445312,792.1611938476562,787.7289428710938
414,790.5494384765625,789.7435913085938,798.2051391601562,788.1318969726562
415,790.952392578125,790.952392578125,800.6226806640625,789.7435913085938
416,789.3406372070312,791.7582397460938,792.967041015625,791.7582397460938
417,791.7582397460938,789.7435913085938,786.923095703125,791.7582397460938
418,793.7728881835938,792.967041015625,787.7289428710938,788.937744140625
419,785.7142944335938,793.3699340820312,786.5201416015625,782.4908447265625
420,780.4761962890625,792.967041015625,784.1025390625,787.3259887695312
421,785.3113403320312,792.5640869140625,786.1171875,793.3699340820312
422,783.2966918945312,788.5347900390625,786.923095703125,791.7582397460938
423,780.4761962890625,791.3552856445312,785.7142944335938,786.5201416015625
424,785.3113403320312,792.967041015625,788.937744140625,785.3113403320312
425,791.3552856445312,795.3846435546875,789.7435913085938,792.1611938476562
426,793.7728881835938,796.996337890625,790.5494384765625,802.2344360351562
427,796.5933837890625,792.5640869140625,789.3406372070312,798.2051391601562
428,797.8021850585938,793.7728881835938,788.937744140625,788.5347900390625
429,792.5640869140625,795.3846435546875,789.7435913085938,792.967041015625
430,784.5054931640625,795.7875366210938,794.5787353515625,792.1611938476562
431,787.7289428710938,801.8314819335938,797.8021850585938,792.5640869140625
432,794.1758422851562,800.2197875976562,797.8021850585938,791.7582397460938
433,791.7582397460938,790.952392578125,795.7875366210938,784.1025390625
434,786.1171875,794.981689453125,792.5640869140625,781.2820434570312
435,787.7289428710938,800.6226806640625,793.3699340820312,782.087890625
436,790.1465454101562,798.6080322265625,792.967041015625,785.3113403320312
437,793.7728881835938,798.6080322265625,790.952392578125,790.5494384765625
438,797.3992919921875,799.4139404296875,791.7582397460938,790.5494384765625
439,792.1611938476562,796.996337890625,794.1758422851562,800.6226806640625
440,782.4908447265625,794.5787353515625,790.5494384765625,807.069580078125
441,787.7289428710938,799.8168334960938,791.7582397460938,795.7875366210938
442,784.908447265625,800.6226806640625,797.3992919921875,792.967041015625
443,783.6996459960938,797.3992919921875,793.3699340820312,797.8021850585938
444,785.7142944335938,793.7728881835938,790.952392578125,794.5787353515625
445,782.4908447265625,794.5787353515625,790.5494384765625,786.1171875
446,785.3113403320312,795.7875366210938,791.7582397460938,784.1025390625
447,787.7289428710938,792.5640869140625,792.5640869140625,783.6996459960938
448,792.1611938476562,788.937744140625,789.3406372070312,788.5347900390625
449,795.3846435546875,789.7435913085938,790.5494384765625,792.5640869140625
450,790.1465454101562,791.7582397460938,794.1758422851562,782.087890625
451,780.0732421875,794.5787353515625,790.952392578125,779.6703491210938
452,781.6849975585938,794.981689453125,786.5201416015625,785.3113403320312
453,791.3552856445312,790.1465454101562,788.1318969726562,785.3113403320312
454,795.3846435546875,789.3406372070312,787.3259887695312,780.0732421875
455,790.5494384765625,795.3846435546875,784.908447265625,787.7289428710938
456,788.937744140625,792.967041015625,784.5054931640625,785.7142944335938
457,786.923095703125,789.3406372070312,781.2820434570312,776.4468994140625
458,784.5054931640625,793.7728881835938,779.6703491210938,786.923095703125
459,782.893798828125,793.7728881835938,784.908447265625,791.3552856445312
460,781.2820434570312,791.7582397460938,789.3406372070312,784.5054931640625
461,784.908447265625,790.952392578125,789.3406372070312,782.087890625
462,790.5494384765625,791.7582397460938,789.7435913085938,780.4761962890625
463,792.967041015625,788.937744140625,786.923095703125,782.087890625
464,796.1904907226562,784.5054931640625,788.1318969726562,783.6996459960938
465,793.7728881835938,785.3113403320312,789.7435913085938,784.5054931640625
466,785.7142944335938,787.7289428710938,789.3406372070312,791.7582397460938
467,779.6703491210938,790.5494384765625,790.1465454101562,796.1904907226562
468,773.2234497070312,789.7435913085938,791.3552856445312,795.7875366210938
469,774.4322509765625,789.7435913085938,789.7435913085938,788.5347900390625
470,778.4615478515625,793.7728881835938,788.937744140625,781.2820434570312
471,780.879150390625,791.3552856445312,791.3552856445312,780.0732421875
472,780.879150390625,787.3259887695312,790.1465454101562,775.2380981445312
473,786.923095703125,784.5054931640625,790.952392578125,778.05859375
474,788.937744140625,792.967041015625,793.3699340820312,784.908447265625
475,784.5054931640625,796.5933837890625,789.7435913085938,782.4908447265625
476,791.7582397460938,794.981689453125,783.6996459960938,781.6849975585938
477,794.1758422851562,794.981689453125,784.5054931640625,786.1171875
478,787.3259887695312,786.5201416015625,786.5201416015625,790.1465454101562
479,786.1171875,790.952392578125,787.3259887695312,784.5054931640625
480,786.5201416015625,793.3699340820312,790.1465454101562,777.2527465820312
481,787.3259887695312,787.3259887695312,788.937744140625,777.6557006835938
482,791.3552856445312,787.7289428710938,787.3259887695312,783.6996459960938
483,794.1758422851562,789.7435913085938,786.923095703125,790.952392578125
484,791.3552856445312,789.7435913085938,786.1171875,790.5494384765625
485,794.1758422851562,794.981689453125,786.5201416015625,793.7728881835938
486,791.7582397460938,792.5640869140625,790.1465454101562,798.6080322265625
487,793.3699340820312,792.5640869140625,789.7435913085938,797.8021850585938
488,795.3846435546875,796.1904907226562,791.7582397460938,792.5640869140625
489,796.5933837890625,796.5933837890625,793.3699340820312,792.967041015625
490,800.6226806640625,798.6080322265625,790.952392578125,791.3552856445312
491,793.3699340820312,797.3992919921875,788.937744140625,783.6996459960938
492,790.5494384765625,794.981689453125,785.7142944335938,782.4908447265625
493,789.7435913085938,792.967041015625,784.908447265625,791.3552856445312
494,789.3406372070312,798.6080322265625,788.5347900390625,789.7435913085938
495,795.3846435546875,798.2051391601562,798.6080322265625,788.1318969726562
496,796.996337890625,793.3699340820312,801.025634765625,790.1465454101562
497,793.7728881835938,794.5787353515625,797.8021850585938,790.952392578125
498,794.1758422851562,794.1758422851562,794.5787353515625,786.923095703125
499,794.981689453125,791.3552856445312,790.952392578125,780.0732421875
500,795.3846435546875,792.1611938476562,791.7582397460938,786.1171875
501,792.967041015625,795.3846435546875,789.7435913085938,790.5494384765625
502,793.7728881835938,797.3992919921875,787.7289428710938,790.5494384765625
503,798.6080322265625,792.1611938476562,789.3406372070312,791.7582397460938
504,799.8168334960938,788.5347900390625,793.7728881835938,797.3992919921875
505,804.2490844726562,794.5787353515625,796.1904907226562,810.6959838867188
506,809.084228515625,799.4139404296875,792.1611938476562,806.2637329101562
507,799.010986328125,800.6226806640625,785.7142944335938,795.7875366210938
508,799.8168334960938,797.8021850585938,786.5201416015625,798.2051391601562
509,798.6080322265625,789.7435913085938,789.3406372070312,795.7875366210938
510,785.7142944335938,786.5201416015625,787.3259887695312,790.952392578125
511,786.923095703125,786.1171875,785.7142944335938,786.5201416015625
512,785.3113403320312,789.3406372070312,788.1318969726562,786.1171875
513,782.4908447265625,792.1611938476562,791.3552856445312,790.1465454101562
514,789.7435913085938,793.3699340820312,790.1465454101562,791.7582397460938
515,790.5494384765625,790.952392578125,790.5494384765625,789.7435913085938
516,788.5347900390625,792.967041015625,793.3699340820312,790.1465454101562
517,788.5347900390625,797.8021850585938,796.1904907226562,793.3699340820312
518,788.937744140625,793.3699340820312,800.2197875976562,788.937744140625
519,791.3552856445312,792.5640869140625,799.8168334960938,788.5347900390625
520,791.3552856445312,796.1904907226562,798.6080322265625,794.5787353515625
521,787.7289428710938,798.2051391601562,801.4285888671875,792.1611938476562
522,784.1025390625,796.1904907226562,799.4139404296875,794.5787353515625
523,792.1611938476562,794.5787353515625,795.7875366210938,798.6080322265625
524,793.3699340820312,796.5933837890625,796.1904907226562,790.1465454101562
525,789.3406372070312,800.2197875976562,796.1904907226562,790.1465454101562
526,792.1611938476562,798.2051391601562,790.952392578125,799.010986328125
527,789.3406372070312,796.5933837890625,794.981689453125,800.6226806640625
528,791.3552856445312,798.2051391601562,799.010986328125,797.3992919921875
529,791.7582397460938,795.3846435546875,796.1904907226562,794.981689453125
530,784.908447265625,795.3846435546875,793.7728881835938,792.967041015625
531,782.4908447265625,796.996337890625,795.3846435546875,790.1465454101562
532,780.0732421875,796.5933837890625,792.1611938476562,786.5201416015625
533,780.879150390625,794.1758422851562,792.5640869140625,785.3113403320312
534,790.952392578125,792.5640869140625,792.967041015625,785.3113403320312
535,795.3846435546875,797.3992919921875,795.3846435546875,789.3406372070312
536,796.996337890625,798.2051391601562,795.7875366210938,792.5640869140625
537,795.3846435546875,797.3992919921875,792.1611938476562,786.923095703125
538,798.2051391601562,806.6666870117188,792.967041015625,785.7142944335938
539,799.010986328125,806.2637329101562,797.8021850585938,800.2197875976562
540,791.3552856445312,800.2197875976562,794.981689453125,797.8021850585938
541,791.3552856445312,798.6080322265625,792.5640869140625,783.6996459960938
542,787.3259887695312,790.5494384765625,796.996337890625,783.6996459960938
543,782.893798828125,785.3113403320312,793.7728881835938,787.7289428710938
544,791.3552856445312,788.5347900390625,791.7582397460938,795.3846435546875
545,797.8021850585938,789.7435913085938,793.7728881835938,801.8314819335938
546,798.6080322265625,790.5494384765625,799.010986328125,798.6080322265625
547,790.952392578125,792.5640869140625,799.010986328125,788.1318969726562
548,788.937744140625,794.1758422851562,796.1904907226562,794.1758422851562
549,794.1758422851562,792.5640869140625,795.7875366210938,798.2051391601562
550,792.1611938476562,788.937744140625,790.952392578125,794.5787353515625
551,788.937744140625,784.908447265625,790.1465454101562,794.981689453125
552,785.3113403320312,788.1318969726562,791.3552856445312,791.7582397460938
553,786.5201416015625,796.1904907226562,791.3552856445312,795.3846435546875
554,794.5787353515625,796.1904907226562,792.1611938476562,796.5933837890625
555,801.4285888671875,788.5347900390625,791.7582397460938,788.937744140625
556,799.4139404296875,790.1465454101562,790.5494384765625,785.7142944335938
557,788.5347900390625,795.3846435546875,792.5640869140625,785.7142944335938
558,776.0439453125,789.3406372070312,790.1465454101562,786.5201416015625
559,775.2380981445312,788.1318969726562,786.923095703125,786.1171875
560,780.0732421875,795.3846435546875,788.1318969726562,784.1025390625
561,786.1171875,797.3992919921875,789.7435913085938,784.908447265625
562,789.3406372070312,798.2051391601562,790.5494384765625,786.5201416015625
563,786.5201416015625,801.025634765625,791.3552856445312,782.893798828125
564,791.3552856445312,799.010986328125,794.1758422851562,786.1171875
565,793.7728881835938,796.1904907226562,793.7728881835938,792.967041015625
566,790.952392578125,796.1904907226562,794.981689453125,793.7728881835938
567,792.1611938476562,797.8021850585938,797.8021850585938,794.1758422851562
568,794.981689453125,796.996337890625,794.981689453125,793.3699340820312
569,798.6080322265625,788.937744140625,790.952392578125,798.2051391601562
570,796.996337890625,789.7435913085938,791.3552856445312,800.2197875976562
571,799.8168334960938,797.8021850585938,794.5787353515625,799.8168334960938
572,802.6373901367188,795.3846435546875,796.5933837890625,792.5640869140625
573,804.6520385742188,788.5347900390625,798.2051391601562,794.1758422851562
574,807.069580078125,793.7728881835938,801.025634765625,806.2637329101562
575,801.025634765625,799.010986328125,802.2344360351562,799.8168334960938
576,799.4139404296875,796.1904907226562,801.4285888671875,795.7875366210938
577,799.010986328125,792.967041015625,801.025634765625,798.6080322265625
578,793.7728881835938,799.8168334960938,801.4285888671875,790.952392578125
579,790.952392578125,801.4285888671875,797.8021850585938,788.937744140625
580,789.7435913085938,795.3846435546875,795.3846435546875,791.7582397460938
581,792.1611938476562,799.8168334960938,794.5787353515625,799.010986328125
582,791.7582397460938,805.4578857421875,795.7875366210938,799.010986328125
583,786.5201416015625,802.2344360351562,795.3846435546875,795.7875366210938
584,783.2966918945312,799.010986328125,800.2197875976562,793.7728881835938
585,787.7289428710938,797.3992919921875,803.8461303710938,794.5787353515625
586,792.5640869140625,793.7728881835938,799.4139404296875,801.4285888671875
587,794.981689453125,788.1318969726562,799.010986328125,804.2490844726562
588,799.8168334960938,791.7582397460938,796.996337890625,796.5933837890625
589,801.8314819335938,796.996337890625,795.7875366210938,790.1465454101562
590,797.3992919921875,793.7728881835938,796.5933837890625,788.937744140625
591,797.3992919921875,789.3406372070312,792.967041015625,788.937744140625
592,796.5933837890625,791.3552856445312,792.967041015625,794.1758422851562
593,792.1611938476562,796.5933837890625,796.5933837890625,798.6080322265625
594,790.5494384765625,794.981689453125,794.5787353515625,794.5787353515625
595,791.3552856445312,792.1611938476562,786.923095703125,790.952392578125
596,795.3846435546875,795.3846435546875,788.937744140625,799.010986328125
597,797.3992919921875,798.2051391601562,790.952392578125,805.4578857421875
598,793.7728881835938,796.1904907226562,793.7728881835938,796.996337890625
599,794.1758422851562,794.981689453125,795.7875366210938,784.908447265625
600,799.4139404296875,796.1904907226562,793.7728881835938,786.923095703125
601,798.2051391601562,795.3846435546875,792.1611938476562,797.3992919921875
602,792.967041015625,799.8168334960938,789.7435913085938,797.8021850585938
603,787.7289428710938,805.8607788085938,792.5640869140625,788.937744140625
604,784.5054931640625,803.040283203125,792.967041015625,788.5347900390625
605,790.1465454101562,799.8168334960938,793.3699340820312,788.5347900390625
606,793.3699340820312,801.8314819335938,790.5494384765625,792.1611938476562
607,789.7435913085938,799.010986328125,789.7435913085938,794.1758422851562
608,784.5054931640625,793.3699340820312,790.1465454101562,786.5201416015625
609,780.879150390625,792.967041015625,788.937744140625,786.5201416015625
610,786.1171875,790.952392578125,790.952392578125,790.5494384765625
611,792.967041015625,790.5494384765625,788.937744140625,787.3259887695312
612,791.7582397460938,791.7582397460938,788.5347900390625,786.1171875
613,787.7289428710938,785.3113403320312,789.7435913085938,783.6996459960938
614,788.937744140625,785.3113403320312,794.5787353515625,782.893798828125
615,795.7875366210938,792.5640869140625,791.7582397460938,788.1318969726562
616,801.4285888671875,794.1758422851562,792.1611938476562,790.952392578125
617,800.2197875976562,794.1758422851562,794.1758422851562,789.7435913085938
618,794.1758422851562,795.3846435546875,789.7435913085938,787.7289428710938
619,786.5201416015625,794.5787353515625,792.5640869140625,786.923095703125
620,785.3113403320312,789.3406372070312,794.981689453125,795.3846435546875
621,787.3259887695312,790.1465454101562,794.5787353515625,794.981689453125
622,791.3552856445312,796.1904907226562,796.996337890625,789.3406372070312
623,795.7875366210938,793.7728881835938,799.4139404296875,795.3846435546875
624,794.981689453125,790.1465454101562,796.1904907226562,803.4432373046875
625,795.3846435546875,794.981689453125,793.7728881835938,799.8168334960938
626,799.4139404296875,795.7875366210938,792.1611938476562,787.7289428710938
627,790.5494384765625,800.6226806640625,790.5494384765625,788.937744140625
628,781.2820434570312,798.2051391601562,789.7435913085938,790.5494384765625
629,773.6264038085938,792.967041015625,788.1318969726562,782.893798828125
630,774.4322509765625,793.7728881835938,786.923095703125,780.879150390625
631,777.6557006835938,794.981689453125,789.7435913085938,781.6849975585938
632,777.6557006835938,789.3406372070312,794.1758422851562,780.0732421875
633,778.05859375,782.893798828125,790.5494384765625,780.0732421875
634,776.4468994140625,783.2966918945312,788.5347900390625,780.879150390625
635,779.6703491210938,789.7435913085938,793.3699340820312,788.937744140625
636,779.6703491210938,790.952392578125,791.7582397460938,786.923095703125
637,784.1025390625,787.7289428710938,787.3259887695312,780.4761962890625
638,791.3552856445312,787.3259887695312,790.952392578125,782.4908447265625
639,788.937744140625,785.3113403320312,790.952392578125,788.937744140625
640,787.3259887695312,788.5347900390625,788.937744140625,786.923095703125
641,784.908447265625,782.4908447265625,791.3552856445312,780.4761962890625
642,785.7142944335938,776.0439453125,791.3552856445312,788.5347900390625
643,783.6996459960938,784.908447265625,792.5640869140625,790.1465454101562
644,780.4761962890625,791.7582397460938,792.5640869140625,785.3113403320312
645,784.908447265625,793.3699340820312,792.967041015625,786.1171875
646,790.1465454101562,790.952392578125,794.981689453125,790.952392578125
647,792.1611938476562,790.1465454101562,792.967041015625,795.7875366210938
648,791.7582397460938,789.7435913085938,793.7728881835938,791.7582397460938
649,788.1318969726562,787.7289428710938,795.3846435546875,790.952392578125
650,792.1611938476562,787.3259887695312,796.1904907226562,795.3846435546875
651,797.8021850585938,788.937744140625,794.5787353515625,794.5787353515625
652,797.8021850585938,792.1611938476562,790.952392578125,796.1904907226562
653,800.6226806640625,794.1758422851562,790.5494384765625,796.5933837890625
654,797.3992919921875,788.937744140625,792.5640869140625,784.5054931640625
655,788.1318969726562,786.1171875,792.1611938476562,783.6996459960938
656,783.2966918945312,793.7728881835938,792.1611938476562,787.3259887695312
657,783.6996459960938,798.2051391601562,792.5640869140625,786.5201416015625
658,782.4908447265625,793.7728881835938,788.937744140625,788.1318969726562
659,786.1171875,792.967041015625,789.3406372070312,794.981689453125
660,777.6557006835938,791.7582397460938,787.3259887695312,786.5201416015625
661,774.4322509765625,788.5347900390625,787.7289428710938,786.1171875
662,780.4761962890625,782.893798828125,787.7289428710938,786.1171875
663,785.7142944335938,782.087890625,786.5201416015625,783.2966918945312
664,784.1025390625,785.7142944335938,785.7142944335938,779.6703491210938
665,773.6264038085938,781.2820434570312,783.6996459960938,775.2380981445312
666,772.8204956054688,783.6996459960938,786.5201416015625,784.908447265625
667,778.8644409179688,787.7289428710938,788.937744140625,798.2051391601562
668,781.6849975585938,784.1025390625,790.952392578125,796.996337890625
669,783.6996459960938,784.1025390625,788.5347900390625,784.1025390625
670,780.4761962890625,784.908447265625,784.1025390625,776.4468994140625
671,776.8497924804688,780.0732421875,784.908447265625,774.029296875
672,784.1025390625,780.4761962890625,787.7289428710938,774.8351440429688
673,784.1025390625,782.087890625,790.952392578125,779.2673950195312
674,779.6703491210938,782.893798828125,789.7435913085938,784.908447265625
675,787.7289428710938,788.937744140625,787.3259887695312,786.5201416015625
676,790.952392578125,790.5494384765625,786.1171875,785.7142944335938
677,799.010986328125,790.952392578125,787.3259887695312,788.5347900390625
678,802.2344360351562,791.7582397460938,790.1465454101562,791.7582397460938
679,789.7435913085938,793.3699340820312,788.937744140625,785.3113403320312
680,793.7728881835938,792.5640869140625,790.952392578125,783.2966918945312
681,793.3699340820312,792.967041015625,796.1904907226562,793.3699340820312
682,783.6996459960938,792.967041015625,793.3699340820312,790.5494384765625
683,788.5347900390625,787.7289428710938,791.3552856445312,788.5347900390625
684,792.967041015625,784.1025390625,792.5640869140625,789.7435913085938
685,784.5054931640625,785.3113403320312,789.3406372070312,792.1611938476562
686,773.2234497070312,780.4761962890625,788.5347900390625,791.3552856445312
687,772.0146484375,783.6996459960938,786.1171875,785.7142944335938
688,780.4761962890625,791.7582397460938,784.5054931640625,788.937744140625
689,782.893798828125,790.5494384765625,790.952392578125,784.908447265625
690,781.2820434570312,788.937744140625,792.5640869140625,780.0732421875
691,780.879150390625,788.937744140625,790.5494384765625,780.0732421875
692,782.893798828125,792.967041015625,792.1611938476562,781.2820434570312
693,781.6849975585938,793.7728881835938,788.5347900390625,784.1025390625
694,774.4322509765625,789.3406372070312,782.087890625,783.2966918945312
695,782.4908447265625,790.952392578125,786.923095703125,780.0732421875
696,795.7875366210938,794.1758422851562,794.5787353515625,788.1318969726562
697,789.7435913085938,794.5787353515625,791.3552856445312,799.4139404296875
698,788.1318969726562,794.5787353515625,786.5201416015625,789.7435913085938
699,790.952392578125,795.3846435546875,787.3259887695312,786.923095703125
700,790.952392578125,799.4139404296875,786.5201416015625,789.7435913085938
701,787.3259887695312,794.5787353515625,785.3113403320312,791.3552856445312
702,790.1465454101562,794.1758422851562,786.5201416015625,792.5640869140625
703,799.8168334960938,796.996337890625,790.1465454101562,792.5640869140625
704,794.1758422851562,791.3552856445312,788.5347900390625,793.3699340820312
705,789.7435913085938,790.952392578125,790.5494384765625,786.5201416015625
706,792.1611938476562,796.1904907226562,794.5787353515625,782.087890625
707,792.5640869140625,803.4432373046875,797.3992919921875,786.923095703125
708,795.3846435546875,802.6373901367188,796.1904907226562,791.7582397460938
709,797.3992919921875,793.3699340820312,793.7728881835938,790.952392578125
710,794.5787353515625,792.5640869140625,794.1758422851562,789.3406372070312
711,793.3699340820312,795.3846435546875,790.5494384765625,793.7728881835938
712,793.7728881835938,791.3552856445312,788.937744140625,799.010986328125
713,798.6080322265625,790.1465454101562,789.7435913085938,793.3699340820312
714,799.4139404296875,791.7582397460938,788.5347900390625,788.937744140625
715,789.7435913085938,792.967041015625,789.7435913085938,789.7435913085938
716,784.5054931640625,792.1611938476562,789.7435913085938,781.6849975585938
717,794.1758422851562,789.3406372070312,790.952392578125,785.3113403320312
718,797.8021850585938,790.1465454101562,792.967041015625,790.5494384765625
719,796.996337890625,792.967041015625,792.1611938476562,793.7728881835938
720,794.1758422851562,793.3699340820312,792.5640869140625,803.8461303710938
721,789.7435913085938,794.5787353515625,794.5787353515625,799.4139404296875
722,783.2966918945312,794.981689453125,792.5640869140625,789.7435913085938
723,786.1171875,794.981689453125,787.3259887695312,786.1171875
724,786.923095703125,794.5787353515625,790.952392578125,788.1318969726562
725,781.2820434570312,791.7582397460938,793.7728881835938,789.7435913085938
726,784.5054931640625,793.7728881835938,789.7435913085938,784.5054931640625
727,790.1465454101562,798.2051391601562,786.923095703125,784.908447265625
728,795.7875366210938,800.6226806640625,790.5494384765625,791.7582397460938
729,792.5640869140625,799.4139404296875,789.7435913085938,792.5640869140625
730,795.3846435546875,800.6226806640625,788.1318969726562,792.1611938476562
731,792.967041015625,801.4285888671875,790.952392578125,791.7582397460938
732,782.087890625,795.3846435546875,787.3259887695312,786.5201416015625
733,788.1318969726562,789.3406372070312,791.7582397460938,790.5494384765625
734,796.5933837890625,792.967041015625,794.5787353515625,798.6080322265625
735,796.996337890625,801.4285888671875,794.5787353515625,796.5933837890625
736,797.3992919921875,798.2051391601562,794.981689453125,789.3406372070312
737,798.2051391601562,796.1904907226562,792.1611938476562,787.7289428710938
738,795.7875366210938,794.5787353515625,791.3552856445312,789.3406372070312
739,788.5347900390625,790.5494384765625,791.7582397460938,785.3113403320312
740,788.5347900390625,788.1318969726562,793.3699340820312,788.937744140625
741,788.1318969726562,789.3406372070312,792.967041015625,786.923095703125
742,777.6557006835938,789.3406372070312,792.5640869140625,777.2527465820312
743,778.05859375,788.937744140625,794.5787353515625,785.3113403320312
744,784.5054931640625,788.937744140625,794.981689453125,784.908447265625
745,785.3113403320312,786.923095703125,798.6080322265625,775.6410522460938
746,789.3406372070312,788.5347900390625,801.025634765625,780.879150390625
747,783.6996459960938,792.1611938476562,794.5787353515625,781.2820434570312
748,771.6116943359375,790.952392578125,790.952392578125,784.908447265625
749,769.1941528320312,790.952392578125,788.937744140625,783.6996459960938
750,776.8497924804688,794.1758422851562,785.3113403320312,777.6557006835938
751,780.4761962890625,794.981689453125,786.1171875,774.8351440429688
752,777.2527465820312,795.7875366210938,788.1318969726562,776.8497924804688
753,775.6410522460938,796.1904907226562,788.1318969726562,778.8644409179688
754,782.087890625,791.7582397460938,788.5347900390625,788.1318969726562
755,781.6849975585938,793.3699340820312,788.1318969726562,792.1611938476562
756,780.0732421875,796.1904907226562,786.5201416015625,780.879150390625
757,783.2966918945312,791.7582397460938,786.923095703125,771.2088012695312
758,785.7142944335938,788.937744140625,790.5494384765625,780.879150390625
759,788.1318969726562,790.1465454101562,789.3406372070312,786.5201416015625
760,796.996337890625,792.1611938476562,789.7435913085938,790.5494384765625
761,793.3699340820312,791.3552856445312,789.3406372070312,787.3259887695312
762,780.879150390625,788.1318969726562,788.937744140625,788.5347900390625
763,784.908447265625,786.5201416015625,789.3406372070312,796.996337890625
764,790.952392578125,788.5347900390625,792.5640869140625,788.937744140625
765,794.981689453125,794.981689453125,796.1904907226562,792.967041015625
766,792.5640869140625,794.1758422851562,794.5787353515625,802.2344360351562
767,785.7142944335938,790.1465454101562,792.5640869140625,794.981689453125
768,785.7142944335938,786.5201416015625,791.7582397460938,792.1611938476562
769,786.5201416015625,784.908447265625,791.7582397460938,799.010986328125
770,788.937744140625,791.3552856445312,796.1904907226562,806.6666870117188
771,795.3846435546875,796.5933837890625,797.3992919921875,803.4432373046875
772,795.3846435546875,790.5494384765625,790.952392578125,796.1904907226562
773,797.3992919921875,789.3406372070312,787.3259887695312,796.5933837890625
774,804.6520385742188,794.5787353515625,791.7582397460938,790.1465454101562
775,789.7435913085938,795.7875366210938,793.7728881835938,778.8644409179688
776,778.05859375,796.996337890625,792.1611938476562,777.6557006835938
777,780.0732421875,798.6080322265625,793.3699340820312,780.0732421875
778,783.6996459960938,799.8168334960938,792.5640869140625,781.2820434570312
779,788.1318969726562,796.996337890625,790.5494384765625,782.087890625
780,793.7728881835938,790.1465454101562,786.923095703125,777.6557006835938
781,792.1611938476562,789.7435913085938,785.7142944335938,784.5054931640625
782,786.1171875,797.3992919921875,789.7435913085938,786.5201416015625
783,782.4908447265625,798.6080322265625,792.1611938476562,776.4468994140625
784,780.879150390625,794.1758422851562,789.3406372070312,774.029296875
785,780.4761962890625,790.1465454101562,789.7435913085938,779.2673950195312
786,781.6849975585938,787.7289428710938,786.1171875,778.4615478515625
787,783.2966918945312,791.3552856445312,788.5347900390625,776.4468994140625
788,784.908447265625,792.1611938476562,795.7875366210938,787.3259887695312
789,785.7142944335938,784.5054931640625,793.7728881835938,793.3699340820312
790,791.3552856445312,786.5201416015625,793.3699340820312,792.5640869140625
791,796.1904907226562,790.952392578125,793.7728881835938,794.1758422851562
792,795.7875366210938,789.7435913085938,791.3552856445312,802.2344360351562
793,797.8021850585938,786.923095703125,793.7728881835938,807.4725341796875
794,794.5787353515625,789.7435913085938,795.3846435546875,803.4432373046875
795,794.981689453125,796.996337890625,792.967041015625,803.4432373046875
796,802.6373901367188,794.981689453125,797.8021850585938,805.054931640625
797,799.4139404296875,792.1611938476562,798.2051391601562,804.2490844726562
798,800.6226806640625,793.7728881835938,795.3846435546875,804.2490844726562
799,810.2930297851562,795.7875366210938,796.5933837890625,803.040283203125
800,807.87548828125,801.025634765625,792.5640869140625,803.8461303710938
801,804.2490844726562,798.2051391601562,788.1318969726562,801.8314819335938
802,807.4725341796875,796.996337890625,788.5347900390625,794.981689453125
803,802.2344360351562,797.8021850585938,791.3552856445312,789.7435913085938
804,801.025634765625,797.8021850585938,794.5787353515625,799.8168334960938
805,801.4285888671875,801.8314819335938,798.2051391601562,800.6226806640625
806,798.6080322265625,803.8461303710938,796.5933837890625,788.937744140625
807,791.7582397460938,801.8314819335938,797.8021850585938,784.5054931640625
808,790.5494384765625,801.8314819335938,800.2197875976562,786.1171875
809,794.1758422851562,800.2197875976562,794.981689453125,784.908447265625
810,792.1611938476562,796.1904907226562,795.7875366210938,788.1318969726562
811,784.5054931640625,792.1611938476562,799.4139404296875,794.981689453125
812,778.05859375,789.3406372070312,798.2051391601562,792.1611938476562
813,775.6410522460938,793.7728881835938,797.3992919921875,789.7435913085938
814,778.4615478515625,794.5787353515625,796.1904907226562,784.908447265625
815,786.5201416015625,795.7875366210938,799.8168334960938,789.7435913085938
816,786.5201416015625,793.3699340820312,800.2197875976562,791.7582397460938
817,778.05859375,786.923095703125,792.1611938476562,783.6996459960938
818,778.4615478515625,787.3259887695312,787.7289428710938,794.5787353515625
819,783.2966918945312,788.5347900390625,793.3699340820312,798.2051391601562
820,794.1758422851562,791.3552856445312,790.1465454101562,788.1318969726562
821,805.054931640625,794.981689453125,790.1465454101562,786.923095703125
822,801.8314819335938,794.1758422851562,795.7875366210938,796.1904907226562
823,804.2490844726562,790.1465454101562,790.952392578125,796.996337890625
824,807.069580078125,792.1611938476562,790.5494384765625,786.5201416015625
825,809.084228515625,796.996337890625,797.8021850585938,790.1465454101562
826,812.3076782226562,798.6080322265625,792.967041015625,793.3699340820312
827,811.098876953125,796.1904907226562,789.7435913085938,802.2344360351562
828,805.4578857421875,796.996337890625,792.1611938476562,804.6520385742188
829,799.010986328125,798.2051391601562,792.1611938476562,786.5201416015625
830,792.5640869140625,796.1904907226562,794.1758422851562,778.05859375
831,785.3113403320312,796.996337890625,794.1758422851562,785.3113403320312
832,777.6557006835938,795.3846435546875,793.7728881835938,791.3552856445312
833,771.2088012695312,793.3699340820312,792.1611938476562,791.3552856445312
834,775.6410522460938,794.1758422851562,791.7582397460938,787.7289428710938
835,774.029296875,796.5933837890625,791.3552856445312,781.6849975585938
836,774.029296875,796.1904907226562,792.1611938476562,782.893798828125
837,776.0439453125,792.5640869140625,794.981689453125,784.1025390625
838,770.8058471679688,790.952392578125,798.2051391601562,785.3113403320312
839,766.7765502929688,788.1318969726562,795.3846435546875,790.5494384765625
840,771.2088012695312,786.1171875,794.5787353515625,788.5347900390625
841,775.6410522460938,786.5201416015625,796.1904907226562,790.5494384765625
842,783.2966918945312,786.923095703125,792.967041015625,792.1611938476562
843,792.1611938476562,791.3552856445312,796.996337890625,791.7582397460938
844,786.5201416015625,794.5787353515625,801.025634765625,792.5640869140625
845,792.967041015625,795.3846435546875,794.5787353515625,792.5640869140625
846,799.4139404296875,795.3846435546875,792.1611938476562,792.5640869140625
847,796.5933837890625,798.6080322265625,794.981689453125,787.3259887695312
848,797.3992919921875,803.040283203125,792.1611938476562,787.7289428710938
849,795.7875366210938,800.6226806640625,789.3406372070312,785.3113403320312
850,798.6080322265625,799.8168334960938,792.967041015625,792.967041015625
851,798.2051391601562,799.010986328125,796.1904907226562,800.6226806640625
852,802.6373901367188,799.8168334960938,796.1904907226562,795.7875366210938
853,800.6226806640625,798.6080322265625,793.7728881835938,789.7435913085938
854,790.1465454101562,805.4578857421875,793.3699340820312,784.908447265625
855,796.1904907226562,811.098876953125,796.5933837890625,785.3113403320312
856,796.996337890625,805.4578857421875,790.5494384765625,782.087890625
857,790.1465454101562,799.010986328125,791.7582397460938,784.908447265625
858,787.7289428710938,800.6226806640625,794.5787353515625,790.952392578125
859,782.4908447265625,800.6226806640625,788.937744140625,786.1171875
860,779.2673950195312,800.6226806640625,791.7582397460938,786.1171875
861,776.8497924804688,801.4285888671875,794.5787353515625,786.923095703125
862,775.6410522460938,793.7728881835938,790.952392578125,787.3259887695312
863,774.8351440429688,794.1758422851562,792.5640869140625,785.3113403320312
864,782.4908447265625,791.7582397460938,792.5640869140625,783.6996459960938
865,787.3259887695312,785.3113403320312,793.3699340820312,784.5054931640625
866,778.4615478515625,787.7289428710938,792.1611938476562,792.5640869140625
867,775.2380981445312,787.7289428710938,788.5347900390625,794.981689453125
868,778.8644409179688,785.7142944335938,788.5347900390625,787.3259887695312
869,777.2527465820312,783.2966918945312,786.923095703125,780.4761962890625
870,778.4615478515625,785.7142944335938,785.3113403320312,779.6703491210938
871,786.5201416015625,788.5347900390625,783.2966918945312,779.2673950195312
872,789.3406372070312,788.5347900390625,781.2820434570312,782.087890625
873,792.1611938476562,786.5201416015625,780.879150390625,783.2966918945312
874,789.7435913085938,778.8644409179688,782.893798828125,778.8644409179688
875,780.4761962890625,778.4615478515625,784.5054931640625,778.05859375
876,786.5201416015625,786.923095703125,786.923095703125,778.05859375
877,787.7289428710938,787.7289428710938,784.1025390625,786.1171875
878,778.8644409179688,789.7435913085938,777.6557006835938,780.4761962890625
879,777.6557006835938,792.967041015625,782.087890625,774.8351440429688
880,778.4615478515625,793.3699340820312,784.5054931640625,779.2673950195312
881,779.6703491210938,792.967041015625,780.879150390625,778.8644409179688
882,780.4761962890625,788.1318969726562,781.6849975585938,774.8351440429688
883,778.4615478515625,790.1465454101562,779.6703491210938,774.8351440429688
884,778.4615478515625,790.1465454101562,780.4761962890625,780.4761962890625
885,781.2820434570312,784.908447265625,787.7289428710938,785.7142944335938
886,784.908447265625,792.5640869140625,789.3406372070312,788.937744140625
887,789.3406372070312,792.967041015625,787.3259887695312,786.1171875
888,789.3406372070312,788.937744140625,784.908447265625,782.4908447265625
889,786.923095703125,790.5494384765625,784.5054931640625,788.937744140625
890,790.5494384765625,789.3406372070312,786.5201416015625,782.893798828125
891,786.5201416015625,789.3406372070312,783.2966918945312,778.8644409179688
892,792.1611938476562,793.7728881835938,785.7142944335938,785.7142944335938
893,799.010986328125,796.1904907226562,790.1465454101562,787.3259887695312
894,789.3406372070312,788.937744140625,784.908447265625,785.7142944335938
895,785.7142944335938,785.3113403320312,784.5054931640625,783.2966918945312
896,782.087890625,787.7289428710938,788.1318969726562,779.6703491210938
897,783.6996459960938,794.1758422851562,789.3406372070312,782.087890625
898,789.3406372070312,790.1465454101562,788.937744140625,780.4761962890625
899,785.3113403320312,785.3113403320312,785.7142944335938,778.4615478515625
900,777.2527465820312,788.5347900390625,788.1318969726562,780.879150390625
901,778.8644409179688,790.1465454101562,791.7582397460938,784.908447265625
902,777.6557006835938,793.7728881835938,788.5347900390625,781.2820434570312
903,780.879150390625,794.1758422851562,787.3259887695312,780.0732421875
904,779.6703491210938,794.1758422851562,791.3552856445312,781.6849975585938
905,778.8644409179688,797.8021850585938,795.3846435546875,782.4908447265625
906,782.893798828125,796.996337890625,796.996337890625,783.2966918945312
907,780.0732421875,793.3699340820312,792.967041015625,780.879150390625
908,780.4761962890625,796.1904907226562,791.3552856445312,786.923095703125
909,781.6849975585938,792.5640869140625,791.3552856445312,789.7435913085938
910,782.893798828125,790.1465454101562,791.3552856445312,790.1465454101562
911,787.3259887695312,792.1611938476562,791.3552856445312,794.1758422851562
912,781.2820434570312,790.5494384765625,786.923095703125,801.025634765625
913,778.8644409179688,791.7582397460938,784.5054931640625,796.996337890625
914,786.5201416015625,794.5787353515625,787.7289428710938,791.7582397460938
915,793.3699340820312,797.3992919921875,786.923095703125,798.6080322265625
916,800.2197875976562,791.3552856445312,784.908447265625,794.5787353515625
917,807.069580078125,791.7582397460938,788.937744140625,788.5347900390625
918,804.6520385742188,796.1904907226562,792.1611938476562,791.3552856445312
919,799.8168334960938,797.3992919921875,790.5494384765625,786.5201416015625
920,801.4285888671875,794.981689453125,789.3406372070312,784.1025390625
921,803.040283203125,796.5933837890625,791.3552856445312,790.1465454101562
922,806.2637329101562,799.4139404296875,790.1465454101562,791.3552856445312
923,813.5164794921875,796.5933837890625,788.1318969726562,797.3992919921875
924,810.6959838867188,797.8021850585938,789.7435913085938,799.8168334960938
925,796.5933837890625,797.8021850585938,786.923095703125,793.7728881835938
926,784.908447265625,791.7582397460938,784.908447265625,792.967041015625
927,786.1171875,788.937744140625,787.3259887695312,794.1758422851562
928,788.1318969726562,783.2966918945312,789.3406372070312,788.5347900390625
929,793.7728881835938,786.1171875,789.7435913085938,788.5347900390625
930,797.3992919921875,790.5494384765625,793.3699340820312,788.5347900390625
931,790.952392578125,786.923095703125,793.7728881835938,785.7142944335938
932,784.1025390625,788.5347900390625,790.5494384765625,780.879150390625
933,783.2966918945312,789.3406372070312,792.1611938476562,776.8497924804688
934,786.923095703125,787.3259887695312,789.7435913085938,778.4615478515625
935,787.7289428710938,786.923095703125,788.1318969726562,780.4761962890625
936,788.5347900390625,793.3699340820312,792.5640869140625,776.4468994140625
937,790.5494384765625,796.5933837890625,793.3699340820312,780.4761962890625
938,786.5201416015625,795.3846435546875,787.7289428710938,784.1025390625
939,788.5347900390625,794.981689453125,787.7289428710938,783.2966918945312
940,793.3699340820312,795.3846435546875,791.3552856445312,786.1171875
941,788.1318969726562,796.5933837890625,790.952392578125,785.7142944335938
942,787.7289428710938,793.7728881835938,792.5640869140625,785.3113403320312
943,787.7289428710938,792.5640869140625,789.3406372070312,778.4615478515625
944,789.7435913085938,789.3406372070312,784.1025390625,775.2380981445312
945,791.3552856445312,786.923095703125,784.5054931640625,781.6849975585938
946,787.7289428710938,793.3699340820312,786.923095703125,790.1465454101562
947,787.7289428710938,791.3552856445312,784.5054931640625,791.3552856445312
948,789.3406372070312,786.5201416015625,782.893798828125,784.908447265625
949,791.3552856445312,789.7435913085938,785.7142944335938,790.952392578125
950,786.923095703125,785.7142944335938,785.7142944335938,781.6849975585938
951,778.8644409179688,783.2966918945312,785.7142944335938,777.6557006835938
952,779.6703491210938,789.3406372070312,789.7435913085938,786.1171875
953,786.923095703125,793.3699340820312,790.952392578125,790.952392578125
954,787.7289428710938,795.7875366210938,792.5640869140625,798.6080322265625
955,795.3846435546875,796.5933837890625,796.996337890625,805.4578857421875
956,794.1758422851562,790.952392578125,790.952392578125,796.1904907226562
957,784.1025390625,789.3406372070312,784.5054931640625,786.5201416015625
958,786.923095703125,794.1758422851562,785.7142944335938,784.908447265625
959,786.923095703125,789.7435913085938,785.3113403320312,777.6557006835938
960,787.3259887695312,792.1611938476562,784.5054931640625,774.8351440429688
961,786.923095703125,792.967041015625,782.087890625,778.05859375
962,785.3113403320312,787.7289428710938,781.6849975585938,779.2673950195312
963,796.5933837890625,787.7289428710938,788.937744140625,782.893798828125
964,805.8607788085938,789.7435913085938,793.7728881835938,792.5640869140625
965,801.8314819335938,794.981689453125,794.1758422851562,794.1758422851562
966,790.5494384765625,790.952392578125,790.1465454101562,784.1025390625
967,786.5201416015625,793.3699340820312,791.7582397460938,785.3113403320312
968,788.5347900390625,796.5933837890625,800.6226806640625,792.5640869140625
969,789.7435913085938,793.7728881835938,803.8461303710938,798.6080322265625
970,791.3552856445312,793.7728881835938,803.8461303710938,802.2344360351562
971,790.1465454101562,789.3406372070312,801.4285888671875,791.3552856445312
972,786.5201416015625,783.2966918945312,801.8314819335938,787.7289428710938
973,791.3552856445312,784.1025390625,805.054931640625,801.025634765625
974,796.1904907226562,792.967041015625,803.8461303710938,799.8168334960938
975,792.5640869140625,794.5787353515625,802.6373901367188,791.7582397460938
976,797.3992919921875,796.1904907226562,801.4285888671875,792.1611938476562
977,793.7728881835938,801.4285888671875,800.2197875976562,791.3552856445312
978,788.5347900390625,798.6080322265625,803.4432373046875,792.5640869140625
979,797.3992919921875,797.8021850585938,805.054931640625,793.3699340820312
980,798.6080322265625,799.010986328125,800.2197875976562,792.5640869140625
981,790.952392578125,801.025634765625,793.7728881835938,792.1611938476562
982,788.1318969726562,800.6226806640625,792.5640869140625,784.908447265625
983,791.3552856445312,793.3699340820312,788.1318969726562,774.029296875
984,796.996337890625,796.996337890625,784.5054931640625,778.8644409179688
985,791.3552856445312,802.2344360351562,785.7142944335938,784.908447265625
986,787.3259887695312,799.4139404296875,783.2966918945312,777.6557006835938
987,794.1758422851562,798.6080322265625,787.3259887695312,776.4468994140625
988,787.7289428710938,792.1611938476562,787.3259887695312,782.087890625
989,782.893798828125,789.7435913085938,788.5347900390625,782.4908447265625
990,785.3113403320312,794.1758422851562,792.967041015625,777.6557006835938
991,782.087890625,796.996337890625,791.7582397460938,780.4761962890625
992,777.2527465820312,793.3699340820312,790.5494384765625,790.5494384765625
993,770.8058471679688,790.5494384765625,789.3406372070312,790.1465454101562
994,771.6116943359375,790.952392578125,792.1611938476562,784.1025390625
995,781.2820434570312,790.952392578125,796.996337890625,792.5640869140625
996,778.4615478515625,790.1465454101562,799.010986328125,801.025634765625
997,774.029296875,788.1318969726562,797.3992919921875,790.1465454101562
998,780.0732421875,790.5494384765625,796.5933837890625,785.3113403320312
999,782.893798828125,790.952392578125,792.5640869140625,793.3699340820312
1000,780.0732421875,787.3259887695312,792.5640869140625,786.1171875
1001,786.1171875,786.923095703125,793.3699340820312,777.2527465820312
1002,793.7728881835938,786.923095703125,790.952392578125,778.05859375
1003,790.1465454101562,783.6996459960938,790.952392578125,779.6703491210938
1004,788.5347900390625,782.893798828125,788.937744140625,777.2527465820312
1005,784.908447265625,790.5494384765625,788.937744140625,776.8497924804688
1006,778.05859375,794.5787353515625,792.967041015625,781.6849975585938
1007,776.8497924804688,794.981689453125,794.1758422851562,777.6557006835938
1008,780.879150390625,796.1904907226562,790.5494384765625,776.8497924804688
1009,792.1611938476562,794.5787353515625,790.952392578125,784.1025390625
1010,791.7582397460938,792.5640869140625,792.5640869140625,784.908447265625
1011,788.1318969726562,788.5347900390625,790.5494384765625,780.0732421875
1012,791.3552856445312,791.3552856445312,792.967041015625,782.087890625
1013,792.1611938476562,796.5933837890625,795.7875366210938,781.6849975585938
1014,796.5933837890625,793.7728881835938,794.981689453125,790.1465454101562
1015,800.2197875976562,794.981689453125,794.981689453125,796.1904907226562
1016,794.5787353515625,795.7875366210938,789.7435913085938,795.3846435546875
1017,787.7289428710938,794.5787353515625,790.5494384765625,793.7728881835938
1018,791.3552856445312,792.967041015625,792.967041015625,792.5640869140625
1019,799.8168334960938,792.1611938476562,790.1465454101562,799.8168334960938
1020,803.040283203125,795.3846435546875,789.3406372070312,799.010986328125
1021,800.6226806640625,795.7875366210938,787.3259887695312,787.7289428710938
1022,791.3552856445312,791.7582397460938,788.937744140625,784.5054931640625
1023,785.7142944335938,798.2051391601562,795.7875366210938,797.3992919921875
1024,784.908447265625,794.981689453125,798.6080322265625,799.8168334960938
1025,784.908447265625,792.5640869140625,795.3846435546875,793.7728881835938
1026,792.1611938476562,797.8021850585938,792.967041015625,793.7728881835938
1027,794.5787353515625,796.996337890625,796.5933837890625,788.937744140625
1028,787.3259887695312,796.5933837890625,797.8021850585938,782.4908447265625
1029,783.6996459960938,794.5787353515625,794.5787353515625,780.0732421875
1030,788.5347900390625,792.1611938476562,790.5494384765625,782.4908447265625
1031,792.967041015625,791.3552856445312,789.3406372070312,790.5494384765625
1032,791.7582397460938,796.1904907226562,794.1758422851562,787.7289428710938
1033,790.952392578125,797.8021850585938,793.3699340820312,781.6849975585938
1034,791.7582397460938,795.3846435546875,790.5494384765625,784.908447265625
1035,784.5054931640625,794.1758422851562,790.1465454101562,786.5201416015625
1036,783.2966918945312,790.5494384765625,787.7289428710938,788.5347900390625
1037,788.1318969726562,786.1171875,787.7289428710938,794.1758422851562
1038,785.3113403320312,784.5054931640625,789.7435913085938,793.7728881835938
1039,782.893798828125,785.7142944335938,791.7582397460938,785.7142944335938
1040,785.7142944335938,784.1025390625,794.5787353515625,784.908447265625
1041,792.5640869140625,785.7142944335938,798.6080322265625,794.5787353515625
1042,794.1758422851562,790.1465454101562,796.1904907226562,801.025634765625
1043,789.7435913085938,794.1758422851562,796.1904907226562,798.6080322265625
1044,789.7435913085938,790.952392578125,794.5787353515625,790.1465454101562
1045,795.7875366210938,790.952392578125,792.967041015625,791.7582397460938
1046,797.8021850585938,793.7728881835938,794.981689453125,792.5640869140625
1047,796.996337890625,790.1465454101562,796.1904907226562,794.981689453125
1048,789.3406372070312,790.5494384765625,793.3699340820312,794.5787353515625
1049,783.6996459960938,788.937744140625,790.1465454101562,788.5347900390625
1050,784.908447265625,789.7435913085938,793.7728881835938,794.1758422851562
1051,792.5640869140625,789.7435913085938,795.3846435546875,794.5787353515625
1052,795.7875366210938,787.7289428710938,792.967041015625,792.967041015625
1053,792.5640869140625,784.1025390625,793.3699340820312,798.6080322265625
1054,800.6226806640625,787.3259887695312,793.3699340820312,812.3076782226562
1055,794.981689453125,798.6080322265625,789.3406372070312,802.2344360351562
1056,790.952392578125,799.010986328125,783.6996459960938,787.7289428710938
1057,799.4139404296875,797.8021850585938,782.4908447265625,792.1611938476562
1058,799.010986328125,796.1904907226562,785.3113403320312,799.010986328125
1059,788.1318969726562,784.908447265625,787.7289428710938,799.010986328125
1060,782.4908447265625,788.1318969726562,793.7728881835938,791.3552856445312
1061,787.3259887695312,795.3846435546875,798.2051391601562,784.1025390625
1062,781.6849975585938,794.1758422851562,794.5787353515625,778.4615478515625
1063,774.4322509765625,791.3552856445312,792.5640869140625,776.8497924804688
1064,780.0732421875,791.3552856445312,792.5640869140625,788.937744140625
1065,789.3406372070312,794.5787353515625,796.1904907226562,800.2197875976562
1066,791.3552856445312,792.5640869140625,799.8168334960938,800.2197875976562
1067,797.3992919921875,796.1904907226562,799.8168334960938,795.7875366210938
1068,796.5933837890625,798.2051391601562,796.5933837890625,789.7435913085938
1069,789.3406372070312,788.1318969726562,794.5787353515625,793.3699340820312
1070,779.2673950195312,785.3113403320312,790.952392578125,791.7582397460938
1071,778.8644409179688,786.1171875,783.2966918945312,780.0732421875
1072,782.893798828125,790.952392578125,787.3259887695312,786.923095703125
1073,783.2966918945312,795.3846435546875,790.952392578125,789.7435913085938
1074,784.908447265625,790.1465454101562,787.7289428710938,783.2966918945312
1075,788.5347900390625,784.1025390625,783.2966918945312,791.7582397460938
1076,791.7582397460938,782.087890625,786.1171875,793.3699340820312
1077,788.937744140625,783.2966918945312,788.5347900390625,784.1025390625
1078,786.5201416015625,783.6996459960938,786.923095703125,778.05859375
1079,788.1318969726562,786.5201416015625,790.1465454101562,774.4322509765625
1080,789.7435913085938,789.7435913085938,789.3406372070312,777.2527465820312
1081,789.7435913085938,790.1465454101562,785.7142944335938,784.908447265625
1082,789.7435913085938,791.3552856445312,786.1171875,778.4615478515625
1083,789.7435913085938,790.952392578125,787.3259887695312,776.8497924804688
1084,792.967041015625,789.3406372070312,790.5494384765625,788.1318969726562
1085,788.5347900390625,786.5201416015625,793.3699340820312,789.3406372070312
1086,782.4908447265625,783.6996459960938,792.1611938476562,788.5347900390625
1087,787.3259887695312,782.4908447265625,790.1465454101562,781.6849975585938
1088,784.908447265625,786.1171875,787.3259887695312,778.8644409179688
1089,784.1025390625,787.7289428710938,786.1171875,783.6996459960938
1090,789.7435913085938,791.7582397460938,784.908447265625,784.1025390625
1091,790.5494384765625,794.981689453125,786.1171875,783.6996459960938
1092,792.5640869140625,790.1465454101562,788.5347900390625,788.937744140625
1093,795.7875366210938,789.3406372070312,792.5640869140625,797.3992919921875
1094,790.5494384765625,791.3552856445312,792.5640869140625,796.996337890625
1095,790.952392578125,792.5640869140625,794.1758422851562,801.025634765625
1096,796.5933837890625,795.3846435546875,794.981689453125,801.025634765625
1097,797.8021850585938,799.010986328125,793.3699340820312,799.010986328125
1098,803.4432373046875,795.7875366210938,799.010986328125,805.054931640625
1099,803.8461303710938,792.967041015625,798.6080322265625,797.3992919921875
1100,790.1465454101562,790.5494384765625,794.5787353515625,789.3406372070312
1101,787.3259887695312,789.7435913085938,792.1611938476562,789.7435913085938
1102,790.952392578125,790.5494384765625,787.3259887695312,789.3406372070312
1103,783.6996459960938,787.7289428710938,783.6996459960938,788.5347900390625
1104,780.0732421875,789.3406372070312,788.5347900390625,790.952392578125
1105,782.4908447265625,796.5933837890625,790.952392578125,783.6996459960938
1106,777.6557006835938,798.2051391601562,793.7728881835938,783.2966918945312
1107,784.1025390625,794.1758422851562,797.3992919921875,790.5494384765625
1108,786.5201416015625,787.3259887695312,792.1611938476562,788.1318969726562
1109,775.2380981445312,787.7289428710938,786.5201416015625,780.0732421875
1110,772.8204956054688,789.7435913085938,788.937744140625,774.8351440429688
1111,774.4322509765625,787.3259887695312,789.7435913085938,789.7435913085938
1112,778.4615478515625,787.7289428710938,792.967041015625,798.2051391601562
1113,782.087890625,784.5054931640625,793.3699340820312,782.4908447265625
1114,778.05859375,782.893798828125,788.5347900390625,771.6116943359375
1115,778.4615478515625,785.3113403320312,791.3552856445312,783.2966918945312
1116,782.087890625,788.937744140625,795.7875366210938,796.5933837890625
1117,774.4322509765625,792.5640869140625,790.1465454101562,788.937744140625
1118,774.029296875,789.7435913085938,790.5494384765625,787.3259887695312
1119,782.4908447265625,786.5201416015625,792.1611938476562,790.5494384765625
1120,786.1171875,790.1465454101562,790.1465454101562,791.7582397460938
1121,788.1318969726562,790.952392578125,790.1465454101562,790.1465454101562
1122,786.1171875,785.3113403320312,791.7582397460938,791.7582397460938
1123,785.7142944335938,784.908447265625,792.5640869140625,796.1904907226562
1124,792.1611938476562,783.2966918945312,792.1611938476562,791.3552856445312
1125,786.923095703125,782.087890625,794.5787353515625,792.1611938476562
1126,783.2966918945312,792.1611938476562,796.5933837890625,794.5787353515625
1127,794.981689453125,796.996337890625,796.5933837890625,801.4285888671875
1128,793.3699340820312,796.5933837890625,799.8168334960938,800.2197875976562
1129,784.908447265625,793.7728881835938,801.025634765625,790.1465454101562
1130,786.923095703125,787.7289428710938,799.010986328125,791.3552856445312
1131,786.1171875,789.3406372070312,795.3846435546875,792.5640869140625
1132,788.937744140625,792.1611938476562,796.5933837890625,787.3259887695312
1133,791.3552856445312,790.1465454101562,794.1758422851562,784.5054931640625
1134,791.3552856445312,790.1465454101562,790.952392578125,786.923095703125
1135,790.1465454101562,789.7435913085938,792.5640869140625,790.1465454101562
1136,787.7289428710938,788.937744140625,789.7435913085938,787.7289428710938
1137,790.5494384765625,791.7582397460938,788.5347900390625,787.7289428710938
1138,800.6226806640625,796.5933837890625,793.7728881835938,796.996337890625
1139,802.2344360351562,796.1904907226562,788.1318969726562,794.5787353515625
1140,794.1758422851562,795.7875366210938,786.923095703125,789.7435913085938
1141,794.981689453125,796.5933837890625,793.7728881835938,790.5494384765625
1142,798.6080322265625,794.5787353515625,794.5787353515625,793.7728881835938
1143,798.6080322265625,790.952392578125,796.996337890625,796.1904907226562
1144,797.8021850585938,793.3699340820312,794.5787353515625,794.981689453125
1145,803.040283203125,793.3699340820312,793.7728881835938,799.010986328125
1146,797.8021850585938,793.7728881835938,796.5933837890625,800.2197875976562
1147,788.1318969726562,794.1758422851562,791.3552856445312,797.8021850585938
1148,795.3846435546875,792.967041015625,790.1465454101562,791.3552856445312
1149,793.7728881835938,793.7728881835938,794.5787353515625,784.5054931640625
1150,782.087890625,782.4908447265625,790.952392578125,783.2966918945312
1151,779.2673950195312,780.879150390625,784.908447265625,778.05859375
1152,786.1171875,788.5347900390625,783.6996459960938,780.4761962890625
1153,796.5933837890625,793.7728881835938,788.5347900390625,784.908447265625
1154,796.996337890625,796.1904907226562,794.1758422851562,788.937744140625
1155,791.3552856445312,792.5640869140625,790.5494384765625,784.908447265625
1156,791.3552856445312,790.5494384765625,789.3406372070312,778.4615478515625
1157,787.3259887695312,790.952392578125,791.7582397460938,786.5201416015625
1158,785.3113403320312,792.5640869140625,792.967041015625,790.952392578125
1159,790.952392578125,795.7875366210938,791.7582397460938,789.7435913085938
1160,793.3699340820312,799.4139404296875,790.952392578125,787.7289428710938
1161,796.5933837890625,799.8168334960938,790.952392578125,793.3699340820312
1162,795.7875366210938,800.6226806640625,787.3259887695312,802.2344360351562
1163,794.1758422851562,796.1904907226562,787.7289428710938,798.2051391601562
1164,798.2051391601562,793.3699340820312,793.3699340820312,793.3699340820312
1165,795.3846435546875,789.3406372070312,790.5494384765625,794.981689453125
1166,792.967041015625,789.3406372070312,784.1025390625,787.7289428710938
1167,784.908447265625,792.5640869140625,784.5054931640625,774.4322509765625
1168,780.0732421875,788.5347900390625,786.1171875,774.8351440429688
1169,789.7435913085938,788.937744140625,790.5494384765625,782.4908447265625
1170,785.3113403320312,792.967041015625,795.3846435546875,783.6996459960938
1171,778.8644409179688,794.1758422851562,794.5787353515625,782.4908447265625
1172,781.6849975585938,794.5787353515625,792.5640869140625,790.5494384765625
1173,783.2966918945312,795.3846435546875,791.7582397460938,799.010986328125
1174,781.2820434570312,791.3552856445312,788.5347900390625,785.7142944335938
1175,782.087890625,786.1171875,787.3259887695312,777.6557006835938
1176,788.937744140625,788.937744140625,787.3259887695312,781.2820434570312
1177,786.923095703125,788.937744140625,786.923095703125,787.3259887695312
1178,782.087890625,787.3259887695312,785.7142944335938,781.6849975585938
1179,787.7289428710938,788.5347900390625,786.1171875,781.2820434570312
1180,790.952392578125,787.3259887695312,786.923095703125,787.3259887695312
1181,790.1465454101562,791.3552856445312,788.937744140625,784.5054931640625
1182,793.7728881835938,792.1611938476562,791.3552856445312,778.4615478515625
1183,794.5787353515625,791.3552856445312,793.3699340820312,780.0732421875
1184,796.5933837890625,793.3699340820312,791.3552856445312,785.3113403320312
1185,794.981689453125,790.952392578125,788.1318969726562,781.2820434570312
1186,786.1171875,790.952392578125,788.5347900390625,778.8644409179688
1187,786.923095703125,791.7582397460938,788.937744140625,781.2820434570312
1188,791.3552856445312,787.7289428710938,789.3406372070312,786.923095703125
1189,786.5201416015625,787.7289428710938,792.5640869140625,791.3552856445312
1190,784.1025390625,792.1611938476562,793.7728881835938,791.3552856445312
1191,782.087890625,792.967041015625,795.3846435546875,794.5787353515625
1192,778.4615478515625,796.1904907226562,795.3846435546875,792.1611938476562
1193,778.4615478515625,791.7582397460938,791.7582397460938,782.4908447265625
1194,780.879150390625,785.7142944335938,786.5201416015625,776.4468994140625
1195,787.7289428710938,786.923095703125,787.7289428710938,782.087890625
1196,791.3552856445312,791.3552856445312,791.3552856445312,788.5347900390625
1197,789.3406372070312,794.981689453125,787.7289428710938,784.5054931640625
1198,790.5494384765625,793.7728881835938,788.1318969726562,784.908447265625
1199,793.7728881835938,793.3699340820312,790.952392578125,788.5347900390625
1200,796.996337890625,792.967041015625,785.7142944335938,796.5933837890625
1201,799.4139404296875,794.1758422851562,789.7435913085938,792.967041015625
1202,796.1904907226562,796.5933837890625,792.1611938476562,788.937744140625
1203,790.952392578125,794.981689453125,788.1318969726562,796.996337890625
1204,796.996337890625,792.5640869140625,789.7435913085938,802.2344360351562
1205,796.5933837890625,795.3846435546875,790.1465454101562,803.4432373046875
1206,790.1465454101562,794.1758422851562,787.7289428710938,792.5640869140625
1207,792.5640869140625,794.1758422851562,788.937744140625,793.3699340820312
1208,790.952392578125,792.5640869140625,787.7289428710938,799.010986328125
1209,785.7142944335938,790.952392578125,784.5054931640625,796.1904907226562
1210,784.908447265625,791.3552856445312,785.3113403320312,793.7728881835938
1211,786.923095703125,783.2966918945312,784.5054931640625,791.3552856445312
1212,788.937744140625,786.1171875,789.3406372070312,795.7875366210938
1213,782.087890625,792.967041015625,793.7728881835938,788.937744140625
1214,782.4908447265625,790.1465454101562,793.3699340820312,788.5347900390625
1215,788.1318969726562,788.1318969726562,793.7728881835938,791.3552856445312
1216,789.3406372070312,788.1318969726562,795.3846435546875,790.5494384765625
1217,787.3259887695312,789.7435913085938,794.1758422851562,792.1611938476562
1218,784.5054931640625,788.937744140625,790.5494384765625,792.5640869140625
1219,789.7435913085938,786.1171875,792.5640869140625,796.1904907226562
1220,794.1758422851562,789.7435913085938,796.996337890625,804.2490844726562
1221,797.3992919921875,794.981689453125,792.967041015625,801.4285888671875
1222,793.7728881835938,795.7875366210938,785.7142944335938,789.3406372070312
1223,788.1318969726562,792.5640869140625,789.3406372070312,795.7875366210938
1224,795.3846435546875,796.5933837890625,796.1904907226562,796.5933837890625
1225,801.8314819335938,797.3992919921875,793.7728881835938,788.1318969726562
1226,797.3992919921875,794.981689453125,791.3552856445312,790.5494384765625
1227,791.7582397460938,796.1904907226562,793.3699340820312,788.1318969726562
1228,786.1171875,793.7728881835938,796.1904907226562,792.5640869140625
1229,781.2820434570312,793.7728881835938,795.7875366210938,791.3552856445312
1230,788.1318969726562,793.7728881835938,792.967041015625,790.952392578125
1231,794.981689453125,790.952392578125,792.5640869140625,796.996337890625
1232,792.967041015625,793.7728881835938,792.1611938476562,791.3552856445312
1233,796.996337890625,792.1611938476562,790.5494384765625,790.1465454101562
1234,798.6080322265625,789.3406372070312,792.1611938476562,799.4139404296875
1235,800.2197875976562,793.7728881835938,794.5787353515625,810.2930297851562
1236,801.025634765625,793.7728881835938,794.981689453125,795.3846435546875
1237,786.923095703125,790.5494384765625,791.7582397460938,783.6996459960938
1238,785.3113403320312,790.5494384765625,794.981689453125,790.952392578125
1239,792.967041015625,791.7582397460938,796.996337890625,792.967041015625
1240,788.5347900390625,789.3406372070312,795.3846435546875,797.8021850585938
1241,788.5347900390625,788.1318969726562,793.3699340820312,801.8314819335938
1242,786.923095703125,789.7435913085938,794.981689453125,797.3992919921875
1243,783.2966918945312,786.5201416015625,796.1904907226562,796.996337890625
1244,784.1025390625,787.7289428710938,794.1758422851562,790.952392578125
1245,786.5201416015625,790.1465454101562,791.7582397460938,790.1465454101562
1246,786.1171875,787.7289428710938,787.7289428710938,790.5494384765625
1247,784.5054931640625,780.0732421875,784.908447265625,781.2820434570312
1248,788.5347900390625,782.4908447265625,789.7435913085938,781.6849975585938
1249,782.087890625,780.4761962890625,789.7435913085938,777.6557006835938
1250,776.8497924804688,774.8351440429688,785.3113403320312,780.4761962890625
1251,778.8644409179688,776.4468994140625,781.2820434570312,781.6849975585938
1252,782.893798828125,774.4322509765625,785.3113403320312,785.7142944335938
1253,778.05859375,782.4908447265625,782.4908447265625,782.893798828125
1254,781.6849975585938,790.1465454101562,778.05859375,782.4908447265625
1255,784.908447265625,787.7289428710938,779.6703491210938,782.087890625
1256,782.4908447265625,786.1171875,778.4615478515625,780.4761962890625
1257,786.1171875,787.7289428710938,787.3259887695312,787.3259887695312
1258,786.923095703125,788.5347900390625,795.7875366210938,786.923095703125
1259,789.7435913085938,795.3846435546875,794.5787353515625,786.5201416015625
1260,797.3992919921875,797.3992919921875,794.5787353515625,788.1318969726562
1261,803.8461303710938,797.8021850585938,796.996337890625,794.5787353515625
1262,803.040283203125,797.3992919921875,792.967041015625,790.952392578125
1263,787.7289428710938,792.1611938476562,787.7289428710938,778.05859375
1264,782.4908447265625,793.7728881835938,789.7435913085938,780.0732421875
1265,790.5494384765625,798.2051391601562,794.1758422851562,788.937744140625
1266,794.5787353515625,794.1758422851562,792.967041015625,785.3113403320312
1267,793.7728881835938,792.1611938476562,791.7582397460938,779.2673950195312
1268,793.3699340820312,797.8021850585938,794.5787353515625,789.3406372070312
1269,787.3259887695312,794.5787353515625,793.7728881835938,792.967041015625
1270,795.3846435546875,794.981689453125,792.967041015625,786.5201416015625
1271,800.6226806640625,805.4578857421875,797.3992919921875,792.967041015625
1272,788.937744140625,807.069580078125,800.2197875976562,800.2197875976562
1273,792.967041015625,800.2197875976562,794.981689453125,800.6226806640625
1274,788.1318969726562,802.6373901367188,789.3406372070312,783.6996459960938
1275,784.5054931640625,802.2344360351562,793.7728881835938,779.2673950195312
1276,796.996337890625,803.8461303710938,796.996337890625,792.5640869140625
1277,792.1611938476562,799.8168334960938,794.5787353515625,788.937744140625
1278,786.1171875,793.7728881835938,794.5787353515625,781.6849975585938
1279,780.879150390625,795.7875366210938,792.1611938476562,780.0732421875
1280,778.4615478515625,798.6080322265625,793.7728881835938,784.1025390625
1281,781.2820434570312,801.025634765625,795.3846435546875,788.937744140625
1282,788.1318969726562,799.4139404296875,791.7582397460938,790.1465454101562
1283,791.7582397460938,802.6373901367188,790.1465454101562,791.3552856445312
1284,790.5494384765625,807.069580078125,789.7435913085938,795.7875366210938
1285,788.5347900390625,804.2490844726562,791.7582397460938,790.1465454101562
1286,787.7289428710938,795.7875366210938,791.7582397460938,781.2820434570312
1287,786.5201416015625,792.967041015625,791.3552856445312,788.937744140625
1288,782.893798828125,801.025634765625,788.1318969726562,790.5494384765625
1289,784.1025390625,802.2344360351562,787.3259887695312,789.3406372070312
1290,783.2966918945312,797.3992919921875,790.5494384765625,795.7875366210938
1291,784.5054931640625,795.3846435546875,788.1318969726562,792.5640869140625
1292,790.952392578125,796.1904907226562,785.3113403320312,788.5347900390625
1293,793.3699340820312,796.5933837890625,788.5347900390625,786.923095703125
1294,792.1611938476562,795.7875366210938,789.7435913085938,786.923095703125
1295,797.3992919921875,798.2051391601562,788.1318969726562,786.1171875
1296,796.5933837890625,799.4139404296875,785.3113403320312,794.1758422851562
1297,792.967041015625,799.010986328125,784.5054931640625,792.967041015625
1298,793.7728881835938,796.996337890625,787.3259887695312,776.0439453125
1299,791.7582397460938,798.2051391601562,788.1318969726562,777.6557006835938
1300,790.1465454101562,799.010986328125,788.937744140625,780.879150390625
1301,792.5640869140625,798.6080322265625,789.3406372070312,783.2966918945312
1302,791.7582397460938,796.996337890625,790.1465454101562,788.5347900390625
1303,783.6996459960938,788.937744140625,788.937744140625,786.923095703125
1304,782.087890625,788.937744140625,790.952392578125,789.7435913085938
1305,783.2966918945312,790.952392578125,792.967041015625,796.996337890625
1306,782.087890625,788.5347900390625,790.952392578125,794.981689453125
1307,789.3406372070312,792.967041015625,790.1465454101562,796.5933837890625
1308,791.7582397460938,791.3552856445312,790.5494384765625,799.8168334960938
1309,790.5494384765625,782.4908447265625,790.952392578125,800.2197875976562
1310,788.937744140625,784.1025390625,791.7582397460938,796.5933837890625
1311,787.3259887695312,788.5347900390625,793.7728881835938,796.996337890625
1312,792.5640869140625,786.923095703125,795.7875366210938,796.996337890625
1313,792.5640869140625,786.923095703125,792.1611938476562,792.967041015625
1314,782.893798828125,787.7289428710938,790.952392578125,788.1318969726562
1315,775.6410522460938,786.5201416015625,791.7582397460938,780.0732421875
1316,783.2966918945312,782.893798828125,794.5787353515625,784.908447265625
1317,783.6996459960938,786.1171875,795.7875366210938,790.1465454101562
1318,789.7435913085938,793.3699340820312,792.5640869140625,796.1904907226562
1319,796.1904907226562,792.967041015625,792.967041015625,801.4285888671875
1320,789.3406372070312,794.1758422851562,795.7875366210938,791.7582397460938
1321,787.3259887695312,796.1904907226562,797.3992919921875,787.3259887695312
1322,796.1904907226562,794.5787353515625,796.996337890625,796.1904907226562
1323,792.5640869140625,796.1904907226562,795.3846435546875,795.7875366210938
1324,780.0732421875,794.981689453125,794.5787353515625,787.7289428710938
1325,779.2673950195312,788.1318969726562,790.952392578125,785.7142944335938
1326,785.3113403320312,794.1758422851562,788.937744140625,789.3406372070312
1327,786.1171875,801.4285888671875,790.952392578125,788.1318969726562
1328,785.7142944335938,794.981689453125,788.937744140625,783.2966918945312
1329,785.3113403320312,790.5494384765625,791.3552856445312,789.7435913085938
1330,779.6703491210938,793.7728881835938,792.967041015625,792.967041015625
1331,785.7142944335938,798.2051391601562,793.3699340820312,791.7582397460938
1332,793.3699340820312,799.4139404296875,795.7875366210938,794.5787353515625
1333,800.2197875976562,795.3846435546875,796.996337890625,794.5787353515625
1334,790.952392578125,788.937744140625,794.5787353515625,782.893798828125
1335,776.4468994140625,789.7435913085938,790.5494384765625,779.6703491210938
1336,778.8644409179688,789.3406372070312,794.1758422851562,786.1171875
1337,780.4761962890625,787.3259887695312,794.5787353515625,787.3259887695312
1338,786.1171875,788.937744140625,792.5640869140625,794.5787353515625
1339,790.1465454101562,790.1465454101562,798.6080322265625,795.7875366210938
1340,790.1465454101562,789.7435913085938,797.8021850585938,788.5347900390625
1341,791.7582397460938,788.937744140625,794.981689453125,785.7142944335938
1342,804.6520385742188,793.7728881835938,796.1904907226562,792.5640869140625
1343,807.069580078125,795.3846435546875,794.981689453125,787.7289428710938
1344,795.3846435546875,794.981689453125,796.5933837890625,780.879150390625
1345,795.3846435546875,799.010986328125,794.5787353515625,784.908447265625
1346,792.967041015625,794.5787353515625,785.7142944335938,781.6849975585938
1347,788.937744140625,792.5640869140625,787.3259887695312,784.908447265625
1348,795.3846435546875,792.967041015625,790.1465454101562,795.3846435546875
1349,796.996337890625,790.5494384765625,787.3259887695312,792.5640869140625
1350,796.5933837890625,788.5347900390625,791.7582397460938,788.5347900390625
1351,802.2344360351562,793.3699340820312,796.5933837890625,788.1318969726562
1352,792.1611938476562,790.952392578125,788.937744140625,784.908447265625
1353,787.7289428710938,782.893798828125,787.3259887695312,789.7435913085938
1354,792.967041015625,785.7142944335938,794.5787353515625,794.981689453125
1355,794.5787353515625,787.7289428710938,796.5933837890625,797.8021850585938
1356,794.1758422851562,787.3259887695312,795.3846435546875,796.996337890625
1357,793.3699340820312,790.952392578125,792.5640869140625,796.996337890625
1358,793.7728881835938,794.5787353515625,791.7582397460938,797.3992919921875
1359,799.010986328125,794.981689453125,792.1611938476562,791.3552856445312
1360,800.2197875976562,786.1171875,787.7289428710938,787.3259887695312
1361,788.5347900390625,788.937744140625,789.7435913085938,786.5201416015625
1362,787.3259887695312,793.7728881835938,789.3406372070312,789.7435913085938
1363,791.3552856445312,790.952392578125,788.1318969726562,784.5054931640625
1364,789.3406372070312,789.3406372070312,790.1465454101562,780.4761962890625
1365,795.7875366210938,786.5201416015625,787.3259887695312,786.923095703125
1366,791.7582397460938,789.3406372070312,786.5201416015625,786.5201416015625
1367,779.2673950195312,789.7435913085938,792.967041015625,780.0732421875
1368,783.6996459960938,785.3113403320312,789.3406372070312,776.8497924804688
1369,790.5494384765625,784.908447265625,783.6996459960938,783.6996459960938
1370,784.5054931640625,788.5347900390625,788.1318969726562,781.2820434570312
1371,781.2820434570312,789.7435913085938,790.952392578125,778.05859375
1372,790.5494384765625,788.1318969726562,789.7435913085938,781.6849975585938
1373,790.5494384765625,787.7289428710938,794.5787353515625,783.6996459960938
1374,786.923095703125,786.5201416015625,795.7875366210938,787.3259887695312
1375,788.937744140625,787.7289428710938,788.937744140625,784.1025390625
1376,788.1318969726562,790.952392578125,791.3552856445312,782.4908447265625
1377,792.5640869140625,792.5640869140625,790.1465454101562,784.5054931640625
1378,790.5494384765625,791.3552856445312,787.7289428710938,786.1171875
1379,782.4908447265625,795.7875366210938,792.1611938476562,787.7289428710938
1380,779.2673950195312,792.1611938476562,788.937744140625,789.7435913085938
1381,780.0732421875,788.1318969726562,789.7435913085938,792.5640869140625
1382,780.0732421875,789.3406372070312,793.3699340820312,785.7142944335938
1383,775.6410522460938,785.3113403320312,792.967041015625,785.3113403320312
1384,769.1941528320312,782.893798828125,792.967041015625,783.6996459960938
1385,771.6116943359375,788.1318969726562,792.1611938476562,779.6703491210938
1386,777.6557006835938,788.937744140625,793.7728881835938,781.2820434570312
1387,778.4615478515625,786.923095703125,794.981689453125,781.2820434570312
1388,778.4615478515625,788.1318969726562,793.7728881835938,780.0732421875
1389,781.2820434570312,790.1465454101562,791.3552856445312,786.923095703125
1390,782.4908447265625,791.7582397460938,790.1465454101562,784.908447265625
1391,786.923095703125,790.952392578125,790.952392578125,787.7289428710938
1392,788.937744140625,792.1611938476562,794.1758422851562,799.4139404296875
1393,788.1318969726562,793.3699340820312,797.8021850585938,790.952392578125
1394,794.1758422851562,796.5933837890625,801.8314819335938,791.7582397460938
1395,797.8021850585938,803.040283203125,803.8461303710938,796.996337890625
1396,794.1758422851562,801.8314819335938,800.2197875976562,790.1465454101562
1397,793.3699340820312,799.4139404296875,799.4139404296875,785.7142944335938
1398,792.1611938476562,797.3992919921875,796.996337890625,786.923095703125
1399,793.3699340820312,794.5787353515625,797.3992919921875,792.967041015625
1400,794.5787353515625,794.1758422851562,796.996337890625,792.967041015625
1401,792.5640869140625,793.3699340820312,796.996337890625,788.5347900390625
1402,786.5201416015625,793.3699340820312,798.6080322265625,782.4908447265625
1403,783.6996459960938,789.7435913085938,799.8168334960938,784.908447265625
1404,786.1171875,784.908447265625,800.2197875976562,790.952392578125
1405,779.2673950195312,788.937744140625,796.996337890625,789.3406372070312
1406,767.9853515625,782.087890625,791.7582397460938,782.4908447265625
1407,768.7911987304688,778.05859375,790.5494384765625,783.2966918945312
1408,771.2088012695312,792.1611938476562,791.3552856445312,783.6996459960938
1409,780.0732421875,799.8168334960938,793.3699340820312,782.893798828125
1410,783.6996459960938,796.996337890625,796.5933837890625,780.0732421875
1411,782.087890625,798.6080322265625,792.5640869140625,778.05859375
1412,788.937744140625,800.6226806640625,790.1465454101562,782.893798828125
1413,796.1904907226562,803.8461303710938,794.981689453125,788.1318969726562
1414,802.2344360351562,812.7106323242188,796.5933837890625,798.2051391601562
1415,802.6373901367188,811.5018310546875,793.3699340820312,805.8607788085938
1416,799.010986328125,803.4432373046875,789.7435913085938,795.7875366210938
1417,800.6226806640625,804.6520385742188,792.5640869140625,795.7875366210938
1418,813.5164794921875,805.4578857421875,794.981689453125,805.8607788085938
1419,811.098876953125,801.8314819335938,789.7435913085938,802.6373901367188
1420,800.6226806640625,802.6373901367188,788.5347900390625,800.6226806640625
1421,796.996337890625,803.040283203125,793.3699340820312,799.8168334960938
1422,791.3552856445312,796.996337890625,791.7582397460938,795.3846435546875
1423,789.3406372070312,795.3846435546875,789.7435913085938,794.981689453125
1424,796.5933837890625,797.8021850585938,792.5640869140625,798.6080322265625
1425,797.3992919921875,795.3846435546875,793.7728881835938,801.4285888671875
1426,790.952392578125,793.7728881835938,792.5640869140625,803.8461303710938
1427,788.1318969726562,794.5787353515625,795.3846435546875,805.4578857421875
1428,788.1318969726562,794.1758422851562,794.981689453125,798.6080322265625
1429,790.952392578125,789.7435913085938,792.5640869140625,794.5787353515625
1430,798.6080322265625,783.2966918945312,792.967041015625,799.4139404296875
1431,806.6666870117188,784.5054931640625,792.967041015625,800.6226806640625
1432,804.6520385742188,790.952392578125,790.952392578125,794.5787353515625
1433,800.6226806640625,792.1611938476562,790.952392578125,791.7582397460938
1434,801.4285888671875,793.7728881835938,794.981689453125,796.996337890625
1435,802.2344360351562,794.981689453125,792.5640869140625,796.1904907226562
1436,800.2197875976562,794.5787353515625,792.1611938476562,792.967041015625
1437,796.996337890625,794.5787353515625,796.1904907226562,795.7875366210938
1438,794.981689453125,796.5933837890625,798.2051391601562,809.4871826171875
1439,792.967041015625,796.5933837890625,801.4285888671875,803.040283203125
1440,797.8021850585938,792.1611938476562,802.2344360351562,794.1758422851562
1441,796.5933837890625,788.1318969726562,798.6080322265625,790.5494384765625
1442,781.2820434570312,782.087890625,795.3846435546875,780.879150390625
1443,772.8204956054688,784.908447265625,790.952392578125,778.05859375
1444,777.2527465820312,787.3259887695312,788.937744140625,777.2527465820312
1445,782.893798828125,785.7142944335938,792.967041015625,781.6849975585938
1446,779.6703491210938,792.1611938476562,796.1904907226562,780.0732421875
1447,777.6557006835938,791.7582397460938,796.5933837890625,773.2234497070312
1448,778.05859375,790.1465454101562,793.7728881835938,771.6116943359375
1449,771.6116943359375,787.3259887695312,792.967041015625,775.6410522460938
1450,772.8204956054688,784.908447265625,795.3846435546875,779.2673950195312
1451,774.029296875,782.4908447265625,792.1611938476562,776.0439453125
1452,771.6116943359375,781.6849975585938,787.7289428710938,775.6410522460938
1453,775.6410522460938,780.879150390625,790.952392578125,774.8351440429688
1454,776.4468994140625,783.6996459960938,793.3699340820312,769.5970458984375
1455,780.0732421875,790.5494384765625,794.1758422851562,771.2088012695312
1456,784.1025390625,790.952392578125,791.7582397460938,774.8351440429688
1457,780.0732421875,792.967041015625,789.3406372070312,781.6849975585938
1458,781.6849975585938,795.7875366210938,788.937744140625,776.4468994140625
1459,787.3259887695312,790.952392578125,784.908447265625,770.8058471679688
1460,788.5347900390625,789.3406372070312,788.5347900390625,775.6410522460938
1461,792.1611938476562,794.5787353515625,792.5640869140625,777.6557006835938
1462,799.010986328125,790.5494384765625,789.3406372070312,775.2380981445312
1463,790.5494384765625,791.3552856445312,791.3552856445312,776.8497924804688
1464,782.087890625,796.1904907226562,796.5933837890625,782.4908447265625
1465,788.937744140625,792.5640869140625,796.996337890625,792.5640869140625
1466,790.1465454101562,793.7728881835938,792.1611938476562,792.967041015625
1467,793.3699340820312,799.010986328125,790.5494384765625,791.7582397460938
1468,798.6080322265625,802.6373901367188,794.5787353515625,794.981689453125
1469,793.7728881835938,798.2051391601562,794.1758422851562,794.5787353515625
1470,799.8168334960938,794.981689453125,793.3699340820312,798.6080322265625
1471,808.6813354492188,796.5933837890625,796.996337890625,801.4285888671875
1472,807.069580078125,794.5787353515625,797.8021850585938,794.981689453125
1473,804.2490844726562,794.5787353515625,796.5933837890625,792.5640869140625
1474,795.7875366210938,790.952392578125,795.7875366210938,789.7435913085938
1475,787.7289428710938,791.7582397460938,795.7875366210938,785.3113403320312
1476,790.1465454101562,794.5787353515625,795.3846435546875,793.7728881835938
1477,786.923095703125,795.7875366210938,793.3699340820312,794.5787353515625
1478,776.0439453125,794.1758422851562,788.5347900390625,781.2820434570312
1479,776.4468994140625,790.952392578125,788.937744140625,784.5054931640625
1480,789.3406372070312,796.1904907226562,791.7582397460938,790.5494384765625
1481,790.5494384765625,797.3992919921875,788.1318969726562,778.4615478515625
1482,786.1171875,795.7875366210938,783.2966918945312,775.2380981445312
1483,788.1318969726562,792.1611938476562,781.6849975585938,776.0439453125
1484,787.3259887695312,791.3552856445312,780.0732421875,774.4322509765625
1485,790.1465454101562,795.3846435546875,781.2820434570312,778.8644409179688
1486,790.1465454101562,798.6080322265625,786.923095703125,784.1025390625
1487,789.3406372070312,797.8021850585938,784.908447265625,786.1171875
1488,791.7582397460938,800.2197875976562,784.5054931640625,786.923095703125
1489,794.1758422851562,802.2344360351562,791.7582397460938,783.6996459960938
1490,803.4432373046875,802.2344360351562,790.952392578125,783.6996459960938
1491,800.2197875976562,802.6373901367188,785.7142944335938,794.1758422851562
1492,787.3259887695312,795.3846435546875,782.4908447265625,793.7728881835938
1493,787.7289428710938,795.7875366210938,787.3259887695312,790.952392578125
1494,786.1171875,802.2344360351562,792.967041015625,788.937744140625
1495,785.7142944335938,803.4432373046875,792.967041015625,787.7289428710938
1496,788.1318969726562,801.4285888671875,794.1758422851562,790.5494384765625
1497,790.952392578125,801.025634765625,795.7875366210938,793.7728881835938
1498,795.3846435546875,803.8461303710938,801.025634765625,793.7728881835938
1499,792.967041015625,800.2197875976562,798.2051391601562,793.3699340820312
1500,785.3113403320312,796.1904907226562,795.7875366210938,795.7875366210938
1501,784.5054931640625,796.1904907226562,789.3406372070312,789.3406372070312
1502,786.1171875,795.7875366210938,785.3113403320312,789.3406372070312
1503,783.2966918945312,794.1758422851562,787.3259887695312,788.937744140625
1504,783.2966918945312,790.1465454101562,786.923095703125,783.6996459960938
1505,784.1025390625,791.7582397460938,792.1611938476562,784.908447265625
1506,788.5347900390625,797.3992919921875,792.967041015625,791.3552856445312
1507,791.7582397460938,796.996337890625,792.5640869140625,792.5640869140625
1508,794.981689453125,794.1758422851562,794.5787353515625,792.5640869140625
1509,796.5933837890625,797.3992919921875,793.7728881835938,796.1904907226562
1510,796.996337890625,799.8168334960938,792.1611938476562,799.8168334960938
1511,800.2197875976562,799.4139404296875,790.1465454101562,800.6226806640625
1512,803.8461303710938,795.7875366210938,793.7728881835938,794.5787353515625
1513,805.4578857421875,795.3846435546875,796.996337890625,796.1904907226562
1514,799.8168334960938,796.5933837890625,795.3846435546875,797.3992919921875
1515,794.981689453125,799.010986328125,795.7875366210938,792.1611938476562
1516,794.981689453125,799.8168334960938,800.6226806640625,796.996337890625
1517,793.7728881835938,796.5933837890625,801.025634765625,797.3992919921875
1518,792.967041015625,794.5787353515625,799.4139404296875,795.7875366210938
1519,791.7582397460938,790.952392578125,798.2051391601562,793.7728881835938
1520,792.5640869140625,789.7435913085938,799.4139404296875,792.1611938476562
1521,791.3552856445312,797.3992919921875,803.8461303710938,795.3846435546875
1522,787.7289428710938,795.3846435546875,800.6226806640625,790.1465454101562
1523,788.1318969726562,788.937744140625,794.1758422851562,784.1025390625
1524,783.6996459960938,796.1904907226562,794.5787353515625,780.4761962890625
1525,783.6996459960938,792.967041015625,798.6080322265625,782.893798828125
1526,791.3552856445312,787.7289428710938,797.8021850585938,784.908447265625
1527,793.3699340820312,791.3552856445312,796.1904907226562,784.908447265625
1528,794.981689453125,797.8021850585938,796.5933837890625,784.5054931640625
1529,789.7435913085938,800.6226806640625,798.2051391601562,786.923095703125
1530,800.2197875976562,794.5787353515625,796.5933837890625,806.6666870117188
1531,803.4432373046875,792.1611938476562,793.3699340820312,804.2490844726562
1532,789.3406372070312,792.5640869140625,787.3259887695312,786.1171875
1533,788.937744140625,790.5494384765625,785.7142944335938,787.7289428710938
1534,789.3406372070312,790.1465454101562,790.1465454101562,789.3406372070312
1535,784.1025390625,788.5347900390625,791.7582397460938,784.5054931640625
1536,784.908447265625,788.5347900390625,792.1611938476562,785.7142944335938
1537,784.908447265625,791.3552856445312,791.3552856445312,788.1318969726562
1538,782.087890625,792.1611938476562,790.5494384765625,789.3406372070312
1539,781.6849975585938,796.5933837890625,790.5494384765625,787.7289428710938
1540,782.4908447265625,794.1758422851562,793.7728881835938,781.6849975585938
1541,790.5494384765625,792.1611938476562,795.7875366210938,778.05859375
1542,797.3992919921875,791.3552856445312,789.3406372070312,778.4615478515625
1543,796.996337890625,789.7435913085938,789.7435913085938,781.2820434570312
1544,796.1904907226562,796.1904907226562,791.7582397460938,784.908447265625
1545,788.937744140625,796.1904907226562,789.3406372070312,783.6996459960938
1546,780.879150390625,792.967041015625,787.7289428710938,780.879150390625
1547,779.6703491210938,794.5787353515625,786.5201416015625,783.2966918945312
1548,782.4908447265625,794.1758422851562,790.952392578125,784.908447265625
1549,788.1318969726562,794.1758422851562,791.3552856445312,790.1465454101562
1550,787.3259887695312,794.981689453125,787.3259887695312,790.1465454101562
1551,785.7142944335938,794.981689453125,789.7435913085938,792.1611938476562
1552,795.3846435546875,797.3992919921875,790.1465454101562,798.6080322265625
1553,792.5640869140625,799.010986328125,788.937744140625,792.967041015625
1554,793.7728881835938,801.025634765625,792.1611938476562,790.5494384765625
1555,796.1904907226562,801.4285888671875,798.2051391601562,799.010986328125
1556,784.908447265625,796.1904907226562,799.4139404296875,804.2490844726562
1557,778.05859375,790.952392578125,798.2051391601562,794.981689453125
1558,783.2966918945312,786.5201416015625,798.2051391601562,788.1318969726562
1559,790.1465454101562,780.4761962890625,792.967041015625,788.937744140625
1560,783.6996459960938,781.6849975585938,788.937744140625,789.3406372070312
1561,781.6849975585938,786.923095703125,784.5054931640625,789.7435913085938
1562,786.923095703125,786.1171875,782.087890625,784.1025390625
1563,787.7289428710938,793.3699340820312,788.937744140625,786.1171875
1564,788.1318969726562,794.981689453125,793.7728881835938,793.3699340820312
1565,786.923095703125,784.5054931640625,791.3552856445312,784.1025390625
1566,784.5054931640625,786.923095703125,786.1171875,771.6116943359375
1567,790.5494384765625,792.5640869140625,786.923095703125,772.0146484375
1568,791.3552856445312,794.5787353515625,790.1465454101562,780.0732421875
1569,784.1025390625,794.981689453125,792.1611938476562,786.1171875
1570,780.4761962890625,791.3552856445312,790.5494384765625,784.908447265625
1571,791.3552856445312,797.3992919921875,792.967041015625,788.1318969726562
1572,795.7875366210938,796.5933837890625,794.5787353515625,794.1758422851562
1573,793.3699340820312,787.3259887695312,795.7875366210938,797.3992919921875
1574,792.5640869140625,791.7582397460938,794.981689453125,790.5494384765625
1575,792.967041015625,792.5640869140625,790.952392578125,783.6996459960938
1576,792.1611938476562,790.1465454101562,788.1318969726562,785.7142944335938
1577,789.7435913085938,792.1611938476562,787.7289428710938,783.6996459960938
1578,790.952392578125,791.7582397460938,789.3406372070312,784.5054931640625
1579,787.7289428710938,791.7582397460938,788.937744140625,785.7142944335938
1580,789.3406372070312,793.7728881835938,790.5494384765625,782.087890625
1581,788.937744140625,788.937744140625,792.5640869140625,779.6703491210938
1582,785.7142944335938,784.908447265625,795.3846435546875,786.1171875
1583,784.1025390625,785.3113403320312,796.5933837890625,789.7435913085938
1584,782.4908447265625,786.1171875,792.5640869140625,794.981689453125
1585,781.2820434570312,786.1171875,790.1465454101562,794.1758422851562
1586,779.2673950195312,784.5054931640625,789.7435913085938,792.967041015625
1587,784.908447265625,787.3259887695312,790.1465454101562,794.5787353515625
