timestamp,RAW_TP9,RAW_AF7,RAW_AF8,RAW_TP10
1,802.6373901367188,796.1904907226562,813.113525390625,814.3223266601562
2,798.2051391601562,796.5933837890625,812.3076782226562,807.069580078125
3,798.6080322265625,794.5787353515625,811.098876953125,801.4285888671875
4,803.040283203125,788.937744140625,807.069580078125,801.025634765625
5,805.054931640625,788.1318969726562,803.8461303710938,803.4432373046875
6,804.6520385742188,792.967041015625,803.4432373046875,802.2344360351562
7,802.2344360351562,799.010986328125,800.2197875976562,801.4285888671875
8,800.2197875976562,796.1904907226562,802.6373901367188,805.8607788085938
9,803.040283203125,793.7728881835938,807.4725341796875,812.3076782226562
10,803.8461303710938,795.3846435546875,804.2490844726562,805.4578857421875
11,803.040283203125,796.5933837890625,801.025634765625,799.8168334960938
12,798.2051391601562,790.5494384765625,802.2344360351562,796.996337890625
13,792.967041015625,788.5347900390625,799.8168334960938,796.1904907226562
14,799.4139404296875,793.7728881835938,801.8314819335938,804.2490844726562
15,799.4139404296875,792.967041015625,803.8461303710938,808.6813354492188
16,794.981689453125,787.3259887695312,800.6226806640625,800.2197875976562
17,798.6080322265625,787.7289428710938,799.8168334960938,797.8021850585938
18,804.2490844726562,793.3699340820312,805.054931640625,805.4578857421875
19,800.2197875976562,792.967041015625,807.4725341796875,808.6813354492188
20,799.4139404296875,792.967041015625,809.084228515625,816.7399291992188
21,807.069580078125,796.5933837890625,810.2930297851562,816.7399291992188
22,809.084228515625,798.6080322265625,804.2490844726562,807.4725341796875
23,810.6959838867188,799.010986328125,801.025634765625,808.2783813476562
24,807.87548828125,792.967041015625,803.8461303710938,817.5457763671875
25,801.4285888671875,794.1758422851562,804.6520385742188,811.90478515625
26,802.2344360351562,796.1904907226562,808.2783813476562,811.098876953125
27,807.4725341796875,794.1758422851562,811.90478515625,814.3223266601562
28,805.8607788085938,792.5640869140625,808.2783813476562,803.040283203125
29,807.069580078125,794.5787353515625,810.6959838867188,803.4432373046875
30,808.2783813476562,796.996337890625,814.3223266601562,807.4725341796875
31,806.6666870117188,792.1611938476562,812.3076782226562,809.4871826171875
32,804.6520385742188,792.1611938476562,811.5018310546875,807.069580078125
33,802.6373901367188,797.3992919921875,813.91943359375,802.2344360351562
34,804.6520385742188,795.3846435546875,812.7106323242188,800.2197875976562
35,805.4578857421875,796.996337890625,808.2783813476562,800.6226806640625
36,811.098876953125,803.040283203125,809.89013671875,805.054931640625
37,805.4578857421875,804.2490844726562,813.113525390625,806.2637329101562
38,803.4432373046875,799.010986328125,813.91943359375,809.084228515625
39,805.4578857421875,793.7728881835938,812.7106323242188,811.098876953125
40,799.4139404296875,792.1611938476562,807.87548828125,807.4725341796875
41,797.3992919921875,792.967041015625,804.2490844726562,809.084228515625
42,794.1758422851562,791.3552856445312,808.6813354492188,811.098876953125
43,794.981689453125,790.5494384765625,808.6813354492188,814.3223266601562
44,794.5787353515625,794.5787353515625,807.4725341796875,812.7106323242188
45,798.2051391601562,796.1904907226562,811.098876953125,811.098876953125
46,801.8314819335938,793.7728881835938,811.5018310546875,810.6959838867188
47,798.6080322265625,795.7875366210938,817.1428833007812,808.2783813476562
48,797.8021850585938,797.3992919921875,817.5457763671875,803.040283203125
49,797.3992919921875,793.7728881835938,815.5311279296875,804.6520385742188
50,794.1758422851562,790.952392578125,818.3516235351562,808.2783813476562
51,792.5640869140625,791.3552856445312,817.5457763671875,803.8461303710938
52,791.7582397460938,790.5494384765625,813.5164794921875,799.8168334960938
53,793.7728881835938,789.3406372070312,811.90478515625,802.6373901367188
54,795.7875366210938,785.7142944335938,812.7106323242188,807.87548828125
55,794.1758422851562,786.5201416015625,811.5018310546875,813.113525390625
56,794.981689453125,792.1611938476562,805.054931640625,807.4725341796875
57,796.5933837890625,791.7582397460938,805.4578857421875,801.025634765625
58,794.981689453125,789.7435913085938,803.4432373046875,802.6373901367188
59,796.5933837890625,788.5347900390625,799.8168334960938,799.4139404296875
60,794.981689453125,789.3406372070312,805.054931640625,797.8021850585938
61,796.5933837890625,792.1611938476562,810.6959838867188,805.054931640625
62,801.8314819335938,792.967041015625,812.7106323242188,808.6813354492188
63,805.4578857421875,792.1611938476562,809.4871826171875,801.4285888671875
64,808.2783813476562,793.7728881835938,807.069580078125,809.4871826171875
65,803.4432373046875,797.3992919921875,811.5018310546875,817.1428833007812
66,802.6373901367188,799.4139404296875,809.084228515625,813.5164794921875
67,802.6373901367188,801.8314819335938,809.084228515625,811.5018310546875
68,799.010986328125,800.2197875976562,807.87548828125,801.4285888671875
69,799.4139404296875,801.4285888671875,803.8461303710938,798.2051391601562
70,803.4432373046875,800.2197875976562,803.4432373046875,802.2344360351562
71,802.2344360351562,797.3992919921875,803.4432373046875,798.2051391601562
72,798.6080322265625,797.3992919921875,804.6520385742188,792.967041015625
73,801.4285888671875,791.3552856445312,804.2490844726562,797.3992919921875
74,801.8314819335938,789.7435913085938,803.040283203125,806.2637329101562
75,795.3846435546875,795.3846435546875,800.6226806640625,803.4432373046875
76,790.5494384765625,795.3846435546875,799.8168334960938,798.6080322265625
77,795.3846435546875,791.3552856445312,797.8021850585938,797.8021850585938
78,802.6373901367188,792.967041015625,801.025634765625,804.6520385742188
79,801.4285888671875,796.996337890625,807.87548828125,802.2344360351562
80,797.3992919921875,794.1758422851562,801.8314819335938,791.7582397460938
81,796.1904907226562,789.3406372070312,799.8168334960938,796.1904907226562
82,799.010986328125,792.1611938476562,805.8607788085938,799.4139404296875
83,799.4139404296875,795.3846435546875,804.2490844726562,799.010986328125
84,793.7728881835938,799.010986328125,802.2344360351562,801.8314819335938
85,796.996337890625,800.6226806640625,804.6520385742188,803.4432373046875
86,799.8168334960938,798.6080322265625,804.6520385742188,804.2490844726562
87,794.981689453125,796.996337890625,803.8461303710938,799.8168334960938
88,795.3846435546875,796.1904907226562,805.4578857421875,803.4432373046875
89,796.996337890625,794.1758422851562,810.2930297851562,811.90478515625
90,791.3552856445312,794.5787353515625,807.4725341796875,799.010986328125
91,794.1758422851562,798.6080322265625,805.4578857421875,785.7142944335938
92,801.4285888671875,798.2051391601562,808.2783813476562,791.7582397460938
93,801.025634765625,800.2197875976562,808.6813354492188,800.6226806640625
94,799.4139404296875,802.6373901367188,807.87548828125,794.1758422851562
95,799.010986328125,801.8314819335938,808.2783813476562,788.1318969726562
96,803.8461303710938,799.010986328125,811.5018310546875,792.967041015625
97,807.069580078125,797.3992919921875,810.2930297851562,796.1904907226562
98,795.3846435546875,792.967041015625,804.2490844726562,793.3699340820312
99,793.7728881835938,791.7582397460938,805.8607788085938,798.6080322265625
100,800.6226806640625,794.1758422851562,811.098876953125,806.2637329101562
101,802.2344360351562,795.3846435546875,808.6813354492188,806.6666870117188
102,800.6226806640625,792.1611938476562,807.4725341796875,803.4432373046875
103,799.010986328125,789.3406372070312,806.6666870117188,805.8607788085938
104,804.2490844726562,792.1611938476562,805.054931640625,808.6813354492188
105,801.025634765625,791.7582397460938,803.8461303710938,799.8168334960938
106,790.1465454101562,792.967041015625,802.6373901367188,793.7728881835938
107,792.967041015625,798.6080322265625,803.4432373046875,796.996337890625
108,799.010986328125,797.8021850585938,805.8607788085938,807.069580078125
109,791.3552856445312,794.1758422851562,805.054931640625,807.87548828125
110,784.908447265625,796.1904907226562,804.2490844726562,796.1904907226562
111,786.1171875,796.996337890625,803.040283203125,791.3552856445312
112,796.5933837890625,798.2051391601562,803.4432373046875,801.4285888671875
113,800.2197875976562,798.2051391601562,806.6666870117188,801.025634765625
114,792.967041015625,796.996337890625,807.4725341796875,792.1611938476562
115,797.3992919921875,799.4139404296875,806.6666870117188,797.3992919921875
116,803.040283203125,800.2197875976562,806.6666870117188,804.6520385742188
117,801.4285888671875,800.2197875976562,807.4725341796875,797.8021850585938
118,806.2637329101562,803.8461303710938,811.098876953125,799.010986328125
119,802.2344360351562,797.3992919921875,811.098876953125,801.8314819335938
120,794.1758422851562,788.5347900390625,807.87548828125,801.025634765625
121,793.7728881835938,790.952392578125,808.6813354492188,798.6080322265625
122,798.2051391601562,796.996337890625,811.5018310546875,801.025634765625
123,794.1758422851562,797.8021850585938,810.6959838867188,809.4871826171875
124,790.952392578125,792.5640869140625,807.4725341796875,807.069580078125
125,797.8021850585938,791.3552856445312,805.054931640625,799.4139404296875
126,797.8021850585938,793.7728881835938,809.4871826171875,800.2197875976562
127,804.2490844726562,790.952392578125,810.2930297851562,809.084228515625
128,807.4725341796875,791.3552856445312,806.2637329101562,812.3076782226562
129,799.8168334960938,796.1904907226562,808.6813354492188,803.040283203125
130,795.7875366210938,794.1758422851562,810.6959838867188,801.025634765625
131,795.7875366210938,789.7435913085938,811.5018310546875,807.87548828125
132,798.6080322265625,790.1465454101562,811.90478515625,810.2930297851562
133,802.2344360351562,791.3552856445312,810.2930297851562,808.6813354492188
134,804.2490844726562,792.1611938476562,807.4725341796875,811.5018310546875
135,800.2197875976562,791.7582397460938,807.069580078125,810.6959838867188
136,797.3992919921875,793.3699340820312,804.2490844726562,804.2490844726562
137,798.6080322265625,795.7875366210938,805.8607788085938,804.2490844726562
138,798.2051391601562,794.5787353515625,806.2637329101562,811.5018310546875
139,800.2197875976562,790.1465454101562,801.4285888671875,819.1575317382812
140,801.025634765625,792.967041015625,803.4432373046875,811.90478515625
141,799.8168334960938,795.7875366210938,802.6373901367188,801.025634765625
142,802.6373901367188,793.3699340820312,805.4578857421875,799.010986328125
143,802.6373901367188,791.7582397460938,806.2637329101562,798.6080322265625
144,805.4578857421875,792.5640869140625,805.4578857421875,799.4139404296875
145,804.6520385742188,796.1904907226562,808.2783813476562,803.8461303710938
146,795.7875366210938,796.5933837890625,809.084228515625,808.2783813476562
147,791.7582397460938,794.981689453125,809.084228515625,803.4432373046875
148,794.5787353515625,794.1758422851562,805.4578857421875,799.010986328125
149,792.5640869140625,792.967041015625,801.8314819335938,794.981689453125
150,794.1758422851562,793.7728881835938,805.8607788085938,804.6520385742188
151,794.981689453125,794.981689453125,810.2930297851562,817.1428833007812
152,794.1758422851562,795.3846435546875,812.7106323242188,803.4432373046875
153,798.2051391601562,794.5787353515625,813.5164794921875,801.025634765625
154,804.6520385742188,791.7582397460938,811.098876953125,807.4725341796875
155,800.6226806640625,795.7875366210938,811.098876953125,804.2490844726562
156,794.1758422851562,798.6080322265625,812.3076782226562,806.2637329101562
157,803.8461303710938,794.1758422851562,815.1282348632812,811.098876953125
158,805.054931640625,792.1611938476562,811.90478515625,807.4725341796875
159,796.996337890625,793.7728881835938,811.90478515625,808.6813354492188
160,795.7875366210938,790.5494384765625,811.90478515625,807.4725341796875
161,792.5640869140625,789.3406372070312,807.069580078125,802.6373901367188
162,797.3992919921875,797.8021850585938,808.6813354492188,811.90478515625
163,803.8461303710938,801.4285888671875,808.6813354492188,814.7252807617188
164,807.87548828125,799.8168334960938,806.6666870117188,808.6813354492188
165,807.4725341796875,802.2344360351562,805.8607788085938,805.8607788085938
166,804.2490844726562,802.6373901367188,809.4871826171875,807.069580078125
167,811.098876953125,799.8168334960938,810.6959838867188,806.6666870117188
168,809.89013671875,803.040283203125,808.6813354492188,799.4139404296875
169,799.4139404296875,801.4285888671875,810.6959838867188,794.1758422851562
170,800.6226806640625,796.996337890625,809.4871826171875,797.3992919921875
171,803.8461303710938,799.8168334960938,809.084228515625,799.010986328125
172,802.2344360351562,802.6373901367188,811.098876953125,796.1904907226562
173,803.040283203125,803.4432373046875,811.90478515625,809.084228515625
174,804.6520385742188,804.2490844726562,811.90478515625,817.5457763671875
175,802.6373901367188,800.6226806640625,811.5018310546875,800.2197875976562
176,805.4578857421875,797.8021850585938,811.90478515625,796.996337890625
177,811.098876953125,801.025634765625,809.084228515625,801.4285888671875
178,811.098876953125,800.6226806640625,806.6666870117188,793.7728881835938
179,816.7399291992188,796.5933837890625,806.2637329101562,793.3699340820312
180,817.94873046875,796.996337890625,804.6520385742188,795.3846435546875
181,817.94873046875,797.8021850585938,807.069580078125,798.6080322265625
182,816.7399291992188,802.2344360351562,807.87548828125,798.6080322265625
183,805.054931640625,801.4285888671875,805.4578857421875,796.5933837890625
184,799.010986328125,799.4139404296875,803.4432373046875,799.8168334960938
185,799.4139404296875,798.6080322265625,802.6373901367188,803.040283203125
186,796.996337890625,799.4139404296875,802.6373901367188,795.7875366210938
187,794.1758422851562,801.025634765625,802.6373901367188,790.1465454101562
188,794.5787353515625,797.3992919921875,801.8314819335938,791.7582397460938
189,800.2197875976562,800.2197875976562,805.4578857421875,798.6080322265625
190,798.2051391601562,800.2197875976562,810.6959838867188,801.4285888671875
191,799.4139404296875,797.8021850585938,812.3076782226562,794.981689453125
192,794.5787353515625,798.2051391601562,808.6813354492188,791.7582397460938
193,789.3406372070312,799.8168334960938,806.2637329101562,794.5787353515625
194,795.3846435546875,795.3846435546875,805.4578857421875,794.1758422851562
195,797.3992919921875,793.3699340820312,806.6666870117188,792.5640869140625
196,796.5933837890625,797.8021850585938,810.6959838867188,796.1904907226562
197,797.8021850585938,794.981689453125,806.2637329101562,801.025634765625
198,800.2197875976562,797.3992919921875,802.6373901367188,803.4432373046875
199,804.6520385742188,799.8168334960938,807.069580078125,808.6813354492188
200,805.8607788085938,792.5640869140625,807.4725341796875,811.5018310546875
201,799.010986328125,792.967041015625,806.6666870117188,802.2344360351562
202,791.7582397460938,792.967041015625,808.2783813476562,792.967041015625
203,792.967041015625,792.967041015625,806.2637329101562,800.2197875976562
204,797.3992919921875,795.3846435546875,803.040283203125,803.8461303710938
205,798.2051391601562,795.7875366210938,805.4578857421875,802.6373901367188
206,799.4139404296875,794.1758422851562,807.069580078125,801.8314819335938
207,803.040283203125,795.3846435546875,808.6813354492188,801.4285888671875
208,802.6373901367188,796.996337890625,807.4725341796875,803.8461303710938
209,800.2197875976562,799.4139404296875,806.6666870117188,801.8314819335938
210,799.010986328125,800.2197875976562,807.87548828125,799.010986328125
211,794.981689453125,797.8021850585938,803.040283203125,802.2344360351562
212,791.3552856445312,794.1758422851562,799.8168334960938,800.6226806640625
213,792.967041015625,794.5787353515625,803.040283203125,794.5787353515625
214,793.7728881835938,795.7875366210938,801.8314819335938,794.5787353515625
215,796.5933837890625,793.3699340820312,801.8314819335938,798.2051391601562
216,803.4432373046875,796.1904907226562,808.2783813476562,808.6813354492188
217,799.010986328125,799.4139404296875,809.89013671875,811.098876953125
218,792.967041015625,796.5933837890625,809.89013671875,807.87548828125
219,803.4432373046875,794.1758422851562,812.3076782226562,809.4871826171875
220,811.90478515625,797.8021850585938,809.084228515625,812.3076782226562
221,806.6666870117188,797.8021850585938,807.4725341796875,808.6813354492188
222,803.040283203125,796.5933837890625,806.6666870117188,803.040283203125
223,801.8314819335938,795.7875366210938,803.4432373046875,811.098876953125
224,798.2051391601562,790.952392578125,802.2344360351562,817.5457763671875
225,799.4139404296875,791.7582397460938,809.084228515625,807.87548828125
226,803.040283203125,796.996337890625,809.084228515625,802.2344360351562
227,803.8461303710938,797.3992919921875,807.069580078125,805.054931640625
228,804.2490844726562,792.967041015625,807.069580078125,806.2637329101562
229,812.7106323242188,798.2051391601562,810.2930297851562,811.5018310546875
230,817.1428833007812,802.2344360351562,813.5164794921875,815.5311279296875
231,811.098876953125,799.010986328125,808.6813354492188,815.93408203125
232,804.6520385742188,796.5933837890625,805.054931640625,817.1428833007812
233,799.4139404296875,796.996337890625,804.6520385742188,814.3223266601562
234,806.6666870117188,797.8021850585938,807.4725341796875,813.113525390625
235,815.93408203125,803.040283203125,807.87548828125,820.7692260742188
236,805.8607788085938,806.2637329101562,807.069580078125,814.7252807617188
237,797.3992919921875,802.2344360351562,805.054931640625,803.4432373046875
238,802.2344360351562,799.010986328125,808.6813354492188,808.6813354492188
239,804.6520385742188,805.054931640625,809.4871826171875,806.6666870117188
240,803.4432373046875,804.2490844726562,805.4578857421875,796.996337890625
241,807.4725341796875,798.2051391601562,804.2490844726562,801.8314819335938
242,813.91943359375,798.2051391601562,805.8607788085938,811.098876953125
243,813.91943359375,798.6080322265625,804.6520385742188,815.5311279296875
244,808.6813354492188,797.8021850585938,804.2490844726562,807.4725341796875
245,809.084228515625,799.8168334960938,805.054931640625,801.025634765625
246,805.4578857421875,797.8021850585938,801.025634765625,803.4432373046875
247,799.8168334960938,799.010986328125,804.2490844726562,802.2344360351562
248,795.7875366210938,799.8168334960938,805.054931640625,792.967041015625
249,792.967041015625,798.6080322265625,800.6226806640625,795.7875366210938
250,793.3699340820312,799.010986328125,798.6080322265625,805.8607788085938
251,801.8314819335938,799.8168334960938,801.8314819335938,811.90478515625
252,803.4432373046875,799.8168334960938,801.025634765625,809.4871826171875
253,800.6226806640625,794.981689453125,802.6373901367188,808.2783813476562
254,799.8168334960938,798.2051391601562,803.040283203125,810.2930297851562
255,800.6226806640625,800.6226806640625,803.8461303710938,809.084228515625
256,801.4285888671875,797.3992919921875,806.6666870117188,805.8607788085938
257,805.8607788085938,801.025634765625,808.2783813476562,808.2783813476562
258,805.8607788085938,803.8461303710938,810.6959838867188,815.93408203125
259,803.4432373046875,803.8461303710938,811.098876953125,815.5311279296875
260,808.6813354492188,803.8461303710938,811.90478515625,811.5018310546875
261,809.084228515625,805.4578857421875,812.7106323242188,818.7545776367188
262,808.6813354492188,802.2344360351562,811.098876953125,824.3956298828125
263,808.2783813476562,801.025634765625,809.084228515625,821.97802734375
264,805.4578857421875,802.2344360351562,810.2930297851562,817.94873046875
265,808.2783813476562,798.2051391601562,807.069580078125,819.96337890625
266,803.4432373046875,794.5787353515625,803.8461303710938,822.3809814453125
267,803.4432373046875,798.2051391601562,808.2783813476562,815.5311279296875
268,807.069580078125,797.3992919921875,808.6813354492188,813.5164794921875
269,800.6226806640625,793.7728881835938,799.8168334960938,812.3076782226562
270,803.8461303710938,795.7875366210938,797.3992919921875,811.90478515625
271,806.6666870117188,798.6080322265625,802.6373901367188,806.2637329101562
272,792.967041015625,793.3699340820312,808.2783813476562,797.3992919921875
273,782.893798828125,789.7435913085938,813.91943359375,793.7728881835938
274,778.8644409179688,788.1318969726562,815.1282348632812,791.3552856445312
275,786.1171875,789.7435913085938,811.5018310546875,795.3846435546875
276,794.5787353515625,791.3552856445312,807.87548828125,803.4432373046875
277,794.5787353515625,792.1611938476562,811.5018310546875,809.084228515625
278,790.5494384765625,796.1904907226562,813.113525390625,807.069580078125
279,787.7289428710938,793.7728881835938,811.098876953125,797.3992919921875
280,790.1465454101562,790.5494384765625,808.6813354492188,794.5787353515625
281,796.996337890625,787.7289428710938,805.8607788085938,806.6666870117188
282,803.040283203125,790.5494384765625,807.87548828125,815.5311279296875
283,802.6373901367188,792.1611938476562,809.89013671875,807.87548828125
284,796.1904907226562,792.1611938476562,809.4871826171875,801.8314819335938
285,795.3846435546875,796.1904907226562,811.5018310546875,804.6520385742188
286,796.5933837890625,796.996337890625,806.6666870117188,800.6226806640625
287,803.040283203125,795.7875366210938,809.084228515625,804.6520385742188
288,805.8607788085938,795.3846435546875,815.93408203125,814.7252807617188
289,799.010986328125,796.996337890625,814.3223266601562,808.6813354492188
290,801.8314819335938,798.6080322265625,816.7399291992188,800.2197875976562
291,804.2490844726562,796.1904907226562,817.94873046875,800.2197875976562
292,804.6520385742188,796.1904907226562,815.93408203125,811.098876953125
293,808.2783813476562,796.5933837890625,814.7252807617188,818.7545776367188
294,801.4285888671875,795.7875366210938,813.113525390625,803.040283203125
295,799.8168334960938,797.3992919921875,809.4871826171875,792.5640869140625
296,805.4578857421875,799.010986328125,809.084228515625,797.8021850585938
297,805.054931640625,800.6226806640625,808.6813354492188,801.4285888671875
298,805.4578857421875,801.025634765625,805.4578857421875,800.2197875976562
299,805.4578857421875,795.3846435546875,804.6520385742188,801.4285888671875
300,801.8314819335938,792.1611938476562,809.084228515625,797.3992919921875
301,803.4432373046875,796.1904907226562,809.4871826171875,796.5933837890625
302,800.2197875976562,796.996337890625,812.7106323242188,803.4432373046875
303,797.3992919921875,795.7875366210938,815.1282348632812,803.040283203125
304,803.4432373046875,794.981689453125,813.5164794921875,801.025634765625
305,804.6520385742188,799.010986328125,815.1282348632812,804.6520385742188
306,804.6520385742188,800.2197875976562,811.5018310546875,807.069580078125
307,809.89013671875,796.996337890625,810.6959838867188,803.8461303710938
308,810.6959838867188,797.3992919921875,809.4871826171875,813.113525390625
309,803.8461303710938,797.3992919921875,807.069580078125,804.2490844726562
310,801.025634765625,792.1611938476562,806.6666870117188,792.1611938476562
311,805.054931640625,792.5640869140625,807.4725341796875,801.8314819335938
312,809.4871826171875,794.5787353515625,811.5018310546875,802.2344360351562
313,806.6666870117188,792.967041015625,814.3223266601562,799.010986328125
314,803.4432373046875,794.5787353515625,814.3223266601562,800.2197875976562
315,799.8168334960938,789.7435913085938,811.098876953125,801.8314819335938
316,798.6080322265625,788.1318969726562,809.89013671875,803.4432373046875
317,806.6666870117188,792.967041015625,811.5018310546875,810.2930297851562
318,807.4725341796875,791.3552856445312,807.87548828125,807.069580078125
319,802.6373901367188,786.5201416015625,807.87548828125,804.6520385742188
320,800.2197875976562,786.1171875,811.098876953125,806.2637329101562
321,799.4139404296875,790.5494384765625,815.1282348632812,803.8461303710938
322,802.2344360351562,790.952392578125,815.5311279296875,801.025634765625
323,804.2490844726562,790.952392578125,817.1428833007812,801.8314819335938
324,799.8168334960938,790.952392578125,818.7545776367188,803.040283203125
325,797.3992919921875,792.967041015625,812.3076782226562,801.025634765625
326,790.5494384765625,790.5494384765625,806.2637329101562,794.5787353515625
327,793.3699340820312,791.7582397460938,803.8461303710938,798.6080322265625
328,805.054931640625,794.5787353515625,806.6666870117188,805.8607788085938
329,805.4578857421875,794.981689453125,811.098876953125,800.2197875976562
330,804.2490844726562,797.8021850585938,811.098876953125,797.3992919921875
331,804.6520385742188,793.7728881835938,806.6666870117188,806.2637329101562
332,803.8461303710938,790.5494384765625,807.87548828125,805.054931640625
333,804.2490844726562,796.1904907226562,807.87548828125,798.2051391601562
334,803.4432373046875,799.4139404296875,807.069580078125,796.996337890625
335,808.6813354492188,799.8168334960938,809.084228515625,800.6226806640625
336,805.8607788085938,799.8168334960938,805.8607788085938,803.040283203125
337,804.2490844726562,799.4139404296875,809.084228515625,808.2783813476562
338,809.084228515625,799.8168334960938,809.89013671875,814.3223266601562
339,801.8314819335938,798.6080322265625,805.054931640625,807.4725341796875
340,797.8021850585938,794.981689453125,805.054931640625,804.6520385742188
341,803.040283203125,793.3699340820312,805.054931640625,805.4578857421875
342,803.8461303710938,795.7875366210938,806.6666870117188,809.4871826171875
343,800.2197875976562,796.996337890625,803.8461303710938,808.2783813476562
344,798.6080322265625,796.5933837890625,801.8314819335938,796.1904907226562
345,800.2197875976562,799.4139404296875,805.8607788085938,797.3992919921875
346,801.4285888671875,797.8021850585938,805.8607788085938,800.2197875976562
347,803.040283203125,798.2051391601562,806.2637329101562,802.2344360351562
348,803.040283203125,802.6373901367188,809.4871826171875,800.2197875976562
349,807.069580078125,802.2344360351562,805.4578857421875,801.025634765625
350,804.6520385742188,797.8021850585938,805.054931640625,807.4725341796875
351,796.5933837890625,799.010986328125,805.4578857421875,805.4578857421875
352,794.5787353515625,799.010986328125,801.8314819335938,807.069580078125
353,794.981689453125,795.7875366210938,801.8314819335938,806.6666870117188
354,801.4285888671875,799.4139404296875,801.8314819335938,808.2783813476562
355,803.8461303710938,801.8314819335938,807.87548828125,801.4285888671875
356,802.2344360351562,796.1904907226562,812.3076782226562,796.996337890625
357,797.3992919921875,793.3699340820312,807.4725341796875,804.2490844726562
358,796.5933837890625,795.3846435546875,808.2783813476562,810.2930297851562
359,800.6226806640625,799.8168334960938,806.6666870117188,806.2637329101562
360,804.6520385742188,801.025634765625,803.8461303710938,796.996337890625
361,803.040283203125,798.2051391601562,806.6666870117188,794.1758422851562
362,800.2197875976562,798.2051391601562,808.2783813476562,798.2051391601562
363,803.040283203125,798.2051391601562,809.89013671875,803.8461303710938
364,807.87548828125,799.4139404296875,810.6959838867188,803.040283203125
365,815.5311279296875,799.8168334960938,808.2783813476562,807.4725341796875
366,815.1282348632812,796.996337890625,809.89013671875,821.1721801757812
367,807.069580078125,798.6080322265625,812.3076782226562,814.3223266601562
368,811.098876953125,799.8168334960938,811.5018310546875,809.084228515625
369,810.2930297851562,799.010986328125,811.098876953125,812.3076782226562
370,807.069580078125,797.3992919921875,809.89013671875,808.6813354492188
371,801.025634765625,796.996337890625,811.098876953125,806.6666870117188
372,792.5640869140625,796.1904907226562,810.6959838867188,809.084228515625
373,799.4139404296875,799.8168334960938,810.6959838867188,811.5018310546875
374,802.2344360351562,803.8461303710938,811.5018310546875,809.084228515625
375,803.4432373046875,801.8314819335938,811.098876953125,807.4725341796875
376,803.4432373046875,798.6080322265625,810.2930297851562,804.2490844726562
377,798.6080322265625,796.1904907226562,811.5018310546875,800.2197875976562
378,795.3846435546875,798.2051391601562,810.6959838867188,796.5933837890625
379,792.1611938476562,797.3992919921875,809.4871826171875,799.8168334960938
380,796.996337890625,794.5787353515625,809.4871826171875,803.4432373046875
381,805.054931640625,796.5933837890625,808.2783813476562,818.7545776367188
382,796.996337890625,799.010986328125,805.054931640625,821.5750732421875
383,792.1611938476562,800.6226806640625,804.6520385742188,807.87548828125
384,801.8314819335938,801.025634765625,809.4871826171875,808.6813354492188
385,802.6373901367188,801.025634765625,812.3076782226562,810.6959838867188
386,803.8461303710938,797.3992919921875,809.89013671875,810.6959838867188
387,809.4871826171875,793.3699340820312,806.2637329101562,819.96337890625
388,803.4432373046875,795.7875366210938,805.8607788085938,815.1282348632812
389,794.5787353515625,796.1904907226562,807.069580078125,792.5640869140625
390,794.981689453125,794.981689453125,808.6813354492188,792.1611938476562
391,802.2344360351562,798.6080322265625,810.6959838867188,801.4285888671875
392,800.2197875976562,799.010986328125,811.098876953125,801.8314819335938
393,795.7875366210938,797.3992919921875,811.5018310546875,798.6080322265625
394,799.010986328125,799.4139404296875,809.89013671875,798.6080322265625
395,803.4432373046875,801.4285888671875,809.4871826171875,805.8607788085938
396,805.8607788085938,801.025634765625,811.5018310546875,811.5018310546875
397,803.8461303710938,797.8021850585938,810.2930297851562,806.6666870117188
398,800.6226806640625,795.3846435546875,806.6666870117188,800.6226806640625
399,798.6080322265625,794.5787353515625,804.2490844726562,797.8021850585938
400,799.8168334960938,796.996337890625,806.2637329101562,800.2197875976562
401,798.2051391601562,799.4139404296875,808.6813354492188,801.4285888671875
402,792.1611938476562,794.1758422851562,803.040283203125,794.5787353515625
403,794.5787353515625,792.1611938476562,800.6226806640625,797.3992919921875
404,801.4285888671875,789.7435913085938,805.4578857421875,810.6959838867188
405,803.8461303710938,792.1611938476562,809.4871826171875,808.6813354492188
406,807.87548828125,795.3846435546875,807.069580078125,800.6226806640625
407,805.054931640625,794.5787353515625,803.040283203125,799.010986328125
408,797.3992919921875,790.5494384765625,804.2490844726562,799.8168334960938
409,799.4139404296875,792.1611938476562,804.6520385742188,803.8461303710938
410,801.025634765625,794.1758422851562,801.8314819335938,804.2490844726562
411,795.7875366210938,790.1465454101562,803.040283203125,799.8168334960938
412,798.2051391601562,791.7582397460938,807.4725341796875,797.8021850585938
413,801.4285888671875,788.5347900390625,807.4725341796875,804.2490844726562
414,795.7875366210938,787.7289428710938,809.89013671875,805.4578857421875
415,794.5787353515625,789.3406372070312,811.5018310546875,809.084228515625
416,801.4285888671875,788.1318969726562,811.5018310546875,810.6959838867188
417,795.7875366210938,790.5494384765625,814.3223266601562,799.4139404296875
418,793.7728881835938,795.3846435546875,815.93408203125,798.6080322265625
419,799.8168334960938,795.7875366210938,813.91943359375,804.6520385742188
420,796.1904907226562,794.1758422851562,809.084228515625,801.025634765625
421,797.3992919921875,795.7875366210938,808.6813354492188,802.2344360351562
422,796.5933837890625,793.3699340820312,810.2930297851562,803.8461303710938
423,796.1904907226562,790.952392578125,807.87548828125,798.2051391601562
424,797.8021850585938,796.5933837890625,807.069580078125,802.2344360351562
425,794.981689453125,797.8021850585938,810.6959838867188,809.89013671875
426,792.1611938476562,794.1758422851562,810.6959838867188,806.2637329101562
427,797.8021850585938,795.3846435546875,811.5018310546875,813.5164794921875
428,796.996337890625,800.2197875976562,815.5311279296875,809.084228515625
429,794.1758422851562,803.8461303710938,814.7252807617188,795.3846435546875
430,802.6373901367188,802.6373901367188,812.3076782226562,797.8021850585938
431,807.4725341796875,799.4139404296875,812.3076782226562,804.6520385742188
432,803.8461303710938,798.2051391601562,810.6959838867188,813.113525390625
433,798.6080322265625,799.010986328125,806.6666870117188,808.2783813476562
434,800.6226806640625,799.4139404296875,811.098876953125,807.069580078125
435,796.5933837890625,796.5933837890625,812.3076782226562,806.2637329101562
436,794.5787353515625,797.8021850585938,807.069580078125,802.6373901367188
437,800.2197875976562,801.4285888671875,806.2637329101562,804.6520385742188
438,805.8607788085938,796.1904907226562,809.4871826171875,808.2783813476562
439,801.4285888671875,791.3552856445312,807.87548828125,812.7106323242188
440,796.996337890625,792.967041015625,807.4725341796875,801.4285888671875
441,799.010986328125,792.967041015625,813.5164794921875,792.5640869140625
442,797.3992919921875,793.3699340820312,814.7252807617188,796.5933837890625
443,801.025634765625,795.7875366210938,815.93408203125,798.6080322265625
444,803.4432373046875,799.010986328125,815.5311279296875,796.996337890625
445,799.010986328125,800.2197875976562,811.90478515625,800.6226806640625
446,801.025634765625,795.3846435546875,805.8607788085938,801.8314819335938
447,809.4871826171875,796.1904907226562,806.2637329101562,809.084228515625
448,808.2783813476562,799.010986328125,810.2930297851562,813.5164794921875
449,806.2637329101562,796.1904907226562,807.87548828125,806.2637329101562
450,815.1282348632812,796.1904907226562,808.6813354492188,816.7399291992188
451,813.91943359375,797.3992919921875,813.91943359375,823.1868286132812
452,808.6813354492188,798.6080322265625,813.91943359375,812.3076782226562
453,808.6813354492188,796.5933837890625,809.4871826171875,806.6666870117188
454,806.2637329101562,798.6080322265625,808.2783813476562,805.4578857421875
455,805.8607788085938,803.040283203125,811.5018310546875,806.2637329101562
456,805.054931640625,799.8168334960938,814.3223266601562,803.8461303710938
457,807.069580078125,798.6080322265625,810.2930297851562,799.8168334960938
458,802.2344360351562,795.3846435546875,806.2637329101562,795.3846435546875
459,798.6080322265625,792.1611938476562,810.2930297851562,801.4285888671875
460,799.8168334960938,792.1611938476562,808.6813354492188,801.4285888671875
461,798.6080322265625,788.937744140625,801.8314819335938,801.4285888671875
462,797.3992919921875,789.3406372070312,800.2197875976562,810.6959838867188
463,795.3846435546875,793.7728881835938,803.040283203125,802.6373901367188
464,801.025634765625,792.1611938476562,804.2490844726562,801.8314819335938
465,803.4432373046875,791.3552856445312,799.4139404296875,808.2783813476562
466,826.8131713867188,794.1758422851562,801.8314819335938,805.8607788085938
467,832.4542236328125,794.981689453125,806.6666870117188,798.6080322265625
468,809.89013671875,798.2051391601562,807.069580078125,795.7875366210938
469,800.2197875976562,802.6373901367188,807.069580078125,801.025634765625
470,777.2527465820312,802.6373901367188,805.4578857421875,795.7875366210938
471,773.6264038085938,798.2051391601562,808.6813354492188,795.7875366210938
472,782.893798828125,795.7875366210938,807.4725341796875,806.2637329101562
473,789.7435913085938,795.3846435546875,807.069580078125,817.1428833007812
474,791.3552856445312,797.8021850585938,809.4871826171875,815.5311279296875
475,786.1171875,797.8021850585938,809.084228515625,806.2637329101562
476,788.1318969726562,793.3699340820312,806.2637329101562,802.6373901367188
477,795.3846435546875,795.3846435546875,807.069580078125,808.2783813476562
478,801.8314819335938,796.996337890625,809.89013671875,802.6373901367188
479,806.2637329101562,798.6080322265625,811.5018310546875,799.4139404296875
480,805.4578857421875,799.8168334960938,811.90478515625,803.040283203125
481,798.6080322265625,796.1904907226562,810.6959838867188,801.025634765625
482,799.4139404296875,796.996337890625,807.4725341796875,803.4432373046875
483,808.6813354492188,799.010986328125,804.6520385742188,804.2490844726562
484,802.6373901367188,792.967041015625,805.4578857421875,800.6226806640625
485,791.3552856445312,788.5347900390625,803.8461303710938,802.2344360351562
486,791.7582397460938,793.7728881835938,801.8314819335938,801.8314819335938
487,794.5787353515625,793.3699340820312,805.4578857421875,799.8168334960938
488,802.2344360351562,790.5494384765625,807.4725341796875,807.87548828125
489,809.084228515625,795.3846435546875,808.2783813476562,810.6959838867188
490,803.4432373046875,798.2051391601562,808.6813354492188,806.2637329101562
491,796.996337890625,797.3992919921875,813.5164794921875,805.054931640625
492,798.2051391601562,793.3699340820312,813.91943359375,809.084228515625
493,800.6226806640625,793.7728881835938,808.6813354492188,809.4871826171875
494,798.2051391601562,797.3992919921875,810.2930297851562,806.6666870117188
495,796.1904907226562,794.981689453125,813.113525390625,807.87548828125
496,797.3992919921875,792.967041015625,813.5164794921875,811.5018310546875
497,796.1904907226562,790.5494384765625,812.3076782226562,810.2930297851562
498,796.5933837890625,791.3552856445312,810.2930297851562,807.87548828125
499,804.6520385742188,791.7582397460938,808.6813354492188,813.5164794921875
500,807.069580078125,791.3552856445312,810.6959838867188,819.1575317382812
501,801.025634765625,797.8021850585938,808.6813354492188,808.6813354492188
502,796.1904907226562,798.2051391601562,807.87548828125,799.010986328125
503,802.6373901367188,794.5787353515625,808.6813354492188,806.6666870117188
504,809.4871826171875,794.1758422851562,803.8461303710938,811.5018310546875
505,801.8314819335938,794.981689453125,802.6373901367188,808.6813354492188
506,794.1758422851562,795.7875366210938,803.8461303710938,809.4871826171875
507,796.5933837890625,790.952392578125,803.040283203125,813.5164794921875
508,804.6520385742188,793.3699340820312,803.8461303710938,813.91943359375
509,804.2490844726562,794.981689453125,805.054931640625,808.6813354492188
510,805.8607788085938,794.5787353515625,803.8461303710938,800.2197875976562
511,809.084228515625,794.5787353515625,805.4578857421875,803.4432373046875
512,806.2637329101562,791.7582397460938,802.2344360351562,805.4578857421875
513,798.2051391601562,794.1758422851562,800.6226806640625,794.981689453125
514,801.025634765625,796.996337890625,803.040283203125,800.6226806640625
515,804.2490844726562,794.5787353515625,805.054931640625,805.8607788085938
516,796.5933837890625,795.3846435546875,808.2783813476562,804.6520385742188
517,793.7728881835938,796.1904907226562,808.6813354492188,809.084228515625
518,797.8021850585938,793.3699340820312,808.6813354492188,811.5018310546875
519,801.025634765625,792.1611938476562,809.4871826171875,814.7252807617188
520,803.040283203125,791.7582397460938,808.2783813476562,807.4725341796875
521,802.6373901367188,792.967041015625,808.6813354492188,799.4139404296875
522,801.4285888671875,796.1904907226562,812.3076782226562,808.6813354492188
523,803.040283203125,796.996337890625,814.3223266601562,815.5311279296875
524,805.8607788085938,798.6080322265625,809.084228515625,809.89013671875
525,809.084228515625,794.981689453125,809.4871826171875,807.069580078125
526,806.6666870117188,792.967041015625,810.2930297851562,806.2637329101562
527,803.8461303710938,798.2051391601562,809.4871826171875,811.098876953125
528,807.4725341796875,800.6226806640625,812.7106323242188,818.7545776367188
529,805.054931640625,797.3992919921875,811.098876953125,811.098876953125
530,801.025634765625,796.1904907226562,808.6813354492188,804.6520385742188
531,803.8461303710938,797.8021850585938,808.6813354492188,807.4725341796875
532,799.8168334960938,799.4139404296875,808.6813354492188,807.87548828125
533,801.8314819335938,800.6226806640625,808.2783813476562,809.084228515625
534,803.8461303710938,795.7875366210938,808.2783813476562,816.7399291992188
535,803.8461303710938,796.996337890625,807.87548828125,822.7838745117188
536,802.2344360351562,803.4432373046875,810.2930297851562,813.5164794921875
537,797.8021850585938,801.4285888671875,808.6813354492188,803.8461303710938
538,804.2490844726562,799.4139404296875,808.2783813476562,806.6666870117188
539,805.4578857421875,798.2051391601562,812.7106323242188,806.6666870117188
540,804.2490844726562,800.2197875976562,811.5018310546875,805.054931640625
541,808.6813354492188,799.8168334960938,806.6666870117188,800.2197875976562
542,807.069580078125,796.1904907226562,805.4578857421875,801.025634765625
543,803.040283203125,800.6226806640625,806.6666870117188,807.4725341796875
544,808.6813354492188,803.4432373046875,807.87548828125,811.098876953125
545,811.90478515625,800.2197875976562,806.2637329101562,814.3223266601562
546,807.069580078125,797.8021850585938,798.6080322265625,820.7692260742188
547,797.3992919921875,795.3846435546875,798.2051391601562,809.4871826171875
548,800.6226806640625,797.3992919921875,802.2344360351562,800.2197875976562
549,809.084228515625,802.6373901367188,803.4432373046875,811.5018310546875
550,805.054931640625,799.8168334960938,803.040283203125,813.91943359375
551,802.2344360351562,796.5933837890625,803.8461303710938,807.069580078125
552,801.4285888671875,796.996337890625,807.87548828125,805.054931640625
553,796.996337890625,796.5933837890625,807.069580078125,806.2637329101562
554,798.2051391601562,792.5640869140625,805.8607788085938,805.4578857421875
555,803.4432373046875,791.3552856445312,808.6813354492188,809.4871826171875
556,805.4578857421875,790.952392578125,810.2930297851562,804.6520385742188
557,803.4432373046875,792.1611938476562,809.084228515625,803.040283203125
558,792.5640869140625,794.981689453125,808.2783813476562,800.6226806640625
559,795.7875366210938,797.8021850585938,810.2930297851562,799.4139404296875
560,806.2637329101562,791.7582397460938,809.084228515625,804.2490844726562
561,802.6373901367188,786.5201416015625,808.2783813476562,806.6666870117188
562,798.2051391601562,788.5347900390625,809.4871826171875,805.8607788085938
563,794.981689453125,789.7435913085938,811.098876953125,805.8607788085938
564,798.2051391601562,792.5640869140625,810.6959838867188,805.4578857421875
565,805.4578857421875,796.5933837890625,807.87548828125,810.6959838867188
566,806.2637329101562,794.981689453125,809.084228515625,812.3076782226562
567,804.2490844726562,796.5933837890625,810.2930297851562,806.2637329101562
568,806.6666870117188,795.7875366210938,807.87548828125,809.084228515625
569,810.6959838867188,791.7582397460938,805.4578857421875,817.1428833007812
570,805.054931640625,794.5787353515625,804.6520385742188,811.098876953125
571,802.6373901367188,796.996337890625,803.4432373046875,801.8314819335938
572,805.8607788085938,794.1758422851562,802.6373901367188,803.8461303710938
573,806.2637329101562,795.3846435546875,803.4432373046875,810.6959838867188
574,805.8607788085938,799.010986328125,805.054931640625,811.098876953125
575,807.4725341796875,792.1611938476562,807.4725341796875,805.8607788085938
576,806.2637329101562,789.3406372070312,806.2637329101562,807.4725341796875
577,803.040283203125,792.967041015625,806.6666870117188,805.054931640625
578,798.2051391601562,791.7582397460938,809.89013671875,794.5787353515625
579,802.2344360351562,789.3406372070312,809.89013671875,795.3846435546875
580,799.010986328125,786.5201416015625,805.054931640625,799.010986328125
581,795.7875366210938,785.3113403320312,804.6520385742188,799.010986328125
582,804.6520385742188,790.5494384765625,809.084228515625,789.7435913085938
583,799.010986328125,792.967041015625,812.3076782226562,785.3113403320312
584,792.967041015625,792.1611938476562,813.91943359375,792.967041015625
585,801.025634765625,795.7875366210938,813.113525390625,795.7875366210938
586,802.2344360351562,796.1904907226562,812.7106323242188,796.996337890625
587,798.6080322265625,793.3699340820312,812.7106323242188,805.8607788085938
588,801.025634765625,794.1758422851562,811.90478515625,810.2930297851562
589,805.054931640625,793.3699340820312,810.6959838867188,810.6959838867188
590,805.4578857421875,794.5787353515625,810.6959838867188,812.7106323242188
591,806.6666870117188,798.6080322265625,810.2930297851562,815.1282348632812
592,810.2930297851562,795.3846435546875,811.098876953125,823.1868286132812
593,810.2930297851562,794.1758422851562,811.90478515625,818.3516235351562
594,809.084228515625,800.6226806640625,809.89013671875,805.4578857421875
595,802.2344360351562,799.4139404296875,811.098876953125,807.069580078125
596,796.1904907226562,791.7582397460938,807.069580078125,810.2930297851562
597,799.010986328125,794.981689453125,805.8607788085938,806.6666870117188
598,800.6226806640625,800.2197875976562,810.6959838867188,806.2637329101562
599,798.6080322265625,796.996337890625,805.8607788085938,806.6666870117188
600,797.8021850585938,795.7875366210938,801.8314819335938,803.4432373046875
601,804.2490844726562,798.6080322265625,807.87548828125,799.010986328125
602,803.4432373046875,801.025634765625,812.3076782226562,797.3992919921875
603,801.4285888671875,799.4139404296875,810.2930297851562,794.981689453125
604,796.5933837890625,792.1611938476562,807.069580078125,791.7582397460938
605,794.5787353515625,791.3552856445312,807.87548828125,792.5640869140625
606,806.6666870117188,796.996337890625,811.90478515625,798.6080322265625
607,815.93408203125,796.5933837890625,806.6666870117188,804.2490844726562
608,809.084228515625,797.3992919921875,803.8461303710938,804.6520385742188
609,805.8607788085938,799.4139404296875,806.6666870117188,796.1904907226562
610,810.2930297851562,799.8168334960938,805.054931640625,794.981689453125
611,807.069580078125,798.2051391601562,803.4432373046875,798.6080322265625
612,801.8314819335938,797.3992919921875,805.4578857421875,796.1904907226562
613,794.5787353515625,793.7728881835938,804.2490844726562,794.981689453125
614,794.981689453125,795.3846435546875,801.8314819335938,803.8461303710938
615,800.6226806640625,799.010986328125,801.4285888671875,805.8607788085938
616,799.4139404296875,793.3699340820312,800.6226806640625,800.6226806640625
617,798.6080322265625,788.937744140625,804.2490844726562,798.6080322265625
618,795.7875366210938,794.5787353515625,806.2637329101562,801.8314819335938
619,802.2344360351562,795.3846435546875,806.6666870117188,815.93408203125
620,806.6666870117188,797.8021850585938,811.5018310546875,813.113525390625
621,803.4432373046875,796.996337890625,807.4725341796875,801.025634765625
622,799.010986328125,796.5933837890625,802.6373901367188,801.8314819335938
623,795.7875366210938,801.025634765625,807.069580078125,806.6666870117188
624,793.3699340820312,799.8168334960938,808.6813354492188,805.8607788085938
625,793.3699340820312,800.2197875976562,806.6666870117188,803.4432373046875
626,792.1611938476562,799.010986328125,803.8461303710938,800.2197875976562
627,791.7582397460938,799.8168334960938,801.4285888671875,793.7728881835938
628,794.1758422851562,800.6226806640625,801.8314819335938,793.3699340820312
629,796.996337890625,798.2051391601562,802.6373901367188,794.981689453125
630,798.6080322265625,788.5347900390625,799.4139404296875,798.2051391601562
631,799.8168334960938,784.908447265625,798.2051391601562,802.6373901367188
632,807.87548828125,790.952392578125,801.8314819335938,797.8021850585938
633,809.4871826171875,789.3406372070312,807.069580078125,798.2051391601562
634,799.8168334960938,780.4761962890625,802.6373901367188,802.6373901367188
635,791.7582397460938,786.1171875,803.040283203125,797.8021850585938
636,792.967041015625,793.7728881835938,809.4871826171875,792.5640869140625
637,803.040283203125,793.7728881835938,810.2930297851562,801.4285888671875
638,807.4725341796875,797.3992919921875,811.90478515625,804.6520385742188
639,799.4139404296875,799.8168334960938,807.87548828125,793.7728881835938
640,794.981689453125,796.1904907226562,805.054931640625,791.7582397460938
641,797.8021850585938,792.5640869140625,809.084228515625,794.981689453125
642,800.6226806640625,788.1318969726562,807.87548828125,801.8314819335938
643,796.5933837890625,791.3552856445312,807.87548828125,803.4432373046875
644,792.967041015625,794.1758422851562,812.3076782226562,801.4285888671875
645,799.4139404296875,789.3406372070312,811.5018310546875,803.8461303710938
646,803.4432373046875,794.1758422851562,810.6959838867188,806.2637329101562
647,795.7875366210938,796.996337890625,812.3076782226562,805.4578857421875
648,799.8168334960938,794.981689453125,809.4871826171875,807.069580078125
649,805.4578857421875,796.1904907226562,809.4871826171875,813.5164794921875
650,792.5640869140625,792.967041015625,810.6959838867188,809.084228515625
651,791.3552856445312,791.3552856445312,809.4871826171875,804.6520385742188
652,797.3992919921875,792.967041015625,808.2783813476562,805.8607788085938
653,798.2051391601562,790.5494384765625,807.87548828125,808.2783813476562
654,794.981689453125,793.3699340820312,806.2637329101562,816.7399291992188
655,792.967041015625,796.1904907226562,809.89013671875,815.5311279296875
656,796.996337890625,796.1904907226562,811.90478515625,807.87548828125
657,797.8021850585938,800.6226806640625,809.084228515625,808.2783813476562
658,796.1904907226562,796.1904907226562,808.6813354492188,809.4871826171875
659,799.010986328125,794.1758422851562,813.5164794921875,809.4871826171875
660,799.010986328125,793.7728881835938,813.113525390625,805.054931640625
661,801.8314819335938,793.7728881835938,808.2783813476562,806.6666870117188
662,800.2197875976562,796.996337890625,811.098876953125,807.069580078125
663,795.3846435546875,796.1904907226562,811.5018310546875,801.025634765625
664,797.3992919921875,793.3699340820312,812.3076782226562,806.2637329101562
665,793.7728881835938,794.5787353515625,812.3076782226562,815.93408203125
666,792.1611938476562,797.8021850585938,812.7106323242188,810.2930297851562
667,796.5933837890625,800.6226806640625,815.1282348632812,804.2490844726562
668,804.6520385742188,802.2344360351562,815.1282348632812,809.084228515625
669,808.6813354492188,797.8021850585938,815.1282348632812,811.098876953125
670,805.054931640625,800.2197875976562,813.91943359375,811.098876953125
671,804.2490844726562,797.3992919921875,807.4725341796875,808.2783813476562
672,798.2051391601562,792.5640869140625,805.4578857421875,805.054931640625
673,800.6226806640625,798.2051391601562,808.6813354492188,804.2490844726562
674,811.5018310546875,800.6226806640625,807.069580078125,800.6226806640625
675,810.2930297851562,799.4139404296875,807.87548828125,801.4285888671875
676,811.098876953125,803.4432373046875,812.3076782226562,813.5164794921875
677,814.7252807617188,804.2490844726562,805.8607788085938,814.3223266601562
678,814.7252807617188,797.3992919921875,803.040283203125,796.5933837890625
679,814.3223266601562,799.8168334960938,806.2637329101562,799.4139404296875
680,811.098876953125,804.2490844726562,806.6666870117188,814.3223266601562
681,807.4725341796875,800.6226806640625,806.6666870117188,809.89013671875
682,803.4432373046875,797.3992919921875,805.8607788085938,806.2637329101562
683,800.2197875976562,799.4139404296875,803.4432373046875,804.2490844726562
684,796.5933837890625,797.8021850585938,803.8461303710938,797.3992919921875
685,793.3699340820312,796.5933837890625,810.6959838867188,798.2051391601562
686,799.4139404296875,799.4139404296875,812.7106323242188,799.8168334960938
687,803.4432373046875,797.3992919921875,811.5018310546875,801.025634765625
688,797.8021850585938,793.3699340820312,811.5018310546875,801.4285888671875
689,797.3992919921875,794.1758422851562,805.054931640625,805.054931640625
690,801.8314819335938,796.1904907226562,804.6520385742188,803.8461303710938
691,802.6373901367188,796.1904907226562,807.4725341796875,802.6373901367188
692,806.6666870117188,799.4139404296875,804.6520385742188,814.3223266601562
693,807.87548828125,801.025634765625,805.8607788085938,815.5311279296875
694,811.90478515625,799.4139404296875,810.2930297851562,812.3076782226562
695,815.1282348632812,803.040283203125,812.3076782226562,815.1282348632812
696,809.89013671875,801.025634765625,805.8607788085938,809.89013671875
697,807.069580078125,794.5787353515625,803.4432373046875,805.054931640625
698,807.069580078125,791.7582397460938,803.4432373046875,804.6520385742188
699,806.2637329101562,795.3846435546875,805.4578857421875,812.3076782226562
700,804.2490844726562,800.2197875976562,806.6666870117188,812.7106323242188
701,800.6226806640625,801.025634765625,804.2490844726562,805.054931640625
702,803.8461303710938,796.5933837890625,802.6373901367188,801.8314819335938
703,805.054931640625,794.1758422851562,802.6373901367188,799.010986328125
704,803.040283203125,797.3992919921875,801.4285888671875,807.87548828125
705,800.2197875976562,800.2197875976562,803.040283203125,804.6520385742188
706,798.6080322265625,797.3992919921875,803.040283203125,801.025634765625
707,802.6373901367188,793.7728881835938,802.2344360351562,805.4578857421875
708,807.4725341796875,797.8021850585938,807.87548828125,808.6813354492188
709,805.8607788085938,798.6080322265625,812.3076782226562,814.3223266601562
710,806.6666870117188,797.8021850585938,809.084228515625,813.5164794921875
711,803.8461303710938,801.025634765625,810.2930297851562,811.098876953125
712,807.069580078125,800.6226806640625,814.3223266601562,813.91943359375
713,810.6959838867188,796.996337890625,810.6959838867188,807.069580078125
714,806.6666870117188,795.3846435546875,808.2783813476562,800.2197875976562
715,805.4578857421875,795.7875366210938,810.2930297851562,813.113525390625
716,802.2344360351562,798.2051391601562,807.87548828125,810.6959838867188
717,803.4432373046875,798.2051391601562,806.2637329101562,804.6520385742188
718,807.069580078125,800.2197875976562,810.2930297851562,811.90478515625
719,808.2783813476562,803.8461303710938,815.1282348632812,808.6813354492188
720,803.4432373046875,803.8461303710938,811.5018310546875,806.6666870117188
721,798.6080322265625,801.4285888671875,810.2930297851562,809.89013671875
722,801.8314819335938,803.4432373046875,813.5164794921875,807.069580078125
723,801.025634765625,802.2344360351562,814.3223266601562,801.8314819335938
724,803.4432373046875,804.2490844726562,815.93408203125,804.6520385742188
725,807.069580078125,806.2637329101562,814.7252807617188,810.6959838867188
726,803.4432373046875,799.4139404296875,814.3223266601562,814.3223266601562
727,805.054931640625,799.8168334960938,812.3076782226562,814.7252807617188
728,805.054931640625,802.6373901367188,806.2637329101562,803.8461303710938
729,801.025634765625,800.6226806640625,805.054931640625,801.8314819335938
730,796.996337890625,795.7875366210938,807.4725341796875,806.2637329101562
731,789.7435913085938,794.5787353515625,807.4725341796875,801.025634765625
732,788.937744140625,798.6080322265625,805.4578857421875,795.3846435546875
733,796.996337890625,796.1904907226562,805.8607788085938,796.996337890625
734,796.5933837890625,793.3699340820312,807.87548828125,804.2490844726562
735,796.996337890625,794.5787353515625,806.6666870117188,808.2783813476562
736,800.6226806640625,794.1758422851562,803.4432373046875,808.2783813476562
737,795.7875366210938,793.7728881835938,803.4432373046875,808.2783813476562
738,796.5933837890625,797.3992919921875,804.2490844726562,814.3223266601562
739,798.6080322265625,801.4285888671875,807.069580078125,808.6813354492188
740,805.054931640625,801.8314819335938,809.89013671875,805.4578857421875
741,808.6813354492188,802.2344360351562,804.6520385742188,808.2783813476562
742,805.4578857421875,801.4285888671875,801.8314819335938,801.8314819335938
743,802.2344360351562,797.8021850585938,804.2490844726562,805.054931640625
744,797.3992919921875,793.7728881835938,799.8168334960938,806.2637329101562
745,798.6080322265625,794.1758422851562,801.4285888671875,804.6520385742188
746,806.6666870117188,801.4285888671875,808.6813354492188,806.2637329101562
747,804.2490844726562,800.6226806640625,807.069580078125,800.6226806640625
748,796.5933837890625,798.2051391601562,808.2783813476562,799.4139404296875
749,797.3992919921875,796.1904907226562,807.87548828125,806.2637329101562
750,799.8168334960938,796.1904907226562,807.069580078125,809.89013671875
751,793.7728881835938,799.4139404296875,812.7106323242188,804.2490844726562
752,794.1758422851562,798.6080322265625,811.098876953125,796.996337890625
753,802.2344360351562,799.8168334960938,807.87548828125,800.6226806640625
754,798.2051391601562,800.6226806640625,807.069580078125,803.040283203125
755,799.4139404296875,799.4139404296875,809.084228515625,804.6520385742188
756,808.6813354492188,800.6226806640625,811.098876953125,811.90478515625
757,806.6666870117188,801.4285888671875,809.084228515625,811.098876953125
758,805.8607788085938,803.040283203125,807.4725341796875,805.8607788085938
759,802.6373901367188,799.4139404296875,810.6959838867188,806.2637329101562
760,797.3992919921875,799.010986328125,813.91943359375,808.6813354492188
761,799.010986328125,799.010986328125,810.2930297851562,811.90478515625
762,799.8168334960938,795.7875366210938,811.5018310546875,813.91943359375
763,798.2051391601562,795.3846435546875,813.5164794921875,807.4725341796875
764,795.3846435546875,793.3699340820312,811.5018310546875,809.89013671875
765,803.4432373046875,794.5787353515625,811.098876953125,813.113525390625
766,803.8461303710938,797.3992919921875,806.6666870117188,801.4285888671875
767,796.1904907226562,795.7875366210938,801.4285888671875,790.5494384765625
768,794.5787353515625,791.7582397460938,806.2637329101562,794.5787353515625
769,787.7289428710938,793.7728881835938,807.87548828125,798.2051391601562
770,785.3113403320312,796.5933837890625,807.069580078125,798.6080322265625
771,790.5494384765625,795.7875366210938,807.4725341796875,798.6080322265625
772,793.7728881835938,795.7875366210938,807.069580078125,795.3846435546875
773,792.967041015625,796.996337890625,805.054931640625,794.981689453125
774,786.923095703125,796.1904907226562,803.4432373046875,796.5933837890625
775,788.937744140625,795.3846435546875,804.6520385742188,802.6373901367188
776,793.7728881835938,797.3992919921875,804.2490844726562,807.87548828125
777,793.3699340820312,796.1904907226562,801.4285888671875,805.8607788085938
778,794.981689453125,793.3699340820312,796.1904907226562,797.8021850585938
779,802.6373901367188,791.3552856445312,796.5933837890625,799.8168334960938
780,808.6813354492188,793.3699340820312,801.4285888671875,815.1282348632812
781,806.6666870117188,794.981689453125,802.6373901367188,812.3076782226562
782,800.6226806640625,794.5787353515625,799.010986328125,794.5787353515625
783,799.010986328125,796.996337890625,799.010986328125,794.5787353515625
784,803.4432373046875,794.1758422851562,799.4139404296875,804.2490844726562
785,799.010986328125,790.5494384765625,803.4432373046875,801.8314819335938
786,798.2051391601562,793.3699340820312,809.084228515625,797.8021850585938
787,806.6666870117188,797.3992919921875,807.069580078125,805.4578857421875
788,805.054931640625,796.5933837890625,806.6666870117188,813.91943359375
789,799.8168334960938,792.5640869140625,809.4871826171875,812.3076782226562
790,799.8168334960938,791.3552856445312,807.87548828125,806.6666870117188
791,804.2490844726562,794.5787353515625,809.89013671875,804.6520385742188
792,796.1904907226562,795.3846435546875,812.7106323242188,802.2344360351562
793,795.7875366210938,793.3699340820312,811.5018310546875,803.040283203125
794,797.8021850585938,791.3552856445312,810.2930297851562,803.4432373046875
795,797.8021850585938,794.981689453125,811.90478515625,806.6666870117188
796,799.4139404296875,795.7875366210938,809.89013671875,804.2490844726562
797,799.010986328125,794.981689453125,810.2930297851562,799.4139404296875
798,799.8168334960938,795.7875366210938,814.7252807617188,797.3992919921875
799,804.2490844726562,799.010986328125,814.3223266601562,810.2930297851562
800,807.069580078125,801.4285888671875,813.5164794921875,817.5457763671875
801,806.6666870117188,796.996337890625,811.90478515625,811.098876953125
802,809.89013671875,795.3846435546875,808.2783813476562,807.87548828125
803,808.6813354492188,796.996337890625,808.2783813476562,802.2344360351562
804,799.8168334960938,798.6080322265625,807.069580078125,798.6080322265625
805,802.6373901367188,798.2051391601562,809.4871826171875,796.996337890625
806,806.6666870117188,794.1758422851562,807.87548828125,799.4139404296875
807,805.4578857421875,790.952392578125,804.2490844726562,803.040283203125
808,804.2490844726562,790.1465454101562,806.2637329101562,803.040283203125
809,805.054931640625,796.1904907226562,808.2783813476562,802.6373901367188
810,810.6959838867188,803.4432373046875,812.3076782226562,811.098876953125
811,807.87548828125,801.4285888671875,815.1282348632812,821.97802734375
812,805.054931640625,799.8168334960938,812.3076782226562,811.90478515625
813,805.4578857421875,802.6373901367188,810.6959838867188,802.2344360351562
814,796.996337890625,799.010986328125,809.4871826171875,803.8461303710938
815,796.996337890625,797.8021850585938,811.90478515625,805.8607788085938
816,804.6520385742188,801.4285888671875,817.94873046875,807.069580078125
817,807.4725341796875,801.4285888671875,817.5457763671875,808.2783813476562
818,813.5164794921875,800.6226806640625,816.3369750976562,810.2930297851562
819,811.098876953125,800.2197875976562,815.5311279296875,811.098876953125
820,801.025634765625,796.5933837890625,812.3076782226562,810.2930297851562
821,799.010986328125,791.7582397460938,810.6959838867188,805.8607788085938
822,796.5933837890625,792.1611938476562,808.6813354492188,800.6226806640625
823,800.6226806640625,797.8021850585938,807.87548828125,802.2344360351562
824,803.040283203125,800.6226806640625,806.6666870117188,799.4139404296875
825,805.054931640625,800.2197875976562,807.4725341796875,799.4139404296875
826,803.4432373046875,798.2051391601562,806.2637329101562,804.6520385742188
827,799.8168334960938,796.996337890625,805.4578857421875,802.6373901367188
828,805.8607788085938,797.3992919921875,810.2930297851562,801.8314819335938
829,808.2783813476562,799.010986328125,811.098876953125,799.010986328125
830,802.2344360351562,803.8461303710938,809.89013671875,799.4139404296875
831,798.2051391601562,801.025634765625,807.069580078125,801.025634765625
832,800.6226806640625,795.7875366210938,803.4432373046875,793.3699340820312
833,801.4285888671875,798.2051391601562,804.6520385742188,790.5494384765625
834,801.8314819335938,803.8461303710938,804.6520385742188,794.5787353515625
835,798.6080322265625,806.6666870117188,803.040283203125,796.1904907226562
836,801.025634765625,805.8607788085938,800.6226806640625,800.6226806640625
837,809.89013671875,800.6226806640625,803.8461303710938,803.8461303710938
838,811.098876953125,797.3992919921875,807.87548828125,809.084228515625
839,807.069580078125,801.4285888671875,807.4725341796875,806.6666870117188
840,808.2783813476562,798.6080322265625,808.6813354492188,802.2344360351562
841,801.8314819335938,791.7582397460938,807.4725341796875,802.6373901367188
842,792.5640869140625,795.3846435546875,805.8607788085938,801.4285888671875
843,798.2051391601562,798.6080322265625,807.87548828125,802.2344360351562
844,797.8021850585938,790.5494384765625,805.4578857421875,798.6080322265625
845,797.8021850585938,788.937744140625,806.6666870117188,802.2344360351562
846,800.6226806640625,795.3846435546875,803.8461303710938,807.87548828125
847,798.6080322265625,796.5933837890625,800.6226806640625,798.6080322265625
848,797.8021850585938,795.3846435546875,807.4725341796875,800.2197875976562
849,797.3992919921875,793.3699340820312,806.2637329101562,803.8461303710938
850,795.7875366210938,796.5933837890625,804.2490844726562,796.5933837890625
851,795.7875366210938,797.3992919921875,805.8607788085938,792.967041015625
852,799.010986328125,795.3846435546875,805.054931640625,789.3406372070312
853,793.7728881835938,794.5787353515625,803.040283203125,787.7289428710938
854,793.7728881835938,795.7875366210938,804.2490844726562,795.7875366210938
855,797.8021850585938,795.7875366210938,804.6520385742188,795.7875366210938
856,800.6226806640625,798.2051391601562,804.2490844726562,798.6080322265625
857,809.89013671875,802.6373901367188,807.87548828125,821.5750732421875
858,813.91943359375,804.2490844726562,811.098876953125,818.7545776367188
859,813.91943359375,802.6373901367188,809.89013671875,801.8314819335938
860,811.5018310546875,798.6080322265625,805.054931640625,807.069580078125
861,812.3076782226562,794.981689453125,806.2637329101562,814.3223266601562
862,806.2637329101562,793.3699340820312,807.069580078125,805.8607788085938
863,803.8461303710938,792.1611938476562,807.4725341796875,804.6520385742188
864,811.098876953125,798.2051391601562,808.6813354492188,809.084228515625
865,812.3076782226562,798.2051391601562,809.4871826171875,805.8607788085938
866,805.8607788085938,793.7728881835938,808.2783813476562,805.054931640625
867,797.3992919921875,790.5494384765625,803.040283203125,803.040283203125
868,798.6080322265625,786.923095703125,802.2344360351562,807.87548828125
869,801.4285888671875,787.3259887695312,807.4725341796875,817.1428833007812
870,796.5933837890625,791.3552856445312,808.2783813476562,805.4578857421875
871,794.5787353515625,791.3552856445312,805.8607788085938,795.7875366210938
872,796.1904907226562,791.7582397460938,805.8607788085938,802.2344360351562
873,797.8021850585938,798.2051391601562,805.054931640625,806.2637329101562
874,798.2051391601562,797.8021850585938,803.040283203125,799.010986328125
875,794.1758422851562,792.967041015625,800.2197875976562,790.1465454101562
876,790.952392578125,792.5640869140625,800.6226806640625,788.5347900390625
877,795.7875366210938,795.7875366210938,801.4285888671875,795.3846435546875
878,801.4285888671875,793.7728881835938,799.4139404296875,789.3406372070312
879,803.4432373046875,792.1611938476562,797.3992919921875,787.7289428710938
880,805.4578857421875,793.3699340820312,797.8021850585938,798.6080322265625
881,808.6813354492188,801.025634765625,798.2051391601562,800.2197875976562
882,808.2783813476562,804.6520385742188,801.025634765625,799.8168334960938
883,809.084228515625,801.8314819335938,802.6373901367188,808.6813354492188
884,812.3076782226562,799.010986328125,805.8607788085938,823.99267578125
885,810.2930297851562,798.2051391601562,805.8607788085938,817.94873046875
886,809.084228515625,795.7875366210938,801.4285888671875,813.91943359375
887,809.4871826171875,794.981689453125,803.040283203125,818.7545776367188
888,804.2490844726562,794.1758422851562,804.6520385742188,810.6959838867188
889,803.8461303710938,793.3699340820312,806.2637329101562,804.6520385742188
890,806.2637329101562,793.7728881835938,805.8607788085938,801.8314819335938
891,801.025634765625,791.7582397460938,810.6959838867188,806.2637329101562
892,796.996337890625,792.5640869140625,815.93408203125,810.2930297851562
893,789.7435913085938,792.1611938476562,810.6959838867188,809.084228515625
894,785.3113403320312,787.7289428710938,811.90478515625,810.6959838867188
895,790.5494384765625,786.1171875,811.5018310546875,817.94873046875
896,792.1611938476562,786.1171875,806.2637329101562,815.5311279296875
897,788.937744140625,785.7142944335938,807.87548828125,802.6373901367188
898,788.937744140625,791.3552856445312,808.2783813476562,801.025634765625
899,792.1611938476562,793.7728881835938,808.2783813476562,799.8168334960938
900,794.1758422851562,792.967041015625,810.6959838867188,799.010986328125
901,791.3552856445312,790.1465454101562,809.4871826171875,802.2344360351562
902,784.5054931640625,785.7142944335938,801.8314819335938,800.2197875976562
903,787.7289428710938,786.5201416015625,800.6226806640625,800.2197875976562
904,796.996337890625,792.1611938476562,801.8314819335938,798.6080322265625
905,803.4432373046875,794.5787353515625,800.2197875976562,799.8168334960938
906,799.010986328125,796.5933837890625,798.2051391601562,800.2197875976562
907,798.2051391601562,798.2051391601562,796.1904907226562,808.6813354492188
908,803.040283203125,799.4139404296875,799.010986328125,818.3516235351562
909,807.4725341796875,802.2344360351562,801.8314819335938,814.7252807617188
910,815.1282348632812,798.6080322265625,801.8314819335938,818.7545776367188
911,813.113525390625,797.3992919921875,799.4139404296875,817.94873046875
912,805.054931640625,801.4285888671875,803.4432373046875,810.6959838867188
913,812.3076782226562,805.8607788085938,811.098876953125,812.7106323242188
914,815.1282348632812,803.4432373046875,807.87548828125,810.2930297851562
915,807.87548828125,800.2197875976562,803.040283203125,803.8461303710938
916,807.4725341796875,801.025634765625,808.2783813476562,802.6373901367188
917,811.098876953125,802.2344360351562,812.7106323242188,806.2637329101562
918,813.113525390625,798.2051391601562,810.6959838867188,813.5164794921875
919,810.6959838867188,792.1611938476562,812.7106323242188,817.94873046875
920,805.8607788085938,792.1611938476562,813.5164794921875,804.6520385742188
921,798.6080322265625,793.3699340820312,809.084228515625,794.981689453125
922,799.010986328125,794.1758422851562,807.4725341796875,801.025634765625
923,801.4285888671875,794.5787353515625,810.6959838867188,798.2051391601562
924,797.8021850585938,792.967041015625,811.5018310546875,789.3406372070312
925,798.2051391601562,791.3552856445312,806.2637329101562,791.3552856445312
926,801.8314819335938,790.1465454101562,803.040283203125,790.952392578125
927,801.025634765625,789.3406372070312,804.6520385742188,791.7582397460938
928,802.6373901367188,791.3552856445312,803.040283203125,799.8168334960938
929,809.084228515625,796.5933837890625,803.4432373046875,805.8607788085938
930,801.8314819335938,794.5787353515625,799.4139404296875,809.084228515625
931,799.8168334960938,794.981689453125,798.6080322265625,806.6666870117188
932,799.8168334960938,801.025634765625,802.6373901367188,799.010986328125
933,791.7582397460938,801.8314819335938,803.040283203125,792.1611938476562
934,792.967041015625,798.6080322265625,801.4285888671875,792.5640869140625
935,795.3846435546875,800.2197875976562,800.2197875976562,794.1758422851562
936,799.010986328125,801.4285888671875,803.8461303710938,802.2344360351562
937,803.4432373046875,801.8314819335938,811.098876953125,803.040283203125
938,801.025634765625,802.6373901367188,810.6959838867188,802.2344360351562
939,804.6520385742188,799.010986328125,810.2930297851562,805.8607788085938
940,810.6959838867188,796.996337890625,809.4871826171875,802.2344360351562
941,805.8607788085938,795.3846435546875,809.4871826171875,802.2344360351562
942,799.8168334960938,796.5933837890625,807.069580078125,798.6080322265625
943,803.040283203125,795.7875366210938,803.040283203125,793.7728881835938
944,801.8314819335938,795.7875366210938,803.8461303710938,795.7875366210938
945,803.8461303710938,797.8021850585938,808.6813354492188,799.010986328125
946,810.2930297851562,803.040283203125,810.2930297851562,809.084228515625
947,802.2344360351562,802.6373901367188,808.2783813476562,804.2490844726562
948,795.3846435546875,802.6373901367188,809.4871826171875,801.025634765625
949,801.4285888671875,800.6226806640625,810.2930297851562,815.5311279296875
950,804.6520385742188,799.010986328125,810.6959838867188,816.7399291992188
951,807.4725341796875,801.4285888671875,814.3223266601562,806.2637329101562
952,807.069580078125,799.4139404296875,813.91943359375,803.040283203125
953,797.8021850585938,795.3846435546875,811.098876953125,803.8461303710938
954,787.7289428710938,794.1758422851562,809.89013671875,790.5494384765625
955,790.5494384765625,795.7875366210938,810.6959838867188,787.7289428710938
956,795.3846435546875,796.996337890625,807.87548828125,794.1758422851562
957,796.5933837890625,794.981689453125,806.6666870117188,797.8021850585938
958,798.2051391601562,796.996337890625,813.5164794921875,801.8314819335938
959,805.054931640625,799.8168334960938,812.7106323242188,797.3992919921875
960,811.098876953125,799.4139404296875,805.4578857421875,799.8168334960938
961,808.6813354492188,799.4139404296875,811.098876953125,803.040283203125
962,799.4139404296875,799.8168334960938,815.93408203125,800.6226806640625
963,793.7728881835938,798.2051391601562,813.91943359375,795.3846435546875
964,801.4285888671875,795.7875366210938,813.113525390625,803.8461303710938
965,807.4725341796875,797.3992919921875,812.3076782226562,812.7106323242188
966,803.040283203125,795.3846435546875,812.7106323242188,803.8461303710938
967,798.2051391601562,792.967041015625,811.5018310546875,800.2197875976562
968,796.1904907226562,792.967041015625,809.89013671875,809.89013671875
969,797.8021850585938,789.7435913085938,812.7106323242188,817.94873046875
970,802.2344360351562,791.7582397460938,811.098876953125,810.2930297851562
971,801.4285888671875,796.1904907226562,808.2783813476562,800.6226806640625
972,797.3992919921875,794.981689453125,811.90478515625,804.6520385742188
973,801.8314819335938,791.7582397460938,811.5018310546875,802.2344360351562
974,797.8021850585938,788.937744140625,810.2930297851562,796.5933837890625
975,794.1758422851562,787.7289428710938,811.90478515625,801.4285888671875
976,799.010986328125,790.952392578125,810.2930297851562,805.4578857421875
977,802.6373901367188,797.8021850585938,810.6959838867188,805.054931640625
978,801.8314819335938,800.6226806640625,812.7106323242188,805.054931640625
979,799.010986328125,801.8314819335938,810.6959838867188,804.6520385742188
980,798.2051391601562,798.6080322265625,809.4871826171875,811.5018310546875
981,801.025634765625,797.3992919921875,809.084228515625,807.87548828125
982,805.054931640625,803.8461303710938,811.098876953125,807.87548828125
983,803.040283203125,803.8461303710938,811.5018310546875,813.113525390625
984,803.4432373046875,801.8314819335938,809.89013671875,806.2637329101562
985,803.8461303710938,799.8168334960938,808.6813354492188,804.6520385742188
986,803.8461303710938,798.2051391601562,806.6666870117188,807.4725341796875
987,803.040283203125,792.1611938476562,804.2490844726562,805.054931640625
988,803.040283203125,789.7435913085938,803.4432373046875,807.069580078125
989,800.2197875976562,795.3846435546875,805.054931640625,806.2637329101562
990,801.4285888671875,798.6080322265625,806.6666870117188,805.8607788085938
991,805.8607788085938,797.3992919921875,805.4578857421875,811.5018310546875
992,807.87548828125,796.5933837890625,807.4725341796875,811.90478515625
993,804.6520385742188,799.8168334960938,807.069580078125,799.010986328125
994,801.4285888671875,802.6373901367188,804.6520385742188,798.2051391601562
995,803.4432373046875,801.4285888671875,805.054931640625,806.6666870117188
996,804.2490844726562,798.2051391601562,805.8607788085938,805.054931640625
997,807.87548828125,798.2051391601562,805.8607788085938,805.4578857421875
998,805.054931640625,799.010986328125,803.8461303710938,809.4871826171875
999,801.025634765625,801.025634765625,807.069580078125,810.2930297851562
1000,803.040283203125,803.040283203125,808.2783813476562,811.5018310546875
1001,796.1904907226562,803.8461303710938,805.4578857421875,809.084228515625
1002,793.7728881835938,801.025634765625,805.4578857421875,807.069580078125
1003,792.1611938476562,794.5787353515625,805.054931640625,811.098876953125
1004,792.5640869140625,793.7728881835938,809.084228515625,805.4578857421875
1005,795.7875366210938,793.3699340820312,814.7252807617188,799.010986328125
1006,799.8168334960938,793.3699340820312,811.90478515625,803.4432373046875
1007,811.098876953125,801.4285888671875,813.113525390625,813.91943359375
1008,813.5164794921875,807.4725341796875,814.3223266601562,821.5750732421875
1009,801.025634765625,800.6226806640625,806.2637329101562,812.3076782226562
1010,798.6080322265625,794.5787353515625,803.040283203125,807.87548828125
1011,801.8314819335938,794.981689453125,804.6520385742188,811.90478515625
1012,804.2490844726562,797.3992919921875,807.87548828125,810.2930297851562
1013,809.4871826171875,799.4139404296875,810.2930297851562,809.4871826171875
1014,807.069580078125,799.010986328125,808.2783813476562,810.2930297851562
1015,807.4725341796875,796.5933837890625,807.4725341796875,819.5604248046875
1016,803.8461303710938,796.996337890625,808.2783813476562,811.5018310546875
1017,800.2197875976562,797.3992919921875,807.069580078125,797.3992919921875
1018,801.8314819335938,795.3846435546875,804.2490844726562,794.1758422851562
1019,803.040283203125,796.996337890625,803.4432373046875,800.2197875976562
1020,801.4285888671875,794.981689453125,801.4285888671875,801.8314819335938
1021,799.010986328125,793.7728881835938,803.4432373046875,801.025634765625
1022,804.2490844726562,796.1904907226562,808.2783813476562,807.069580078125
1023,807.4725341796875,796.996337890625,807.4725341796875,805.054931640625
1024,803.4432373046875,798.6080322265625,805.4578857421875,799.4139404296875
1025,799.8168334960938,800.2197875976562,804.2490844726562,803.4432373046875
1026,800.6226806640625,800.2197875976562,802.6373901367188,813.5164794921875
1027,801.025634765625,801.4285888671875,803.4432373046875,804.6520385742188
1028,800.6226806640625,800.6226806640625,803.4432373046875,799.010986328125
1029,805.054931640625,798.2051391601562,805.054931640625,810.2930297851562
1030,806.2637329101562,798.2051391601562,803.4432373046875,813.91943359375
1031,794.981689453125,794.1758422851562,805.8607788085938,800.6226806640625
1032,790.952392578125,793.3699340820312,809.89013671875,795.3846435546875
1033,802.6373901367188,794.5787353515625,807.4725341796875,805.4578857421875
1034,801.8314819335938,793.3699340820312,805.054931640625,807.069580078125
1035,796.996337890625,792.967041015625,808.2783813476562,809.89013671875
1036,801.025634765625,789.7435913085938,813.5164794921875,817.5457763671875
1037,799.010986328125,790.952392578125,814.3223266601562,815.5311279296875
1038,799.010986328125,794.5787353515625,811.90478515625,807.87548828125
1039,796.996337890625,793.3699340820312,810.2930297851562,801.025634765625
1040,792.5640869140625,793.3699340820312,810.6959838867188,799.8168334960938
1041,796.1904907226562,794.981689453125,809.89013671875,804.6520385742188
1042,796.996337890625,792.967041015625,807.069580078125,808.6813354492188
1043,801.4285888671875,794.5787353515625,805.4578857421875,809.084228515625
1044,801.025634765625,796.1904907226562,806.6666870117188,807.069580078125
1045,804.2490844726562,796.5933837890625,808.6813354492188,813.91943359375
1046,804.2490844726562,800.2197875976562,811.90478515625,809.084228515625
1047,801.4285888671875,801.025634765625,809.084228515625,798.2051391601562
1048,799.4139404296875,797.8021850585938,809.084228515625,802.6373901367188
1049,798.6080322265625,794.981689453125,808.6813354492188,810.2930297851562
1050,800.2197875976562,800.6226806640625,809.4871826171875,809.89013671875
1051,802.6373901367188,803.4432373046875,811.90478515625,802.2344360351562
1052,808.2783813476562,798.2051391601562,810.6959838867188,801.025634765625
1053,807.4725341796875,799.4139404296875,805.054931640625,801.4285888671875
1054,802.2344360351562,798.2051391601562,804.2490844726562,798.6080322265625
1055,803.8461303710938,794.981689453125,809.084228515625,805.054931640625
1056,804.6520385742188,796.1904907226562,811.098876953125,808.2783813476562
1057,806.6666870117188,799.010986328125,809.4871826171875,807.87548828125
1058,805.4578857421875,801.4285888671875,808.2783813476562,815.5311279296875
1059,803.040283203125,795.7875366210938,808.6813354492188,812.7106323242188
1060,806.2637329101562,792.1611938476562,804.2490844726562,813.113525390625
1061,805.8607788085938,794.1758422851562,802.2344360351562,814.3223266601562
1062,800.6226806640625,794.981689453125,803.4432373046875,799.8168334960938
1063,803.040283203125,794.5787353515625,805.8607788085938,796.1904907226562
1064,808.2783813476562,795.7875366210938,804.6520385742188,803.040283203125
1065,803.040283203125,797.8021850585938,804.2490844726562,803.040283203125
1066,798.2051391601562,796.1904907226562,804.6520385742188,801.8314819335938
1067,801.8314819335938,796.996337890625,798.6080322265625,807.4725341796875
1068,808.2783813476562,803.040283203125,799.010986328125,815.5311279296875
1069,803.8461303710938,801.4285888671875,803.4432373046875,809.89013671875
1070,803.8461303710938,799.010986328125,805.054931640625,801.4285888671875
1071,804.2490844726562,800.6226806640625,808.2783813476562,802.6373901367188
1072,805.054931640625,803.040283203125,809.4871826171875,810.6959838867188
1073,809.4871826171875,802.6373901367188,807.87548828125,805.8607788085938
1074,810.2930297851562,802.2344360351562,807.069580078125,802.6373901367188
1075,808.6813354492188,801.8314819335938,807.87548828125,807.4725341796875
1076,809.4871826171875,796.5933837890625,809.084228515625,816.7399291992188
1077,807.069580078125,797.8021850585938,808.6813354492188,808.6813354492188
1078,804.2490844726562,799.4139404296875,807.87548828125,798.6080322265625
1079,804.6520385742188,798.6080322265625,809.4871826171875,801.025634765625
1080,806.2637329101562,799.4139404296875,813.91943359375,808.6813354492188
1081,804.6520385742188,798.2051391601562,814.3223266601562,809.084228515625
1082,805.054931640625,798.6080322265625,813.91943359375,802.6373901367188
1083,809.4871826171875,796.996337890625,810.2930297851562,802.6373901367188
1084,809.4871826171875,796.996337890625,809.084228515625,813.91943359375
1085,812.7106323242188,801.025634765625,816.7399291992188,820.3662719726562
1086,809.4871826171875,800.2197875976562,815.1282348632812,811.098876953125
1087,805.8607788085938,796.5933837890625,808.2783813476562,807.069580078125
1088,805.4578857421875,794.5787353515625,806.6666870117188,811.098876953125
1089,802.6373901367188,798.6080322265625,809.4871826171875,799.010986328125
1090,800.6226806640625,799.010986328125,811.5018310546875,797.8021850585938
1091,796.1904907226562,798.6080322265625,811.5018310546875,801.8314819335938
1092,794.1758422851562,800.6226806640625,810.2930297851562,802.6373901367188
1093,797.8021850585938,799.4139404296875,814.7252807617188,806.2637329101562
1094,809.084228515625,798.2051391601562,818.7545776367188,808.2783813476562
1095,807.87548828125,796.5933837890625,811.90478515625,812.3076782226562
1096,802.2344360351562,799.010986328125,805.8607788085938,815.5311279296875
1097,800.6226806640625,799.010986328125,808.2783813476562,815.5311279296875
1098,803.4432373046875,800.6226806640625,811.5018310546875,816.7399291992188
1099,807.069580078125,801.8314819335938,811.098876953125,822.3809814453125
1100,801.8314819335938,801.8314819335938,807.069580078125,818.3516235351562
1101,799.4139404296875,802.6373901367188,810.6959838867188,811.098876953125
1102,803.8461303710938,798.2051391601562,809.89013671875,809.084228515625
1103,809.89013671875,799.8168334960938,807.069580078125,809.4871826171875
1104,809.084228515625,802.2344360351562,811.5018310546875,810.2930297851562
1105,806.6666870117188,798.6080322265625,811.098876953125,806.2637329101562
1106,804.2490844726562,794.981689453125,811.90478515625,805.054931640625
1107,802.2344360351562,790.952392578125,811.90478515625,803.8461303710938
1108,803.8461303710938,788.5347900390625,813.91943359375,803.040283203125
1109,810.2930297851562,790.1465454101562,815.5311279296875,802.2344360351562
1110,808.6813354492188,788.5347900390625,811.5018310546875,806.2637329101562
1111,802.2344360351562,790.1465454101562,813.113525390625,815.93408203125
1112,802.2344360351562,800.2197875976562,811.098876953125,812.7106323242188
1113,802.6373901367188,801.4285888671875,809.084228515625,807.069580078125
1114,802.2344360351562,795.7875366210938,807.4725341796875,801.8314819335938
1115,804.6520385742188,798.6080322265625,809.89013671875,800.2197875976562
1116,804.2490844726562,800.2197875976562,810.2930297851562,803.040283203125
1117,801.4285888671875,798.2051391601562,809.4871826171875,811.90478515625
1118,797.3992919921875,796.1904907226562,813.5164794921875,811.098876953125
1119,794.981689453125,798.2051391601562,813.113525390625,803.4432373046875
1120,796.1904907226562,797.8021850585938,812.7106323242188,806.6666870117188
1121,801.8314819335938,797.3992919921875,816.7399291992188,811.098876953125
1122,801.4285888671875,796.996337890625,812.3076782226562,812.3076782226562
1123,793.7728881835938,795.7875366210938,810.6959838867188,808.2783813476562
1124,799.010986328125,795.7875366210938,811.5018310546875,804.2490844726562
1125,801.4285888671875,796.5933837890625,811.098876953125,807.4725341796875
1126,799.8168334960938,793.7728881835938,814.7252807617188,802.2344360351562
1127,800.2197875976562,789.7435913085938,810.6959838867188,794.981689453125
1128,802.2344360351562,793.7728881835938,809.89013671875,802.2344360351562
1129,804.2490844726562,794.5787353515625,809.4871826171875,809.084228515625
1130,804.6520385742188,794.981689453125,807.87548828125,814.7252807617188
1131,807.87548828125,796.5933837890625,807.069580078125,813.113525390625
1132,811.90478515625,794.5787353515625,803.4432373046875,807.069580078125
1133,808.2783813476562,794.1758422851562,802.2344360351562,806.6666870117188
1134,800.6226806640625,792.967041015625,802.2344360351562,801.8314819335938
1135,802.2344360351562,796.1904907226562,799.010986328125,793.7728881835938
1136,804.6520385742188,797.8021850585938,798.2051391601562,795.3846435546875
1137,804.6520385742188,792.5640869140625,806.6666870117188,801.8314819335938
1138,803.040283203125,792.5640869140625,807.4725341796875,802.6373901367188
1139,801.025634765625,794.5787353515625,802.2344360351562,801.025634765625
1140,798.6080322265625,790.1465454101562,800.2197875976562,801.025634765625
1141,799.010986328125,792.5640869140625,799.010986328125,807.069580078125
1142,799.010986328125,798.6080322265625,805.8607788085938,810.6959838867188
1143,798.6080322265625,799.8168334960938,807.069580078125,805.4578857421875
1144,806.6666870117188,803.4432373046875,808.6813354492188,809.89013671875
1145,801.8314819335938,801.025634765625,806.2637329101562,811.098876953125
1146,797.3992919921875,798.6080322265625,803.4432373046875,802.6373901367188
1147,799.8168334960938,798.2051391601562,805.4578857421875,796.5933837890625
1148,796.996337890625,793.3699340820312,804.2490844726562,798.6080322265625
1149,796.1904907226562,792.5640869140625,801.4285888671875,801.8314819335938
1150,801.025634765625,796.5933837890625,799.8168334960938,799.010986328125
1151,801.8314819335938,799.8168334960938,802.6373901367188,795.7875366210938
1152,799.4139404296875,796.996337890625,803.4432373046875,798.6080322265625
1153,797.8021850585938,795.3846435546875,804.6520385742188,805.8607788085938
1154,795.3846435546875,802.2344360351562,809.89013671875,805.4578857421875
1155,797.3992919921875,801.4285888671875,810.6959838867188,800.2197875976562
1156,804.2490844726562,797.3992919921875,811.098876953125,800.6226806640625
1157,805.054931640625,800.2197875976562,814.3223266601562,808.2783813476562
1158,799.010986328125,799.4139404296875,811.5018310546875,800.2197875976562
1159,799.8168334960938,801.8314819335938,808.2783813476562,791.7582397460938
1160,799.010986328125,798.2051391601562,805.8607788085938,799.010986328125
1161,793.3699340820312,794.5787353515625,803.040283203125,802.6373901367188
1162,801.025634765625,798.2051391601562,803.4432373046875,802.2344360351562
1163,805.8607788085938,801.8314819335938,807.87548828125,807.069580078125
1164,801.025634765625,801.4285888671875,807.069580078125,806.6666870117188
1165,805.4578857421875,798.6080322265625,804.2490844726562,803.8461303710938
1166,810.2930297851562,798.2051391601562,805.054931640625,804.2490844726562
1167,808.6813354492188,796.996337890625,805.4578857421875,801.8314819335938
1168,805.4578857421875,794.981689453125,803.040283203125,799.4139404296875
1169,804.2490844726562,795.7875366210938,804.2490844726562,796.996337890625
1170,801.4285888671875,796.5933837890625,803.8461303710938,795.7875366210938
1171,801.025634765625,798.2051391601562,805.4578857421875,800.6226806640625
1172,805.4578857421875,798.2051391601562,806.2637329101562,815.93408203125
1173,804.6520385742188,798.2051391601562,805.054931640625,813.91943359375
1174,799.4139404296875,798.2051391601562,808.2783813476562,808.6813354492188
1175,795.3846435546875,794.5787353515625,811.098876953125,810.6959838867188
1176,792.967041015625,792.967041015625,812.7106323242188,805.4578857421875
1177,797.3992919921875,794.1758422851562,811.098876953125,800.6226806640625
1178,799.4139404296875,797.3992919921875,805.8607788085938,801.025634765625
1179,800.2197875976562,797.3992919921875,808.2783813476562,807.4725341796875
1180,801.4285888671875,795.3846435546875,812.7106323242188,809.4871826171875
1181,805.054931640625,795.3846435546875,811.90478515625,810.2930297851562
1182,807.87548828125,796.1904907226562,812.7106323242188,812.7106323242188
1183,811.5018310546875,798.6080322265625,813.5164794921875,819.5604248046875
1184,806.6666870117188,798.2051391601562,811.90478515625,816.7399291992188
1185,807.87548828125,796.996337890625,809.084228515625,815.1282348632812
1186,805.4578857421875,799.010986328125,806.2637329101562,815.1282348632812
1187,803.4432373046875,792.1611938476562,804.6520385742188,818.3516235351562
1188,809.084228515625,790.1465454101562,804.2490844726562,825.2014770507812
1189,801.4285888671875,796.1904907226562,802.2344360351562,810.6959838867188
1190,794.5787353515625,793.7728881835938,801.4285888671875,799.010986328125
1191,796.5933837890625,790.952392578125,800.6226806640625,797.3992919921875
1192,796.1904907226562,791.3552856445312,801.025634765625,793.3699340820312
1193,795.7875366210938,788.1318969726562,803.4432373046875,795.7875366210938
1194,796.5933837890625,791.3552856445312,803.040283203125,801.025634765625
1195,796.1904907226562,794.981689453125,805.4578857421875,807.87548828125
1196,797.3992919921875,796.996337890625,807.069580078125,810.2930297851562
1197,799.4139404296875,795.3846435546875,807.87548828125,809.084228515625
1198,803.8461303710938,794.1758422851562,808.2783813476562,811.5018310546875
1199,796.5933837890625,793.3699340820312,807.4725341796875,803.8461303710938
1200,786.5201416015625,791.3552856445312,808.2783813476562,798.2051391601562
1201,786.5201416015625,791.7582397460938,807.87548828125,802.2344360351562
1202,792.5640869140625,793.3699340820312,806.2637329101562,807.4725341796875
1203,799.8168334960938,796.996337890625,810.6959838867188,806.2637329101562
1204,801.025634765625,799.4139404296875,815.1282348632812,809.4871826171875
1205,794.981689453125,799.4139404296875,813.113525390625,803.4432373046875
1206,800.2197875976562,801.025634765625,815.5311279296875,806.2637329101562
1207,805.8607788085938,801.025634765625,814.3223266601562,821.1721801757812
1208,805.054931640625,800.2197875976562,810.2930297851562,809.4871826171875
1209,805.054931640625,800.2197875976562,807.4725341796875,805.054931640625
1210,803.4432373046875,797.3992919921875,809.084228515625,808.2783813476562
1211,805.4578857421875,799.8168334960938,811.5018310546875,805.054931640625
1212,807.4725341796875,800.2197875976562,812.7106323242188,803.4432373046875
1213,801.025634765625,795.3846435546875,810.2930297851562,798.2051391601562
1214,801.025634765625,797.3992919921875,807.87548828125,797.8021850585938
1215,801.025634765625,796.996337890625,811.098876953125,798.2051391601562
1216,799.4139404296875,795.7875366210938,813.113525390625,800.6226806640625
1217,801.025634765625,794.981689453125,809.4871826171875,803.040283203125
1218,797.8021850585938,788.937744140625,809.084228515625,809.084228515625
1219,794.1758422851562,786.923095703125,811.5018310546875,803.4432373046875
1220,793.3699340820312,788.937744140625,812.3076782226562,795.7875366210938
1221,794.1758422851562,786.923095703125,813.113525390625,801.4285888671875
1222,794.981689453125,789.7435913085938,811.90478515625,801.4285888671875
1223,801.8314819335938,794.5787353515625,809.4871826171875,799.4139404296875
1224,806.2637329101562,795.7875366210938,810.6959838867188,802.6373901367188
1225,802.2344360351562,798.2051391601562,806.6666870117188,803.8461303710938
1226,803.8461303710938,800.2197875976562,806.6666870117188,801.8314819335938
1227,796.5933837890625,794.5787353515625,811.5018310546875,798.6080322265625
1228,794.981689453125,788.937744140625,809.89013671875,801.4285888671875
1229,805.4578857421875,790.952392578125,810.2930297851562,808.2783813476562
1230,809.084228515625,788.937744140625,814.3223266601562,811.5018310546875
1231,799.4139404296875,786.5201416015625,811.5018310546875,800.6226806640625
1232,799.4139404296875,790.5494384765625,806.6666870117188,795.7875366210938
1233,801.8314819335938,791.3552856445312,806.2637329101562,798.6080322265625
1234,805.4578857421875,790.1465454101562,810.2930297851562,805.8607788085938
1235,801.4285888671875,788.937744140625,811.5018310546875,801.8314819335938
1236,797.3992919921875,790.1465454101562,805.054931640625,796.996337890625
1237,800.2197875976562,789.7435913085938,805.8607788085938,807.4725341796875
1238,800.2197875976562,792.967041015625,808.2783813476562,807.87548828125
1239,797.3992919921875,793.7728881835938,808.6813354492188,806.2637329101562
1240,796.1904907226562,789.3406372070312,808.2783813476562,814.3223266601562
1241,800.6226806640625,791.3552856445312,806.6666870117188,812.7106323242188
1242,801.8314819335938,794.5787353515625,807.87548828125,803.4432373046875
1243,804.6520385742188,796.5933837890625,810.2930297851562,803.040283203125
1244,813.113525390625,795.7875366210938,807.4725341796875,812.3076782226562
1245,811.5018310546875,794.5787353515625,805.4578857421875,822.7838745117188
1246,801.8314819335938,796.996337890625,811.098876953125,808.2783813476562
1247,800.6226806640625,798.2051391601562,813.113525390625,797.8021850585938
1248,801.8314819335938,799.4139404296875,810.6959838867188,801.8314819335938
1249,800.2197875976562,799.8168334960938,809.4871826171875,802.2344360351562
1250,797.8021850585938,799.8168334960938,809.4871826171875,805.4578857421875
1251,796.996337890625,800.6226806640625,810.6959838867188,809.084228515625
1252,799.4139404296875,798.2051391601562,807.069580078125,806.6666870117188
1253,799.010986328125,797.3992919921875,804.2490844726562,805.8607788085938
1254,796.996337890625,798.6080322265625,802.2344360351562,803.8461303710938
1255,797.3992919921875,798.6080322265625,801.8314819335938,809.4871826171875
1256,796.996337890625,797.3992919921875,806.6666870117188,819.96337890625
1257,792.1611938476562,796.5933837890625,810.6959838867188,815.93408203125
1258,788.937744140625,796.996337890625,805.8607788085938,802.6373901367188
1259,790.952392578125,795.7875366210938,804.2490844726562,801.025634765625
1260,793.7728881835938,795.3846435546875,808.6813354492188,804.6520385742188
1261,796.996337890625,797.8021850585938,808.6813354492188,807.4725341796875
1262,798.6080322265625,797.3992919921875,806.6666870117188,803.8461303710938
1263,805.8607788085938,794.981689453125,805.4578857421875,805.4578857421875
1264,813.113525390625,794.981689453125,807.87548828125,810.2930297851562
1265,804.6520385742188,794.981689453125,805.4578857421875,803.040283203125
1266,803.040283203125,797.8021850585938,803.4432373046875,796.5933837890625
1267,810.6959838867188,795.3846435546875,803.8461303710938,800.6226806640625
1268,807.87548828125,788.937744140625,798.2051391601562,803.4432373046875
1269,802.6373901367188,792.1611938476562,796.996337890625,795.7875366210938
1270,805.8607788085938,798.6080322265625,802.6373901367188,789.7435913085938
1271,809.084228515625,799.010986328125,802.6373901367188,796.1904907226562
1272,805.8607788085938,798.2051391601562,801.8314819335938,801.025634765625
1273,803.4432373046875,798.2051391601562,803.040283203125,796.996337890625
1274,806.2637329101562,797.3992919921875,796.996337890625,797.8021850585938
1275,806.6666870117188,797.3992919921875,797.8021850585938,803.4432373046875
1276,804.6520385742188,800.2197875976562,801.025634765625,809.89013671875
1277,802.2344360351562,797.8021850585938,797.3992919921875,807.069580078125
1278,800.2197875976562,794.981689453125,801.4285888671875,796.996337890625
1279,805.4578857421875,798.6080322265625,807.4725341796875,796.996337890625
1280,805.8607788085938,800.2197875976562,806.2637329101562,805.4578857421875
1281,798.2051391601562,802.6373901367188,809.084228515625,803.8461303710938
1282,792.5640869140625,799.4139404296875,810.2930297851562,796.996337890625
1283,798.6080322265625,795.7875366210938,805.4578857421875,799.8168334960938
1284,796.996337890625,794.5787353515625,803.040283203125,798.2051391601562
1285,790.5494384765625,791.7582397460938,802.6373901367188,794.1758422851562
1286,794.981689453125,793.7728881835938,807.4725341796875,805.054931640625
1287,792.5640869140625,794.981689453125,808.6813354492188,808.6813354492188
1288,784.908447265625,793.7728881835938,804.6520385742188,799.010986328125
1289,792.5640869140625,796.1904907226562,805.4578857421875,796.996337890625
1290,801.025634765625,797.3992919921875,809.084228515625,802.2344360351562
1291,800.6226806640625,795.3846435546875,807.4725341796875,808.2783813476562
1292,798.2051391601562,794.5787353515625,805.4578857421875,805.054931640625
1293,794.981689453125,796.5933837890625,805.4578857421875,797.3992919921875
1294,792.1611938476562,798.6080322265625,801.8314819335938,799.8168334960938
1295,791.7582397460938,793.7728881835938,800.2197875976562,798.2051391601562
1296,800.2197875976562,794.981689453125,799.010986328125,797.3992919921875
1297,798.6080322265625,798.2051391601562,796.996337890625,791.3552856445312
1298,792.5640869140625,797.8021850585938,801.8314819335938,796.996337890625
1299,801.4285888671875,799.4139404296875,800.6226806640625,809.89013671875
1300,806.6666870117188,802.2344360351562,799.4139404296875,809.4871826171875
1301,803.040283203125,802.6373901367188,803.8461303710938,803.040283203125
1302,806.6666870117188,797.8021850585938,804.6520385742188,807.4725341796875
1303,806.6666870117188,794.5787353515625,799.010986328125,805.8607788085938
1304,799.8168334960938,799.4139404296875,802.6373901367188,795.7875366210938
1305,801.8314819335938,800.6226806640625,807.4725341796875,799.8168334960938
1306,809.4871826171875,799.4139404296875,806.2637329101562,809.89013671875
1307,809.4871826171875,803.4432373046875,806.6666870117188,811.5018310546875
1308,804.2490844726562,800.2197875976562,808.6813354492188,803.040283203125
1309,804.6520385742188,796.996337890625,809.4871826171875,800.2197875976562
1310,807.87548828125,800.6226806640625,811.90478515625,803.040283203125
1311,808.2783813476562,799.010986328125,809.4871826171875,805.4578857421875
1312,809.4871826171875,797.3992919921875,805.4578857421875,806.2637329101562
1313,806.2637329101562,801.8314819335938,806.2637329101562,806.2637329101562
1314,803.4432373046875,801.4285888671875,805.054931640625,807.4725341796875
1315,806.2637329101562,800.6226806640625,806.2637329101562,809.89013671875
1316,809.89013671875,799.8168334960938,809.4871826171875,807.87548828125
1317,807.4725341796875,796.996337890625,803.040283203125,809.084228515625
1318,807.87548828125,796.5933837890625,803.040283203125,812.7106323242188
1319,808.6813354492188,798.2051391601562,805.4578857421875,810.6959838867188
1320,800.2197875976562,798.2051391601562,803.8461303710938,804.6520385742188
1321,799.010986328125,794.1758422851562,801.4285888671875,801.4285888671875
1322,799.4139404296875,792.5640869140625,801.4285888671875,805.8607788085938
1323,792.967041015625,794.1758422851562,803.040283203125,802.2344360351562
1324,795.7875366210938,795.7875366210938,804.2490844726562,803.040283203125
1325,799.8168334960938,793.7728881835938,800.6226806640625,803.8461303710938
1326,798.6080322265625,791.7582397460938,797.8021850585938,804.2490844726562
1327,799.8168334960938,793.3699340820312,802.2344360351562,800.6226806640625
1328,801.025634765625,793.3699340820312,807.069580078125,795.7875366210938
1329,802.6373901367188,794.5787353515625,805.054931640625,800.6226806640625
1330,806.6666870117188,797.3992919921875,802.2344360351562,806.6666870117188
1331,806.2637329101562,797.3992919921875,801.4285888671875,809.084228515625
1332,801.025634765625,798.6080322265625,801.025634765625,804.2490844726562
1333,797.8021850585938,799.010986328125,806.6666870117188,801.8314819335938
1334,797.3992919921875,796.5933837890625,807.069580078125,804.2490844726562
1335,804.2490844726562,799.8168334960938,802.6373901367188,805.054931640625
1336,815.1282348632812,798.6080322265625,804.6520385742188,810.6959838867188
1337,820.7692260742188,798.2051391601562,805.054931640625,821.1721801757812
1338,814.7252807617188,803.040283203125,802.6373901367188,817.94873046875
1339,807.87548828125,801.4285888671875,800.6226806640625,803.040283203125
1340,805.4578857421875,803.040283203125,801.025634765625,802.2344360351562
1341,805.8607788085938,803.4432373046875,801.8314819335938,810.6959838867188
1342,800.6226806640625,796.996337890625,798.6080322265625,802.2344360351562
1343,792.5640869140625,791.3552856445312,796.1904907226562,792.5640869140625
1344,790.952392578125,792.5640869140625,797.8021850585938,792.967041015625
1345,795.3846435546875,796.5933837890625,804.2490844726562,801.4285888671875
1346,794.981689453125,796.5933837890625,807.069580078125,809.084228515625
1347,796.1904907226562,796.996337890625,803.8461303710938,808.2783813476562
1348,797.3992919921875,797.3992919921875,801.8314819335938,805.054931640625
1349,796.5933837890625,795.7875366210938,805.054931640625,809.4871826171875
1350,795.3846435546875,796.996337890625,806.2637329101562,805.4578857421875
1351,794.1758422851562,797.8021850585938,806.6666870117188,800.6226806640625
1352,798.2051391601562,797.3992919921875,809.084228515625,808.2783813476562
1353,804.2490844726562,797.3992919921875,809.084228515625,811.90478515625
1354,804.2490844726562,796.996337890625,806.6666870117188,804.2490844726562
1355,799.8168334960938,794.1758422851562,804.2490844726562,803.4432373046875
1356,807.87548828125,796.1904907226562,805.054931640625,813.113525390625
1357,807.069580078125,796.5933837890625,804.6520385742188,812.3076782226562
1358,798.2051391601562,791.7582397460938,804.2490844726562,805.4578857421875
1359,799.010986328125,788.937744140625,805.4578857421875,805.8607788085938
1360,797.3992919921875,785.3113403320312,801.8314819335938,808.2783813476562
1361,799.010986328125,785.7142944335938,804.2490844726562,807.4725341796875
1362,803.8461303710938,791.3552856445312,806.6666870117188,804.6520385742188
1363,805.054931640625,792.967041015625,807.4725341796875,806.6666870117188
1364,808.6813354492188,794.5787353515625,808.6813354492188,817.1428833007812
1365,810.2930297851562,794.981689453125,810.2930297851562,814.3223266601562
1366,808.6813354492188,792.1611938476562,812.3076782226562,808.6813354492188
1367,807.069580078125,797.3992919921875,807.87548828125,813.5164794921875
1368,805.8607788085938,805.8607788085938,803.4432373046875,807.069580078125
1369,801.025634765625,804.2490844726562,803.8461303710938,794.981689453125
1370,799.8168334960938,794.981689453125,806.6666870117188,794.5787353515625
1371,800.6226806640625,792.5640869140625,804.2490844726562,800.2197875976562
1372,798.6080322265625,796.996337890625,804.2490844726562,811.5018310546875
1373,796.996337890625,799.8168334960938,805.8607788085938,806.6666870117188
1374,796.5933837890625,800.2197875976562,803.8461303710938,797.3992919921875
1375,799.4139404296875,795.3846435546875,802.2344360351562,805.4578857421875
1376,799.4139404296875,796.996337890625,806.6666870117188,813.113525390625
1377,795.7875366210938,795.3846435546875,807.87548828125,800.6226806640625
1378,799.8168334960938,792.5640869140625,809.4871826171875,801.8314819335938
1379,801.025634765625,793.7728881835938,809.4871826171875,805.8607788085938
1380,800.2197875976562,795.3846435546875,807.4725341796875,801.025634765625
1381,804.6520385742188,798.2051391601562,810.6959838867188,808.6813354492188
1382,801.8314819335938,794.1758422851562,808.2783813476562,808.6813354492188
1383,797.8021850585938,791.7582397460938,805.8607788085938,799.8168334960938
1384,800.6226806640625,794.5787353515625,806.6666870117188,800.6226806640625
1385,798.2051391601562,799.4139404296875,806.6666870117188,806.2637329101562
1386,796.5933837890625,797.8021850585938,808.2783813476562,808.6813354492188
1387,804.2490844726562,791.3552856445312,807.87548828125,817.1428833007812
1388,802.6373901367188,795.7875366210938,807.87548828125,811.90478515625
1389,802.2344360351562,801.4285888671875,806.2637329101562,799.8168334960938
1390,803.040283203125,797.8021850585938,803.040283203125,805.054931640625
1391,797.3992919921875,796.5933837890625,802.2344360351562,804.2490844726562
1392,797.8021850585938,797.8021850585938,802.6373901367188,799.010986328125
1393,801.025634765625,796.5933837890625,803.040283203125,800.6226806640625
1394,798.2051391601562,796.5933837890625,802.6373901367188,798.6080322265625
1395,796.996337890625,798.2051391601562,803.4432373046875,797.8021850585938
1396,796.1904907226562,795.3846435546875,802.6373901367188,799.4139404296875
1397,797.3992919921875,795.3846435546875,800.2197875976562,799.010986328125
1398,798.2051391601562,794.5787353515625,797.3992919921875,800.6226806640625
1399,802.6373901367188,794.981689453125,799.010986328125,808.2783813476562
1400,797.8021850585938,796.1904907226562,801.8314819335938,805.4578857421875
1401,798.2051391601562,794.1758422851562,802.2344360351562,803.4432373046875
1402,804.2490844726562,789.7435913085938,798.6080322265625,809.4871826171875
1403,800.6226806640625,788.5347900390625,799.4139404296875,809.084228515625
1404,802.2344360351562,792.967041015625,803.4432373046875,806.6666870117188
1405,801.025634765625,794.981689453125,808.2783813476562,809.084228515625
1406,799.4139404296875,794.1758422851562,808.2783813476562,810.2930297851562
1407,802.2344360351562,792.967041015625,810.2930297851562,812.3076782226562
1408,800.6226806640625,794.5787353515625,808.6813354492188,807.87548828125
1409,799.4139404296875,796.5933837890625,803.8461303710938,804.6520385742188
1410,797.8021850585938,792.5640869140625,807.069580078125,811.5018310546875
1411,787.7289428710938,790.5494384765625,810.6959838867188,801.8314819335938
1412,783.6996459960938,788.1318969726562,807.4725341796875,786.923095703125
1413,786.1171875,788.937744140625,804.2490844726562,788.937744140625
1414,796.5933837890625,797.3992919921875,805.8607788085938,796.996337890625
1415,796.5933837890625,801.025634765625,804.6520385742188,795.3846435546875
1416,794.5787353515625,801.4285888671875,804.2490844726562,794.5787353515625
1417,798.6080322265625,801.025634765625,802.6373901367188,802.2344360351562
1418,793.3699340820312,799.4139404296875,800.2197875976562,798.6080322265625
1419,788.937744140625,801.025634765625,801.4285888671875,795.7875366210938
1420,793.3699340820312,799.4139404296875,801.4285888671875,800.2197875976562
1421,799.010986328125,796.5933837890625,803.4432373046875,808.2783813476562
1422,801.4285888671875,798.6080322265625,805.054931640625,808.6813354492188
1423,799.010986328125,796.996337890625,805.8607788085938,806.6666870117188
1424,800.6226806640625,794.981689453125,807.4725341796875,805.8607788085938
1425,808.2783813476562,797.3992919921875,803.040283203125,807.4725341796875
1426,812.3076782226562,798.2051391601562,800.6226806640625,813.5164794921875
1427,812.3076782226562,802.2344360351562,802.2344360351562,804.6520385742188
1428,813.113525390625,801.8314819335938,803.040283203125,800.2197875976562
1429,805.054931640625,795.7875366210938,802.6373901367188,803.040283203125
1430,799.010986328125,796.5933837890625,803.4432373046875,803.8461303710938
1431,803.040283203125,802.2344360351562,806.2637329101562,805.4578857421875
1432,804.6520385742188,801.025634765625,809.084228515625,805.054931640625
1433,802.2344360351562,798.6080322265625,807.87548828125,805.8607788085938
1434,801.8314819335938,800.2197875976562,804.6520385742188,800.6226806640625
1435,804.6520385742188,799.8168334960938,803.4432373046875,798.6080322265625
1436,806.2637329101562,796.1904907226562,805.4578857421875,802.6373901367188
1437,807.87548828125,800.2197875976562,810.6959838867188,804.2490844726562
1438,805.4578857421875,804.2490844726562,812.7106323242188,807.4725341796875
1439,798.2051391601562,801.025634765625,811.098876953125,809.89013671875
1440,801.4285888671875,793.3699340820312,808.2783813476562,808.2783813476562
1441,800.2197875976562,788.5347900390625,805.4578857421875,808.6813354492188
1442,796.996337890625,796.1904907226562,807.069580078125,803.4432373046875
1443,801.025634765625,797.8021850585938,811.098876953125,799.4139404296875
1444,801.025634765625,792.5640869140625,809.89013671875,803.8461303710938
1445,795.3846435546875,797.8021850585938,807.4725341796875,805.054931640625
1446,798.2051391601562,802.2344360351562,805.4578857421875,803.040283203125
1447,798.6080322265625,798.2051391601562,806.2637329101562,803.8461303710938
1448,799.8168334960938,794.1758422851562,806.6666870117188,810.6959838867188
1449,811.098876953125,793.3699340820312,804.6520385742188,814.7252807617188
1450,812.7106323242188,793.7728881835938,807.069580078125,802.6373901367188
1451,805.054931640625,796.996337890625,810.6959838867188,801.4285888671875
1452,801.8314819335938,799.010986328125,809.89013671875,805.4578857421875
1453,804.6520385742188,802.2344360351562,809.084228515625,806.2637329101562
1454,806.6666870117188,803.4432373046875,810.6959838867188,808.2783813476562
1455,805.4578857421875,801.4285888671875,811.90478515625,813.113525390625
1456,802.6373901367188,799.010986328125,810.6959838867188,819.96337890625
1457,801.4285888671875,797.8021850585938,808.2783813476562,812.7106323242188
1458,801.8314819335938,801.025634765625,808.6813354492188,803.4432373046875
1459,803.4432373046875,798.6080322265625,807.87548828125,812.3076782226562
1460,803.040283203125,792.967041015625,810.2930297851562,820.3662719726562
1461,795.7875366210938,792.5640869140625,814.7252807617188,804.6520385742188
1462,792.967041015625,794.981689453125,812.3076782226562,797.8021850585938
1463,793.7728881835938,794.981689453125,809.084228515625,801.4285888671875
1464,795.7875366210938,794.1758422851562,809.89013671875,798.2051391601562
1465,797.3992919921875,792.1611938476562,808.6813354492188,796.1904907226562
1466,796.5933837890625,794.981689453125,805.054931640625,793.7728881835938
1467,801.025634765625,796.996337890625,808.2783813476562,801.8314819335938
1468,807.4725341796875,797.8021850585938,812.7106323242188,811.098876953125
1469,812.3076782226562,798.2051391601562,810.2930297851562,812.3076782226562
1470,805.8607788085938,794.981689453125,807.069580078125,811.5018310546875
1471,807.87548828125,796.5933837890625,807.069580078125,814.7252807617188
1472,811.098876953125,795.7875366210938,809.89013671875,819.1575317382812
1473,799.8168334960938,795.3846435546875,812.7106323242188,810.2930297851562
1474,796.1904907226562,795.3846435546875,811.5018310546875,802.2344360351562
1475,802.6373901367188,794.981689453125,812.3076782226562,805.054931640625
1476,802.6373901367188,794.5787353515625,811.5018310546875,799.8168334960938
1477,799.8168334960938,796.1904907226562,809.084228515625,798.2051391601562
1478,802.2344360351562,800.2197875976562,807.4725341796875,804.2490844726562
1479,804.6520385742188,795.3846435546875,804.2490844726562,799.4139404296875
1480,805.054931640625,792.1611938476562,805.4578857421875,796.5933837890625
1481,805.8607788085938,796.5933837890625,806.2637329101562,798.6080322265625
1482,802.6373901367188,796.1904907226562,806.2637329101562,801.8314819335938
1483,796.1904907226562,791.3552856445312,805.8607788085938,808.6813354492188
1484,796.996337890625,795.3846435546875,805.8607788085938,807.069580078125
1485,799.010986328125,798.6080322265625,803.040283203125,796.996337890625
1486,804.2490844726562,796.1904907226562,804.2490844726562,796.5933837890625
1487,816.3369750976562,798.2051391601562,811.098876953125,804.6520385742188
1488,813.5164794921875,803.8461303710938,812.7106323242188,808.6813354492188
1489,807.069580078125,800.6226806640625,807.87548828125,803.040283203125
1490,808.2783813476562,793.3699340820312,804.2490844726562,794.5787353515625
1491,806.6666870117188,794.5787353515625,807.87548828125,794.5787353515625
1492,800.2197875976562,799.010986328125,812.3076782226562,799.010986328125
1493,796.1904907226562,802.2344360351562,810.6959838867188,797.3992919921875
1494,798.6080322265625,799.8168334960938,806.6666870117188,800.6226806640625
1495,804.2490844726562,800.6226806640625,805.4578857421875,809.084228515625
1496,807.4725341796875,801.025634765625,808.2783813476562,800.2197875976562
1497,802.6373901367188,794.1758422851562,805.4578857421875,794.1758422851562
1498,794.5787353515625,792.5640869140625,805.054931640625,799.4139404296875
1499,791.3552856445312,796.1904907226562,806.6666870117188,796.5933837890625
1500,801.8314819335938,795.3846435546875,805.4578857421875,794.981689453125
1501,803.4432373046875,794.1758422851562,809.4871826171875,796.5933837890625
1502,795.7875366210938,794.5787353515625,811.098876953125,798.2051391601562
1503,795.3846435546875,793.7728881835938,809.084228515625,803.4432373046875
1504,798.2051391601562,792.967041015625,809.4871826171875,801.025634765625
1505,807.4725341796875,794.981689453125,808.6813354492188,804.6520385742188
1506,810.6959838867188,792.1611938476562,805.4578857421875,813.5164794921875
1507,807.87548828125,792.967041015625,808.6813354492188,811.5018310546875
1508,807.4725341796875,795.3846435546875,811.5018310546875,808.6813354492188
1509,808.2783813476562,790.5494384765625,811.90478515625,815.1282348632812
1510,810.6959838867188,791.3552856445312,815.93408203125,821.5750732421875
1511,813.5164794921875,796.1904907226562,817.5457763671875,820.3662719726562
1512,809.89013671875,800.2197875976562,817.5457763671875,816.7399291992188
1513,802.2344360351562,793.3699340820312,811.5018310546875,810.2930297851562
1514,805.4578857421875,790.952392578125,806.2637329101562,807.87548828125
1515,809.084228515625,794.1758422851562,810.6959838867188,808.6813354492188
1516,806.2637329101562,790.952392578125,814.7252807617188,809.084228515625
1517,807.87548828125,790.1465454101562,812.7106323242188,809.89013671875
1518,805.054931640625,791.7582397460938,811.90478515625,810.6959838867188
1519,799.010986328125,796.996337890625,811.5018310546875,809.4871826171875
1520,796.996337890625,794.1758422851562,808.6813354492188,805.4578857421875
1521,805.8607788085938,792.967041015625,811.5018310546875,806.2637329101562
1522,810.6959838867188,794.981689453125,812.3076782226562,802.6373901367188
1523,808.6813354492188,791.7582397460938,806.2637329101562,796.5933837890625
1524,801.8314819335938,788.937744140625,801.4285888671875,796.5933837890625
1525,799.4139404296875,791.7582397460938,805.8607788085938,804.2490844726562
1526,801.4285888671875,794.5787353515625,811.5018310546875,800.2197875976562
1527,803.8461303710938,792.5640869140625,812.3076782226562,795.7875366210938
1528,804.6520385742188,792.967041015625,810.2930297851562,803.8461303710938
1529,804.2490844726562,794.1758422851562,807.87548828125,811.5018310546875
1530,809.4871826171875,796.996337890625,808.2783813476562,804.2490844726562
1531,806.2637329101562,796.996337890625,805.4578857421875,794.5787353515625
1532,806.2637329101562,795.3846435546875,801.8314819335938,799.010986328125
1533,811.098876953125,797.3992919921875,804.2490844726562,806.6666870117188
1534,804.6520385742188,797.3992919921875,807.87548828125,805.4578857421875
1535,799.010986328125,794.1758422851562,807.069580078125,803.040283203125
1536,806.2637329101562,796.1904907226562,806.2637329101562,807.069580078125
1537,812.3076782226562,801.4285888671875,808.6813354492188,805.4578857421875
1538,809.4871826171875,800.2197875976562,807.4725341796875,803.040283203125
1539,806.6666870117188,797.3992919921875,807.87548828125,808.2783813476562
1540,809.084228515625,793.7728881835938,812.7106323242188,810.2930297851562
1541,807.87548828125,789.7435913085938,813.91943359375,808.6813354492188
1542,799.010986328125,792.1611938476562,813.5164794921875,803.040283203125
1543,801.4285888671875,797.8021850585938,814.7252807617188,803.4432373046875
1544,801.4285888671875,795.3846435546875,809.4871826171875,801.025634765625
1545,792.5640869140625,791.7582397460938,806.6666870117188,789.3406372070312
1546,795.3846435546875,793.7728881835938,805.054931640625,790.952392578125
1547,798.2051391601562,796.1904907226562,802.6373901367188,797.3992919921875
1548,798.2051391601562,795.3846435546875,802.6373901367188,799.010986328125
1549,800.6226806640625,795.7875366210938,805.8607788085938,801.8314819335938
1550,801.8314819335938,794.981689453125,810.2930297851562,801.4285888671875
1551,802.6373901367188,791.7582397460938,808.2783813476562,801.8314819335938
1552,802.6373901367188,792.1611938476562,805.4578857421875,804.6520385742188
1553,807.87548828125,795.3846435546875,806.6666870117188,806.2637329101562
1554,800.2197875976562,794.5787353515625,803.8461303710938,802.6373901367188
1555,794.5787353515625,792.967041015625,804.6520385742188,799.010986328125
1556,800.6226806640625,795.3846435546875,807.069580078125,811.5018310546875
1557,802.6373901367188,801.025634765625,809.084228515625,816.3369750976562
1558,802.2344360351562,801.025634765625,809.4871826171875,806.6666870117188
1559,803.4432373046875,794.5787353515625,803.040283203125,806.2637329101562
1560,802.2344360351562,792.967041015625,799.4139404296875,803.8461303710938
1561,801.4285888671875,792.5640869140625,803.4432373046875,796.1904907226562
1562,803.4432373046875,794.1758422851562,806.6666870117188,799.4139404296875
1563,805.054931640625,794.1758422851562,809.084228515625,805.054931640625
1564,807.87548828125,788.5347900390625,804.2490844726562,799.010986328125
1565,808.2783813476562,794.981689453125,801.8314819335938,795.3846435546875
1566,804.2490844726562,799.4139404296875,806.2637329101562,800.6226806640625
1567,805.054931640625,793.3699340820312,808.2783813476562,810.6959838867188
1568,803.040283203125,796.5933837890625,805.4578857421875,822.3809814453125
1569,798.6080322265625,798.6080322265625,803.8461303710938,814.3223266601562
1570,799.010986328125,797.3992919921875,805.8607788085938,810.2930297851562
1571,796.996337890625,796.5933837890625,807.069580078125,817.94873046875
1572,792.1611938476562,793.3699340820312,806.2637329101562,814.3223266601562
1573,798.6080322265625,793.3699340820312,806.6666870117188,813.5164794921875
1574,803.8461303710938,794.5787353515625,809.4871826171875,812.3076782226562
1575,804.6520385742188,792.5640869140625,807.87548828125,813.113525390625
1576,805.4578857421875,790.5494384765625,807.4725341796875,810.6959838867188
