timestamp,RAW_TP9,RAW_AF7,RAW_AF8,RAW_TP10
1,793.7728881835938,792.1611938476562,797.3992919921875,791.3552856445312
2,792.1611938476562,792.967041015625,794.1758422851562,788.1318969726562
3,792.967041015625,797.3992919921875,796.1904907226562,793.7728881835938
4,794.981689453125,798.6080322265625,792.5640869140625,794.5787353515625
5,792.5640869140625,796.5933837890625,788.937744140625,792.967041015625
6,794.981689453125,796.5933837890625,791.3552856445312,797.3992919921875
7,796.5933837890625,799.4139404296875,792.5640869140625,801.4285888671875
8,790.952392578125,796.996337890625,793.3699340820312,802.6373901367188
9,793.7728881835938,797.3992919921875,792.5640869140625,798.6080322265625
10,793.7728881835938,796.5933837890625,790.952392578125,791.7582397460938
11,789.7435913085938,794.1758422851562,792.1611938476562,797.8021850585938
12,792.967041015625,798.2051391601562,790.1465454101562,794.1758422851562
13,795.3846435546875,799.4139404296875,795.7875366210938,790.1465454101562
14,793.7728881835938,795.3846435546875,798.2051391601562,796.996337890625
15,792.1611938476562,796.5933837890625,795.7875366210938,792.1611938476562
16,792.5640869140625,794.1758422851562,792.1611938476562,781.2820434570312
17,791.3552856445312,792.5640869140625,790.5494384765625,779.2673950195312
18,786.923095703125,793.3699340820312,793.3699340820312,782.087890625
19,786.5201416015625,786.5201416015625,792.1611938476562,781.6849975585938
20,788.1318969726562,785.7142944335938,786.923095703125,776.4468994140625
21,785.7142944335938,794.1758422851562,786.923095703125,773.6264038085938
22,784.1025390625,797.3992919921875,788.5347900390625,776.4468994140625
23,785.3113403320312,798.6080322265625,785.3113403320312,780.4761962890625
24,790.1465454101562,797.8021850585938,784.1025390625,780.4761962890625
25,793.7728881835938,798.2051391601562,780.879150390625,778.4615478515625
26,793.7728881835938,798.6080322265625,776.4468994140625,782.4908447265625
27,791.7582397460938,796.1904907226562,776.0439453125,782.4908447265625
28,790.952392578125,798.2051391601562,773.6264038085938,782.4908447265625
29,795.7875366210938,797.3992919921875,775.2380981445312,790.5494384765625
30,801.025634765625,793.3699340820312,779.2673950195312,795.3846435546875
31,792.967041015625,788.5347900390625,777.6557006835938,792.5640869140625
32,792.5640869140625,792.5640869140625,779.2673950195312,793.7728881835938
33,788.937744140625,796.1904907226562,782.4908447265625,800.2197875976562
34,788.1318969726562,792.967041015625,780.879150390625,804.2490844726562
35,791.7582397460938,791.3552856445312,781.2820434570312,799.010986328125
36,784.908447265625,792.5640869140625,782.087890625,792.967041015625
37,786.5201416015625,793.3699340820312,786.5201416015625,791.3552856445312
38,789.7435913085938,794.5787353515625,790.1465454101562,790.1465454101562
39,783.6996459960938,791.7582397460938,784.5054931640625,784.908447265625
40,784.908447265625,786.5201416015625,783.6996459960938,782.893798828125
41,788.937744140625,788.5347900390625,787.7289428710938,784.5054931640625
42,781.2820434570312,786.1171875,787.3259887695312,776.8497924804688
43,775.2380981445312,786.1171875,788.937744140625,777.2527465820312
44,780.0732421875,790.5494384765625,793.7728881835938,782.087890625
45,788.937744140625,788.5347900390625,791.7582397460938,784.1025390625
46,792.1611938476562,788.1318969726562,787.7289428710938,780.4761962890625
47,788.1318969726562,793.3699340820312,792.1611938476562,778.8644409179688
48,788.5347900390625,795.7875366210938,796.996337890625,782.087890625
49,792.5640869140625,793.3699340820312,795.3846435546875,785.3113403320312
50,797.3992919921875,790.5494384765625,790.1465454101562,783.2966918945312
51,798.6080322265625,788.1318969726562,787.7289428710938,778.4615478515625
52,796.5933837890625,784.908447265625,788.937744140625,776.4468994140625
53,790.5494384765625,786.5201416015625,792.967041015625,783.2966918945312
54,784.1025390625,785.7142944335938,794.5787353515625,781.2820434570312
55,788.5347900390625,786.1171875,792.1611938476562,776.8497924804688
56,791.7582397460938,789.3406372070312,788.1318969726562,778.8644409179688
57,790.5494384765625,791.3552856445312,785.3113403320312,787.7289428710938
58,788.5347900390625,794.981689453125,786.923095703125,786.5201416015625
59,786.1171875,795.3846435546875,785.3113403320312,778.4615478515625
60,784.908447265625,794.981689453125,789.3406372070312,786.1171875
61,784.908447265625,794.981689453125,793.7728881835938,792.1611938476562
62,786.923095703125,794.5787353515625,794.5787353515625,784.908447265625
63,788.1318969726562,792.1611938476562,794.981689453125,782.4908447265625
64,793.7728881835938,792.1611938476562,795.3846435546875,789.7435913085938
65,794.5787353515625,794.981689453125,796.5933837890625,796.5933837890625
66,795.3846435546875,796.5933837890625,799.8168334960938,800.2197875976562
67,795.3846435546875,793.7728881835938,800.2197875976562,793.3699340820312
68,793.7728881835938,794.5787353515625,795.3846435546875,789.7435913085938
69,794.981689453125,797.3992919921875,795.7875366210938,791.7582397460938
70,792.967041015625,795.3846435546875,796.996337890625,785.3113403320312
71,787.3259887695312,794.1758422851562,794.5787353515625,790.5494384765625
72,784.5054931640625,788.937744140625,794.981689453125,791.7582397460938
73,784.908447265625,788.1318969726562,796.996337890625,784.908447265625
74,779.2673950195312,790.952392578125,796.5933837890625,782.4908447265625
75,779.2673950195312,792.1611938476562,799.8168334960938,786.923095703125
76,782.893798828125,786.1171875,798.6080322265625,787.7289428710938
77,782.893798828125,782.4908447265625,800.6226806640625,784.1025390625
78,784.908447265625,786.5201416015625,803.4432373046875,787.3259887695312
79,784.908447265625,784.5054931640625,799.8168334960938,787.3259887695312
80,783.6996459960938,779.2673950195312,799.010986328125,789.3406372070312
81,788.5347900390625,784.5054931640625,799.010986328125,788.5347900390625
82,791.3552856445312,790.1465454101562,796.1904907226562,787.7289428710938
83,787.7289428710938,786.923095703125,797.8021850585938,786.1171875
84,789.3406372070312,785.7142944335938,796.996337890625,789.7435913085938
85,792.5640869140625,786.1171875,793.7728881835938,792.5640869140625
86,797.8021850585938,787.3259887695312,793.7728881835938,789.3406372070312
87,799.010986328125,787.7289428710938,789.3406372070312,786.923095703125
88,791.7582397460938,787.3259887695312,792.1611938476562,784.908447265625
89,789.7435913085938,784.908447265625,793.3699340820312,784.5054931640625
90,790.952392578125,784.5054931640625,790.1465454101562,784.5054931640625
91,796.1904907226562,788.937744140625,788.5347900390625,792.5640869140625
92,799.4139404296875,794.5787353515625,789.7435913085938,796.996337890625
93,801.8314819335938,795.7875366210938,798.2051391601562,789.3406372070312
94,804.6520385742188,795.3846435546875,803.040283203125,788.937744140625
95,799.010986328125,792.1611938476562,803.4432373046875,789.7435913085938
96,799.010986328125,792.967041015625,806.6666870117188,793.3699340820312
97,802.2344360351562,794.981689453125,806.2637329101562,796.5933837890625
98,798.2051391601562,798.2051391601562,804.2490844726562,790.952392578125
99,789.3406372070312,799.8168334960938,803.4432373046875,784.5054931640625
100,786.923095703125,797.8021850585938,802.6373901367188,786.1171875
101,794.5787353515625,796.5933837890625,803.040283203125,787.3259887695312
102,796.5933837890625,799.010986328125,801.4285888671875,782.4908447265625
103,790.5494384765625,795.7875366210938,794.5787353515625,779.2673950195312
104,777.6557006835938,792.5640869140625,786.923095703125,778.05859375
105,762.3442993164062,794.1758422851562,789.7435913085938,776.0439453125
106,762.7472534179688,796.996337890625,792.1611938476562,777.2527465820312
107,766.7765502929688,792.1611938476562,790.1465454101562,781.2820434570312
108,766.7765502929688,787.7289428710938,791.3552856445312,775.6410522460938
109,767.9853515625,790.5494384765625,788.937744140625,776.4468994140625
110,776.8497924804688,791.7582397460938,788.1318969726562,781.6849975585938
111,786.5201416015625,792.1611938476562,790.952392578125,779.2673950195312
112,784.5054931640625,787.7289428710938,794.981689453125,776.4468994140625
113,782.893798828125,789.3406372070312,796.5933837890625,782.087890625
114,782.4908447265625,791.3552856445312,786.5201416015625,782.4908447265625
115,786.1171875,782.893798828125,788.1318969726562,782.893798828125
116,791.3552856445312,776.8497924804688,796.1904907226562,786.5201416015625
117,795.3846435546875,784.5054931640625,796.5933837890625,786.5201416015625
118,797.3992919921875,790.952392578125,792.5640869140625,791.7582397460938
119,801.025634765625,797.3992919921875,794.981689453125,802.6373901367188
120,800.6226806640625,797.8021850585938,801.025634765625,796.5933837890625
121,793.3699340820312,789.7435913085938,803.8461303710938,789.3406372070312
122,796.5933837890625,790.952392578125,809.89013671875,791.3552856445312
123,788.5347900390625,793.3699340820312,809.89013671875,786.1171875
124,769.5970458984375,791.7582397460938,804.2490844726562,785.3113403320312
125,767.9853515625,790.5494384765625,805.054931640625,786.5201416015625
126,773.2234497070312,790.952392578125,805.8607788085938,789.3406372070312
127,770.8058471679688,793.3699340820312,803.4432373046875,792.967041015625
128,775.6410522460938,795.7875366210938,803.4432373046875,789.7435913085938
129,779.6703491210938,790.5494384765625,798.6080322265625,782.893798828125
130,782.4908447265625,790.952392578125,796.996337890625,786.5201416015625
131,785.3113403320312,792.5640869140625,795.3846435546875,786.1171875
132,791.3552856445312,789.3406372070312,796.1904907226562,782.087890625
133,801.025634765625,793.3699340820312,797.8021850585938,783.2966918945312
134,801.8314819335938,794.5787353515625,796.1904907226562,784.1025390625
135,800.6226806640625,790.952392578125,795.7875366210938,786.923095703125
136,799.010986328125,789.3406372070312,793.7728881835938,786.5201416015625
137,797.8021850585938,790.952392578125,785.7142944335938,786.1171875
138,794.5787353515625,790.5494384765625,784.908447265625,788.937744140625
139,784.908447265625,787.3259887695312,789.3406372070312,788.1318969726562
140,776.4468994140625,788.5347900390625,784.5054931640625,783.2966918945312
141,783.6996459960938,795.3846435546875,782.4908447265625,786.923095703125
142,788.937744140625,798.2051391601562,787.3259887695312,794.1758422851562
143,788.1318969726562,795.3846435546875,785.7142944335938,784.5054931640625
144,788.937744140625,787.3259887695312,782.087890625,773.6264038085938
145,787.7289428710938,787.7289428710938,780.0732421875,776.8497924804688
146,791.7582397460938,793.3699340820312,781.2820434570312,784.1025390625
147,791.3552856445312,789.7435913085938,785.7142944335938,788.937744140625
148,788.937744140625,788.1318969726562,785.7142944335938,787.3259887695312
149,789.3406372070312,790.1465454101562,787.7289428710938,786.923095703125
150,782.4908447265625,785.7142944335938,786.5201416015625,791.3552856445312
151,778.8644409179688,783.2966918945312,783.2966918945312,789.3406372070312
152,783.2966918945312,791.7582397460938,785.7142944335938,791.3552856445312
153,786.923095703125,795.3846435546875,784.908447265625,795.3846435546875
154,782.4908447265625,790.5494384765625,782.893798828125,788.1318969726562
155,782.4908447265625,789.7435913085938,780.0732421875,781.2820434570312
156,784.1025390625,789.3406372070312,783.6996459960938,782.087890625
157,788.937744140625,789.3406372070312,790.1465454101562,783.2966918945312
158,792.1611938476562,787.7289428710938,790.952392578125,782.4908447265625
159,787.7289428710938,790.5494384765625,786.923095703125,780.0732421875
160,785.3113403320312,792.5640869140625,788.937744140625,780.0732421875
161,789.7435913085938,790.1465454101562,789.7435913085938,786.923095703125
162,789.3406372070312,787.7289428710938,786.5201416015625,782.893798828125
163,786.5201416015625,793.7728881835938,786.923095703125,779.2673950195312
164,791.3552856445312,792.967041015625,787.3259887695312,784.908447265625
165,794.5787353515625,791.7582397460938,789.3406372070312,793.7728881835938
166,788.937744140625,796.5933837890625,790.952392578125,789.7435913085938
167,788.5347900390625,796.1904907226562,787.3259887695312,781.6849975585938
168,792.1611938476562,793.3699340820312,788.1318969726562,783.2966918945312
169,792.5640869140625,793.3699340820312,787.7289428710938,782.893798828125
170,791.7582397460938,797.8021850585938,784.5054931640625,786.1171875
171,783.2966918945312,792.1611938476562,783.2966918945312,782.4908447265625
172,786.1171875,790.5494384765625,782.4908447265625,779.6703491210938
173,795.7875366210938,792.1611938476562,787.3259887695312,785.7142944335938
174,786.923095703125,785.7142944335938,788.937744140625,783.2966918945312
175,782.893798828125,783.2966918945312,788.937744140625,785.3113403320312
176,781.6849975585938,782.087890625,788.1318969726562,791.3552856445312
177,778.05859375,785.3113403320312,788.5347900390625,787.7289428710938
178,788.1318969726562,790.5494384765625,788.5347900390625,784.1025390625
179,801.025634765625,790.5494384765625,784.908447265625,784.908447265625
180,798.2051391601562,795.3846435546875,789.3406372070312,778.8644409179688
181,796.1904907226562,801.025634765625,794.1758422851562,776.4468994140625
182,801.8314819335938,795.7875366210938,792.967041015625,780.0732421875
183,805.054931640625,796.5933837890625,792.5640869140625,781.6849975585938
184,796.1904907226562,796.1904907226562,795.7875366210938,782.087890625
185,790.5494384765625,790.952392578125,794.1758422851562,785.3113403320312
186,788.1318969726562,789.7435913085938,789.3406372070312,786.5201416015625
187,782.893798828125,787.7289428710938,787.3259887695312,780.0732421875
188,792.967041015625,789.7435913085938,784.5054931640625,779.2673950195312
189,799.4139404296875,788.5347900390625,783.6996459960938,777.6557006835938
190,791.7582397460938,788.5347900390625,778.4615478515625,773.2234497070312
191,785.7142944335938,788.937744140625,777.2527465820312,781.2820434570312
192,783.2966918945312,787.7289428710938,781.6849975585938,785.3113403320312
193,784.908447265625,793.3699340820312,783.6996459960938,777.2527465820312
194,791.3552856445312,794.5787353515625,785.7142944335938,780.0732421875
195,789.7435913085938,790.952392578125,786.5201416015625,784.1025390625
196,788.937744140625,790.952392578125,787.7289428710938,777.6557006835938
197,793.3699340820312,794.5787353515625,789.7435913085938,778.8644409179688
198,787.3259887695312,794.5787353515625,790.952392578125,786.1171875
199,779.2673950195312,790.1465454101562,789.3406372070312,779.6703491210938
200,782.893798828125,789.7435913085938,785.7142944335938,778.8644409179688
201,787.7289428710938,792.5640869140625,789.3406372070312,786.1171875
202,790.952392578125,787.7289428710938,791.3552856445312,787.3259887695312
203,796.5933837890625,786.923095703125,787.7289428710938,795.3846435546875
204,793.3699340820312,791.3552856445312,790.1465454101562,796.1904907226562
205,787.3259887695312,790.1465454101562,787.3259887695312,786.1171875
206,787.7289428710938,791.3552856445312,786.923095703125,787.7289428710938
207,786.1171875,790.952392578125,790.5494384765625,788.5347900390625
208,784.908447265625,790.1465454101562,788.5347900390625,780.879150390625
209,790.952392578125,792.5640869140625,788.1318969726562,783.6996459960938
210,788.5347900390625,792.967041015625,791.7582397460938,784.1025390625
211,785.3113403320312,790.1465454101562,797.3992919921875,781.2820434570312
212,791.7582397460938,788.937744140625,799.010986328125,786.1171875
213,798.2051391601562,792.1611938476562,796.1904907226562,786.5201416015625
214,794.981689453125,790.952392578125,792.5640869140625,789.3406372070312
215,781.6849975585938,786.923095703125,784.1025390625,787.7289428710938
216,777.6557006835938,785.3113403320312,784.908447265625,778.8644409179688
217,784.5054931640625,787.3259887695312,785.3113403320312,780.0732421875
218,786.1171875,786.1171875,782.893798828125,786.1171875
219,788.1318969726562,783.6996459960938,784.1025390625,784.908447265625
220,796.5933837890625,783.6996459960938,787.7289428710938,787.3259887695312
221,796.996337890625,786.1171875,791.3552856445312,788.1318969726562
222,792.5640869140625,789.3406372070312,787.7289428710938,784.908447265625
223,800.2197875976562,791.7582397460938,790.952392578125,793.3699340820312
224,805.054931640625,794.981689453125,796.1904907226562,796.5933837890625
225,801.4285888671875,792.967041015625,790.952392578125,795.7875366210938
226,801.4285888671875,790.5494384765625,785.7142944335938,799.010986328125
227,799.4139404296875,788.1318969726562,786.923095703125,797.8021850585938
228,806.2637329101562,791.3552856445312,792.1611938476562,799.010986328125
229,812.7106323242188,794.5787353515625,793.7728881835938,802.6373901367188
230,807.069580078125,796.5933837890625,791.3552856445312,797.8021850585938
231,801.025634765625,797.8021850585938,792.5640869140625,784.1025390625
232,794.5787353515625,795.7875366210938,795.3846435546875,779.2673950195312
233,795.7875366210938,794.1758422851562,790.952392578125,786.1171875
234,795.7875366210938,790.5494384765625,786.923095703125,780.879150390625
235,783.6996459960938,788.937744140625,786.923095703125,778.8644409179688
236,778.4615478515625,791.3552856445312,786.5201416015625,779.2673950195312
237,778.05859375,787.7289428710938,786.1171875,779.6703491210938
238,772.8204956054688,787.3259887695312,788.1318969726562,787.3259887695312
239,774.029296875,786.923095703125,789.7435913085938,786.1171875
240,783.6996459960938,786.923095703125,791.7582397460938,785.7142944335938
241,786.923095703125,788.5347900390625,789.7435913085938,784.5054931640625
242,785.3113403320312,788.937744140625,786.1171875,781.6849975585938
243,791.7582397460938,796.1904907226562,787.7289428710938,782.893798828125
244,797.8021850585938,798.6080322265625,793.3699340820312,787.7289428710938
245,800.6226806640625,799.010986328125,796.1904907226562,786.923095703125
246,797.8021850585938,799.8168334960938,794.1758422851562,780.0732421875
247,790.5494384765625,795.7875366210938,793.3699340820312,780.4761962890625
248,784.1025390625,790.5494384765625,792.5640869140625,784.908447265625
249,782.4908447265625,794.5787353515625,795.3846435546875,791.7582397460938
250,786.5201416015625,794.1758422851562,797.3992919921875,790.1465454101562
251,789.7435913085938,787.3259887695312,791.3552856445312,783.6996459960938
252,787.7289428710938,789.7435913085938,787.7289428710938,778.05859375
253,788.5347900390625,793.7728881835938,784.908447265625,778.05859375
254,792.5640869140625,796.5933837890625,784.1025390625,783.2966918945312
255,796.996337890625,796.996337890625,788.937744140625,794.1758422851562
256,803.8461303710938,798.6080322265625,793.7728881835938,799.4139404296875
257,799.8168334960938,797.8021850585938,794.1758422851562,795.7875366210938
258,793.7728881835938,795.7875366210938,792.5640869140625,794.5787353515625
259,794.981689453125,792.5640869140625,793.3699340820312,793.3699340820312
260,789.7435913085938,791.7582397460938,788.937744140625,792.1611938476562
261,781.2820434570312,794.1758422851562,787.3259887695312,786.923095703125
262,780.879150390625,793.3699340820312,788.1318969726562,782.893798828125
263,783.2966918945312,792.967041015625,787.7289428710938,785.3113403320312
264,790.1465454101562,794.1758422851562,786.923095703125,786.923095703125
265,797.3992919921875,794.5787353515625,786.1171875,788.937744140625
266,799.010986328125,790.1465454101562,787.3259887695312,790.952392578125
267,793.7728881835938,790.952392578125,785.7142944335938,785.7142944335938
268,793.7728881835938,791.7582397460938,785.3113403320312,793.3699340820312
269,800.2197875976562,790.1465454101562,784.5054931640625,800.6226806640625
270,801.025634765625,795.3846435546875,786.5201416015625,786.923095703125
271,804.6520385742188,801.025634765625,788.5347900390625,786.1171875
272,808.6813354492188,797.8021850585938,785.3113403320312,788.1318969726562
273,803.4432373046875,793.7728881835938,787.3259887695312,779.6703491210938
274,799.8168334960938,794.1758422851562,784.5054931640625,779.2673950195312
275,801.8314819335938,792.967041015625,789.3406372070312,788.937744140625
276,793.3699340820312,792.967041015625,792.967041015625,792.967041015625
277,786.5201416015625,793.3699340820312,790.5494384765625,789.7435913085938
278,780.4761962890625,790.952392578125,787.7289428710938,789.3406372070312
279,781.6849975585938,790.1465454101562,786.923095703125,792.1611938476562
280,788.5347900390625,788.937744140625,790.5494384765625,795.3846435546875
281,786.923095703125,784.908447265625,786.1171875,789.3406372070312
282,782.893798828125,782.893798828125,786.923095703125,784.5054931640625
283,780.0732421875,782.4908447265625,787.7289428710938,784.1025390625
284,776.8497924804688,780.879150390625,782.4908447265625,785.3113403320312
285,776.8497924804688,786.5201416015625,778.05859375,779.6703491210938
286,782.4908447265625,784.908447265625,780.0732421875,780.0732421875
287,784.1025390625,780.879150390625,783.2966918945312,781.6849975585938
288,782.893798828125,783.2966918945312,783.6996459960938,780.0732421875
289,782.087890625,780.879150390625,783.2966918945312,776.0439453125
290,783.2966918945312,781.2820434570312,781.2820434570312,780.4761962890625
291,786.1171875,786.5201416015625,784.5054931640625,783.6996459960938
292,786.5201416015625,791.3552856445312,784.5054931640625,778.8644409179688
293,789.7435913085938,790.952392578125,786.923095703125,778.4615478515625
294,788.1318969726562,785.7142944335938,786.923095703125,776.4468994140625
295,785.3113403320312,784.1025390625,785.3113403320312,780.4761962890625
296,790.1465454101562,782.4908447265625,786.5201416015625,784.908447265625
297,791.3552856445312,786.1171875,782.893798828125,784.1025390625
298,796.996337890625,788.5347900390625,782.893798828125,789.3406372070312
299,794.981689453125,784.908447265625,782.4908447265625,794.5787353515625
300,787.3259887695312,780.0732421875,783.2966918945312,796.996337890625
301,785.7142944335938,783.6996459960938,786.1171875,794.1758422851562
302,788.5347900390625,786.923095703125,786.5201416015625,792.967041015625
303,789.3406372070312,788.937744140625,786.923095703125,796.1904907226562
304,783.2966918945312,789.3406372070312,788.5347900390625,790.952392578125
305,784.5054931640625,788.5347900390625,788.5347900390625,786.5201416015625
306,789.7435913085938,787.3259887695312,790.5494384765625,795.3846435546875
307,795.7875366210938,786.5201416015625,790.1465454101562,803.4432373046875
308,790.952392578125,787.3259887695312,783.6996459960938,790.5494384765625
309,787.7289428710938,789.3406372070312,785.3113403320312,784.908447265625
310,789.7435913085938,789.7435913085938,787.7289428710938,790.1465454101562
311,788.1318969726562,788.5347900390625,785.7142944335938,792.967041015625
312,790.952392578125,790.5494384765625,788.1318969726562,790.952392578125
313,793.7728881835938,791.3552856445312,789.7435913085938,796.5933837890625
314,792.5640869140625,786.923095703125,793.7728881835938,796.1904907226562
315,791.7582397460938,790.1465454101562,797.8021850585938,794.1758422851562
316,795.3846435546875,793.7728881835938,800.2197875976562,800.6226806640625
317,794.981689453125,789.7435913085938,801.025634765625,806.2637329101562
318,798.6080322265625,793.7728881835938,803.4432373046875,816.7399291992188
319,801.4285888671875,801.8314819335938,800.6226806640625,812.7106323242188
320,805.054931640625,806.2637329101562,801.4285888671875,806.6666870117188
321,801.025634765625,803.8461303710938,801.8314819335938,803.4432373046875
322,797.3992919921875,804.2490844726562,796.1904907226562,804.6520385742188
323,795.3846435546875,803.8461303710938,797.8021850585938,797.3992919921875
324,789.3406372070312,799.4139404296875,798.2051391601562,785.7142944335938
325,794.5787353515625,801.4285888671875,801.8314819335938,786.1171875
326,802.2344360351562,801.8314819335938,799.8168334960938,787.7289428710938
327,799.010986328125,795.7875366210938,793.3699340820312,783.2966918945312
328,798.6080322265625,792.967041015625,792.1611938476562,784.1025390625
329,794.5787353515625,795.7875366210938,790.952392578125,784.1025390625
330,793.3699340820312,798.6080322265625,791.7582397460938,782.087890625
331,792.967041015625,801.025634765625,792.967041015625,782.893798828125
332,789.3406372070312,799.4139404296875,792.5640869140625,781.6849975585938
333,789.3406372070312,799.8168334960938,792.5640869140625,783.6996459960938
334,786.1171875,800.6226806640625,791.3552856445312,786.1171875
335,784.1025390625,795.7875366210938,791.3552856445312,778.4615478515625
336,784.5054931640625,795.7875366210938,796.1904907226562,774.8351440429688
337,788.1318969726562,794.981689453125,796.1904907226562,778.4615478515625
338,788.1318969726562,789.3406372070312,794.981689453125,780.879150390625
339,778.4615478515625,787.7289428710938,790.1465454101562,781.2820434570312
340,775.6410522460938,787.7289428710938,787.7289428710938,780.4761962890625
341,776.8497924804688,782.4908447265625,786.923095703125,778.05859375
342,781.6849975585938,777.6557006835938,786.1171875,783.2966918945312
343,789.3406372070312,783.2966918945312,790.1465454101562,784.5054931640625
344,784.5054931640625,786.923095703125,792.1611938476562,781.2820434570312
345,783.6996459960938,780.4761962890625,794.5787353515625,788.937744140625
346,784.5054931640625,783.2966918945312,791.3552856445312,789.7435913085938
347,786.5201416015625,786.1171875,789.7435913085938,785.7142944335938
348,792.1611938476562,785.7142944335938,790.1465454101562,789.3406372070312
349,782.087890625,789.3406372070312,793.7728881835938,790.952392578125
350,774.4322509765625,794.5787353515625,793.7728881835938,794.981689453125
351,777.2527465820312,790.1465454101562,790.5494384765625,791.3552856445312
352,782.893798828125,788.937744140625,792.967041015625,792.5640869140625
353,787.3259887695312,792.1611938476562,790.1465454101562,791.3552856445312
354,791.3552856445312,788.937744140625,784.5054931640625,786.923095703125
355,790.1465454101562,786.1171875,780.879150390625,784.5054931640625
356,786.5201416015625,784.908447265625,785.7142944335938,781.2820434570312
357,780.0732421875,790.952392578125,787.3259887695312,781.2820434570312
358,777.6557006835938,790.5494384765625,789.3406372070312,782.4908447265625
359,781.2820434570312,790.5494384765625,792.967041015625,780.4761962890625
360,782.893798828125,792.5640869140625,794.981689453125,782.087890625
361,787.7289428710938,792.967041015625,792.1611938476562,790.5494384765625
362,790.5494384765625,795.7875366210938,787.3259887695312,784.1025390625
363,794.5787353515625,794.1758422851562,789.7435913085938,783.2966918945312
364,796.5933837890625,793.3699340820312,790.952392578125,784.5054931640625
365,797.8021850585938,793.7728881835938,791.3552856445312,782.087890625
366,797.3992919921875,789.7435913085938,792.967041015625,782.4908447265625
367,793.3699340820312,786.5201416015625,792.5640869140625,781.2820434570312
368,792.1611938476562,788.937744140625,791.3552856445312,788.937744140625
369,788.5347900390625,792.967041015625,791.3552856445312,785.3113403320312
370,788.5347900390625,792.5640869140625,795.3846435546875,783.2966918945312
371,791.7582397460938,790.1465454101562,795.3846435546875,784.5054931640625
372,790.952392578125,787.7289428710938,787.3259887695312,786.1171875
373,791.3552856445312,788.937744140625,785.7142944335938,787.3259887695312
374,791.7582397460938,786.5201416015625,791.3552856445312,782.893798828125
375,791.7582397460938,779.6703491210938,792.1611938476562,782.893798828125
376,784.1025390625,782.893798828125,796.5933837890625,782.4908447265625
377,779.6703491210938,786.5201416015625,795.7875366210938,783.2966918945312
378,781.6849975585938,784.5054931640625,790.1465454101562,782.4908447265625
379,775.6410522460938,782.087890625,784.908447265625,781.2820434570312
380,772.0146484375,782.4908447265625,783.6996459960938,780.4761962890625
381,777.6557006835938,782.893798828125,785.7142944335938,780.879150390625
382,782.893798828125,782.893798828125,786.923095703125,784.908447265625
383,786.5201416015625,785.7142944335938,788.1318969726562,790.952392578125
384,788.1318969726562,785.7142944335938,788.5347900390625,787.7289428710938
385,786.923095703125,782.893798828125,788.5347900390625,778.8644409179688
386,792.5640869140625,783.2966918945312,786.1171875,781.6849975585938
387,795.3846435546875,784.908447265625,786.5201416015625,789.3406372070312
388,788.5347900390625,784.908447265625,786.5201416015625,788.1318969726562
389,784.1025390625,787.7289428710938,783.2966918945312,778.05859375
390,787.7289428710938,789.3406372070312,782.087890625,780.0732421875
391,791.3552856445312,790.5494384765625,782.4908447265625,788.5347900390625
392,792.967041015625,792.967041015625,787.3259887695312,791.3552856445312
393,796.1904907226562,788.937744140625,789.3406372070312,793.3699340820312
394,794.981689453125,786.923095703125,787.3259887695312,788.1318969726562
395,792.1611938476562,786.923095703125,790.5494384765625,787.7289428710938
396,789.3406372070312,785.3113403320312,789.7435913085938,789.3406372070312
397,792.5640869140625,787.3259887695312,786.1171875,789.7435913085938
398,801.025634765625,791.3552856445312,787.7289428710938,790.5494384765625
399,799.8168334960938,790.5494384765625,789.7435913085938,786.923095703125
400,794.5787353515625,789.3406372070312,794.5787353515625,783.6996459960938
401,789.7435913085938,791.3552856445312,796.996337890625,789.3406372070312
402,793.3699340820312,793.7728881835938,797.8021850585938,797.3992919921875
403,801.025634765625,796.5933837890625,800.6226806640625,797.8021850585938
404,803.040283203125,798.6080322265625,801.025634765625,796.1904907226562
405,797.8021850585938,793.7728881835938,799.4139404296875,789.3406372070312
406,794.981689453125,795.7875366210938,794.981689453125,788.937744140625
407,795.7875366210938,802.6373901367188,794.981689453125,797.8021850585938
408,797.8021850585938,802.6373901367188,795.7875366210938,794.981689453125
409,802.2344360351562,798.2051391601562,794.1758422851562,793.3699340820312
410,796.996337890625,800.2197875976562,794.5787353515625,791.3552856445312
411,788.937744140625,794.981689453125,794.5787353515625,786.5201416015625
412,788.1318969726562,791.3552856445312,795.3846435546875,786.1171875
413,793.7728881835938,794.5787353515625,796.996337890625,786.5201416015625
414,795.3846435546875,791.7582397460938,792.967041015625,785.7142944335938
415,791.7582397460938,793.3699340820312,785.7142944335938,785.7142944335938
416,791.7582397460938,794.5787353515625,782.893798828125,782.893798828125
417,793.7728881835938,792.967041015625,791.7582397460938,783.6996459960938
418,796.5933837890625,790.5494384765625,796.5933837890625,792.5640869140625
419,790.952392578125,792.5640869140625,794.1758422851562,786.923095703125
420,787.7289428710938,795.7875366210938,792.967041015625,774.029296875
421,786.5201416015625,790.5494384765625,792.1611938476562,771.2088012695312
422,779.6703491210938,788.937744140625,787.3259887695312,773.6264038085938
423,778.8644409179688,788.5347900390625,787.3259887695312,772.4176025390625
424,783.6996459960938,785.3113403320312,784.908447265625,771.6116943359375
425,787.3259887695312,786.1171875,784.1025390625,777.2527465820312
426,790.1465454101562,788.5347900390625,785.7142944335938,784.1025390625
427,787.3259887695312,786.1171875,785.3113403320312,784.1025390625
428,784.5054931640625,788.1318969726562,787.3259887695312,780.879150390625
429,783.6996459960938,786.1171875,783.2966918945312,778.8644409179688
430,783.2966918945312,785.3113403320312,781.2820434570312,781.2820434570312
431,783.6996459960938,791.7582397460938,782.893798828125,785.7142944335938
432,779.6703491210938,788.937744140625,780.0732421875,785.3113403320312
433,778.8644409179688,783.2966918945312,776.8497924804688,780.0732421875
434,785.3113403320312,784.5054931640625,779.2673950195312,783.2966918945312
435,786.5201416015625,789.7435913085938,782.4908447265625,784.1025390625
436,785.7142944335938,793.3699340820312,785.7142944335938,785.3113403320312
437,796.1904907226562,791.7582397460938,789.3406372070312,796.996337890625
438,803.4432373046875,789.7435913085938,790.5494384765625,800.2197875976562
439,800.2197875976562,789.3406372070312,788.5347900390625,790.952392578125
440,797.3992919921875,792.1611938476562,792.5640869140625,792.1611938476562
441,796.1904907226562,790.5494384765625,794.981689453125,799.010986328125
442,787.3259887695312,788.937744140625,790.1465454101562,790.952392578125
443,783.2966918945312,788.5347900390625,794.981689453125,790.5494384765625
444,787.7289428710938,787.3259887695312,796.1904907226562,798.2051391601562
445,783.2966918945312,787.7289428710938,794.1758422851562,793.3699340820312
446,785.7142944335938,796.996337890625,796.996337890625,791.3552856445312
447,786.1171875,796.1904907226562,798.6080322265625,791.3552856445312
448,780.4761962890625,788.937744140625,793.7728881835938,789.7435913085938
449,787.7289428710938,793.3699340820312,791.3552856445312,792.967041015625
450,791.7582397460938,792.5640869140625,790.952392578125,789.7435913085938
451,788.5347900390625,790.952392578125,787.3259887695312,780.0732421875
452,790.1465454101562,786.1171875,788.5347900390625,782.893798828125
453,792.967041015625,783.6996459960938,788.937744140625,785.7142944335938
454,796.996337890625,789.3406372070312,784.1025390625,785.3113403320312
455,795.3846435546875,786.923095703125,782.4908447265625,781.2820434570312
456,792.967041015625,786.923095703125,784.908447265625,782.087890625
457,791.7582397460938,788.937744140625,787.7289428710938,790.1465454101562
458,788.5347900390625,784.1025390625,787.7289428710938,786.5201416015625
459,792.5640869140625,782.893798828125,790.1465454101562,787.3259887695312
460,794.981689453125,789.7435913085938,792.5640869140625,791.3552856445312
461,789.3406372070312,791.3552856445312,794.5787353515625,791.7582397460938
462,787.7289428710938,792.1611938476562,793.3699340820312,794.1758422851562
463,791.7582397460938,790.952392578125,795.3846435546875,798.6080322265625
464,795.3846435546875,791.7582397460938,793.3699340820312,803.040283203125
465,795.3846435546875,792.5640869140625,794.5787353515625,795.7875366210938
466,790.952392578125,792.1611938476562,798.2051391601562,791.7582397460938
467,791.3552856445312,795.7875366210938,797.3992919921875,794.5787353515625
468,783.2966918945312,796.5933837890625,797.8021850585938,793.3699340820312
469,784.908447265625,796.1904907226562,797.8021850585938,793.7728881835938
470,792.967041015625,794.981689453125,793.3699340820312,794.981689453125
471,788.5347900390625,791.7582397460938,794.5787353515625,792.1611938476562
472,787.3259887695312,790.5494384765625,795.7875366210938,790.1465454101562
473,790.952392578125,792.5640869140625,792.967041015625,792.1611938476562
474,794.981689453125,796.5933837890625,792.1611938476562,788.5347900390625
475,798.2051391601562,797.8021850585938,790.952392578125,785.3113403320312
476,794.1758422851562,795.3846435546875,785.7142944335938,783.2966918945312
477,791.7582397460938,794.5787353515625,782.4908447265625,777.2527465820312
478,799.010986328125,794.981689453125,783.2966918945312,779.6703491210938
479,802.6373901367188,792.1611938476562,786.1171875,781.2820434570312
480,799.4139404296875,791.3552856445312,788.1318969726562,783.2966918945312
481,794.981689453125,788.1318969726562,786.1171875,782.893798828125
482,790.952392578125,784.908447265625,781.6849975585938,783.6996459960938
483,791.3552856445312,785.3113403320312,787.7289428710938,785.7142944335938
484,794.5787353515625,783.6996459960938,791.3552856445312,787.7289428710938
485,792.967041015625,787.7289428710938,792.1611938476562,785.7142944335938
486,794.5787353515625,793.7728881835938,790.5494384765625,783.2966918945312
487,794.5787353515625,792.967041015625,787.3259887695312,793.3699340820312
488,793.3699340820312,794.1758422851562,790.952392578125,796.1904907226562
489,802.2344360351562,797.3992919921875,792.1611938476562,793.7728881835938
490,808.6813354492188,795.7875366210938,790.952392578125,803.4432373046875
491,793.7728881835938,794.1758422851562,791.3552856445312,801.4285888671875
492,776.0439453125,787.7289428710938,791.3552856445312,785.7142944335938
493,779.6703491210938,784.1025390625,788.1318969726562,783.6996459960938
494,788.937744140625,786.923095703125,793.7728881835938,790.1465454101562
495,795.3846435546875,794.981689453125,797.8021850585938,794.981689453125
496,785.7142944335938,798.6080322265625,797.3992919921875,790.5494384765625
497,778.8644409179688,796.996337890625,801.025634765625,783.2966918945312
498,788.937744140625,796.1904907226562,799.4139404296875,782.893798828125
499,794.981689453125,792.967041015625,797.3992919921875,787.7289428710938
500,792.967041015625,791.7582397460938,798.6080322265625,787.7289428710938
501,791.3552856445312,789.7435913085938,797.8021850585938,783.6996459960938
502,792.1611938476562,785.3113403320312,796.1904907226562,784.908447265625
503,795.7875366210938,786.923095703125,801.4285888671875,795.3846435546875
504,792.967041015625,792.967041015625,803.4432373046875,795.3846435546875
505,791.3552856445312,791.7582397460938,801.025634765625,789.3406372070312
506,786.1171875,788.937744140625,799.010986328125,784.1025390625
507,778.05859375,788.5347900390625,799.010986328125,772.8204956054688
508,781.6849975585938,788.5347900390625,795.3846435546875,773.6264038085938
509,786.923095703125,788.1318969726562,793.7728881835938,782.4908447265625
510,787.3259887695312,786.5201416015625,788.937744140625,785.7142944335938
511,787.7289428710938,786.923095703125,788.1318969726562,785.3113403320312
512,786.923095703125,785.7142944335938,789.3406372070312,786.5201416015625
513,782.4908447265625,785.7142944335938,784.908447265625,786.923095703125
514,788.5347900390625,790.952392578125,786.1171875,794.981689453125
515,793.3699340820312,795.7875366210938,782.893798828125,796.1904907226562
516,792.1611938476562,791.7582397460938,777.6557006835938,786.1171875
517,791.3552856445312,783.6996459960938,780.879150390625,782.087890625
518,791.3552856445312,791.3552856445312,788.5347900390625,779.6703491210938
519,794.981689453125,796.996337890625,794.5787353515625,782.087890625
520,794.981689453125,794.981689453125,794.5787353515625,789.3406372070312
521,791.7582397460938,789.7435913085938,792.967041015625,791.7582397460938
522,788.5347900390625,785.3113403320312,792.1611938476562,793.3699340820312
523,781.6849975585938,785.7142944335938,790.5494384765625,786.1171875
524,783.2966918945312,789.3406372070312,788.937744140625,784.1025390625
525,795.3846435546875,791.7582397460938,790.1465454101562,793.3699340820312
526,803.040283203125,792.967041015625,792.967041015625,801.025634765625
527,797.3992919921875,792.5640869140625,794.1758422851562,793.3699340820312
528,788.5347900390625,792.1611938476562,793.3699340820312,787.7289428710938
529,791.3552856445312,797.3992919921875,794.1758422851562,791.7582397460938
530,794.1758422851562,798.2051391601562,796.5933837890625,790.952392578125
531,790.952392578125,801.025634765625,797.8021850585938,790.1465454101562
532,788.5347900390625,799.4139404296875,794.5787353515625,787.3259887695312
533,786.5201416015625,798.2051391601562,788.937744140625,782.4908447265625
534,786.5201416015625,797.3992919921875,788.1318969726562,782.893798828125
535,788.5347900390625,792.967041015625,792.5640869140625,786.923095703125
536,786.1171875,794.5787353515625,794.1758422851562,783.6996459960938
537,785.3113403320312,796.1904907226562,795.7875366210938,785.3113403320312
538,784.5054931640625,794.1758422851562,796.996337890625,782.087890625
539,780.879150390625,794.5787353515625,795.3846435546875,777.2527465820312
540,782.087890625,793.3699340820312,796.996337890625,778.4615478515625
541,785.7142944335938,788.937744140625,796.996337890625,781.2820434570312
542,786.923095703125,786.1171875,795.7875366210938,782.087890625
543,786.5201416015625,784.5054931640625,794.1758422851562,778.05859375
544,786.1171875,788.1318969726562,794.981689453125,781.2820434570312
545,786.923095703125,793.7728881835938,797.8021850585938,785.3113403320312
546,795.7875366210938,794.1758422851562,794.5787353515625,787.3259887695312
547,796.1904907226562,790.952392578125,790.952392578125,787.7289428710938
548,794.1758422851562,791.3552856445312,792.1611938476562,787.7289428710938
549,797.8021850585938,794.981689453125,791.7582397460938,792.967041015625
550,799.010986328125,797.8021850585938,793.3699340820312,792.967041015625
551,803.4432373046875,799.010986328125,796.1904907226562,794.981689453125
552,805.4578857421875,797.8021850585938,799.010986328125,802.2344360351562
553,801.025634765625,795.3846435546875,796.996337890625,799.010986328125
554,801.025634765625,798.2051391601562,795.7875366210938,795.3846435546875
555,801.4285888671875,801.4285888671875,799.010986328125,797.8021850585938
556,803.4432373046875,805.054931640625,802.6373901367188,799.8168334960938
557,802.6373901367188,803.4432373046875,805.054931640625,800.2197875976562
558,800.6226806640625,803.4432373046875,808.6813354492188,795.7875366210938
559,804.2490844726562,803.4432373046875,803.8461303710938,791.7582397460938
560,809.084228515625,803.4432373046875,802.2344360351562,799.8168334960938
561,809.89013671875,807.069580078125,804.6520385742188,801.8314819335938
562,808.2783813476562,801.8314819335938,799.8168334960938,796.1904907226562
563,805.4578857421875,799.8168334960938,798.6080322265625,795.3846435546875
564,794.5787353515625,803.040283203125,796.5933837890625,788.937744140625
565,791.3552856445312,799.4139404296875,791.3552856445312,782.893798828125
566,792.967041015625,797.3992919921875,790.952392578125,787.3259887695312
567,788.937744140625,791.3552856445312,792.967041015625,792.1611938476562
568,787.3259887695312,794.5787353515625,792.1611938476562,790.952392578125
569,790.1465454101562,795.7875366210938,791.3552856445312,788.937744140625
570,793.3699340820312,794.981689453125,791.3552856445312,785.7142944335938
571,796.996337890625,799.010986328125,789.3406372070312,788.1318969726562
572,798.6080322265625,795.3846435546875,792.5640869140625,792.5640869140625
573,799.010986328125,789.7435913085938,790.952392578125,787.7289428710938
574,796.1904907226562,786.5201416015625,790.952392578125,781.2820434570312
575,792.967041015625,786.5201416015625,792.967041015625,782.893798828125
576,790.1465454101562,785.7142944335938,793.7728881835938,786.1171875
577,786.5201416015625,786.5201416015625,791.7582397460938,782.893798828125
578,795.3846435546875,790.952392578125,788.937744140625,783.2966918945312
579,789.7435913085938,790.1465454101562,788.1318969726562,788.1318969726562
580,781.6849975585938,788.5347900390625,790.5494384765625,784.908447265625
581,788.5347900390625,787.3259887695312,791.7582397460938,784.908447265625
582,791.3552856445312,789.3406372070312,787.3259887695312,784.908447265625
583,792.5640869140625,792.5640869140625,788.5347900390625,786.923095703125
584,790.5494384765625,793.7728881835938,789.7435913085938,789.3406372070312
585,789.7435913085938,793.3699340820312,787.7289428710938,788.1318969726562
586,788.937744140625,792.5640869140625,787.3259887695312,787.7289428710938
587,791.3552856445312,793.7728881835938,787.3259887695312,794.5787353515625
588,788.1318969726562,790.1465454101562,789.3406372070312,793.3699340820312
589,778.8644409179688,790.5494384765625,792.1611938476562,783.2966918945312
590,780.4761962890625,788.937744140625,793.7728881835938,782.4908447265625
591,790.5494384765625,785.3113403320312,794.981689453125,784.5054931640625
592,795.7875366210938,792.5640869140625,794.5787353515625,786.5201416015625
593,791.7582397460938,790.5494384765625,794.1758422851562,782.893798828125
594,788.937744140625,788.1318969726562,792.967041015625,783.2966918945312
595,789.3406372070312,789.7435913085938,790.1465454101562,784.1025390625
596,793.7728881835938,793.7728881835938,788.937744140625,784.5054931640625
597,799.8168334960938,794.5787353515625,789.7435913085938,790.1465454101562
598,800.6226806640625,792.1611938476562,788.5347900390625,794.5787353515625
599,793.3699340820312,794.981689453125,788.937744140625,797.8021850585938
600,786.923095703125,797.8021850585938,790.1465454101562,788.937744140625
601,788.937744140625,797.8021850585938,786.5201416015625,788.5347900390625
602,789.3406372070312,795.3846435546875,788.1318969726562,793.7728881835938
603,787.7289428710938,792.5640869140625,787.7289428710938,792.967041015625
604,786.923095703125,789.3406372070312,789.3406372070312,788.937744140625
605,781.2820434570312,787.7289428710938,791.3552856445312,785.7142944335938
606,783.2966918945312,794.1758422851562,784.908447265625,786.5201416015625
607,788.937744140625,791.7582397460938,786.1171875,788.937744140625
608,790.1465454101562,785.7142944335938,790.1465454101562,788.937744140625
609,788.5347900390625,787.3259887695312,784.5054931640625,787.3259887695312
610,785.3113403320312,788.937744140625,784.908447265625,789.7435913085938
611,786.1171875,791.3552856445312,790.5494384765625,790.5494384765625
612,787.3259887695312,786.923095703125,788.1318969726562,786.923095703125
613,784.1025390625,786.5201416015625,782.087890625,774.029296875
614,786.923095703125,789.3406372070312,779.6703491210938,775.6410522460938
615,794.1758422851562,791.3552856445312,783.2966918945312,789.3406372070312
616,786.1171875,790.5494384765625,788.1318969726562,789.7435913085938
617,780.0732421875,785.7142944335938,793.3699340820312,788.1318969726562
618,782.087890625,785.7142944335938,792.1611938476562,784.1025390625
619,784.5054931640625,786.1171875,791.7582397460938,786.1171875
620,790.1465454101562,790.952392578125,794.1758422851562,790.5494384765625
621,787.7289428710938,788.937744140625,792.5640869140625,791.7582397460938
622,787.7289428710938,785.7142944335938,796.5933837890625,797.8021850585938
623,790.952392578125,788.1318969726562,791.3552856445312,793.7728881835938
624,789.7435913085938,788.1318969726562,792.1611938476562,792.5640869140625
625,785.3113403320312,792.5640869140625,793.7728881835938,795.3846435546875
626,787.3259887695312,793.7728881835938,788.937744140625,794.5787353515625
627,785.7142944335938,786.1171875,790.952392578125,786.5201416015625
628,784.1025390625,785.7142944335938,794.5787353515625,784.5054931640625
629,788.5347900390625,788.937744140625,795.3846435546875,792.1611938476562
630,787.3259887695312,789.7435913085938,794.981689453125,790.5494384765625
631,791.3552856445312,788.937744140625,794.5787353515625,785.3113403320312
632,799.4139404296875,786.5201416015625,801.4285888671875,786.923095703125
633,801.8314819335938,784.5054931640625,801.8314819335938,788.937744140625
634,803.8461303710938,790.5494384765625,798.2051391601562,792.1611938476562
635,794.981689453125,794.1758422851562,799.4139404296875,787.3259887695312
636,789.3406372070312,790.952392578125,800.6226806640625,786.5201416015625
637,799.8168334960938,792.5640869140625,799.8168334960938,797.8021850585938
638,799.8168334960938,794.5787353515625,792.967041015625,791.3552856445312
639,801.4285888671875,791.7582397460938,790.1465454101562,787.3259887695312
640,797.8021850585938,792.967041015625,790.5494384765625,790.1465454101562
641,790.5494384765625,792.5640869140625,786.1171875,782.4908447265625
642,796.1904907226562,789.3406372070312,785.3113403320312,784.5054931640625
643,796.996337890625,790.952392578125,785.3113403320312,791.7582397460938
644,794.5787353515625,793.3699340820312,784.908447265625,797.3992919921875
645,795.3846435546875,795.7875366210938,788.937744140625,802.6373901367188
646,798.2051391601562,799.8168334960938,794.1758422851562,798.2051391601562
647,799.8168334960938,794.5787353515625,796.5933837890625,789.3406372070312
648,802.2344360351562,794.1758422851562,794.981689453125,793.3699340820312
649,803.040283203125,799.4139404296875,795.3846435546875,792.967041015625
650,803.4432373046875,798.2051391601562,796.5933837890625,790.952392578125
651,801.025634765625,799.010986328125,797.8021850585938,796.996337890625
652,800.6226806640625,793.7728881835938,801.025634765625,799.8168334960938
653,799.010986328125,789.3406372070312,798.6080322265625,796.996337890625
654,797.8021850585938,791.3552856445312,797.8021850585938,793.7728881835938
655,794.5787353515625,791.3552856445312,799.8168334960938,791.7582397460938
656,786.1171875,788.937744140625,794.981689453125,791.7582397460938
657,789.7435913085938,792.967041015625,789.3406372070312,796.5933837890625
658,797.3992919921875,797.8021850585938,792.1611938476562,797.8021850585938
659,792.967041015625,794.981689453125,794.5787353515625,798.6080322265625
660,788.5347900390625,792.1611938476562,796.996337890625,799.4139404296875
661,785.3113403320312,792.1611938476562,794.5787353515625,800.6226806640625
662,788.1318969726562,788.937744140625,791.7582397460938,803.4432373046875
663,797.3992919921875,788.5347900390625,794.1758422851562,801.4285888671875
664,797.8021850585938,793.3699340820312,789.3406372070312,803.040283203125
665,797.8021850585938,789.7435913085938,791.3552856445312,799.4139404296875
666,795.3846435546875,784.1025390625,794.1758422851562,792.1611938476562
667,792.967041015625,790.952392578125,791.7582397460938,794.981689453125
668,800.6226806640625,796.1904907226562,792.967041015625,803.040283203125
669,799.8168334960938,794.1758422851562,793.3699340820312,799.8168334960938
670,792.5640869140625,791.7582397460938,791.7582397460938,794.1758422851562
671,792.5640869140625,789.3406372070312,794.5787353515625,800.2197875976562
672,786.5201416015625,791.3552856445312,796.996337890625,796.5933837890625
673,784.908447265625,790.5494384765625,797.8021850585938,790.952392578125
674,790.1465454101562,795.3846435546875,797.8021850585938,791.7582397460938
675,790.952392578125,799.010986328125,797.3992919921875,791.3552856445312
676,787.3259887695312,792.1611938476562,796.996337890625,790.1465454101562
677,787.3259887695312,792.5640869140625,797.3992919921875,787.7289428710938
678,789.3406372070312,795.7875366210938,796.5933837890625,784.908447265625
679,791.3552856445312,793.3699340820312,796.5933837890625,785.3113403320312
680,792.967041015625,795.7875366210938,791.7582397460938,784.908447265625
681,790.952392578125,798.2051391601562,788.1318969726562,780.0732421875
682,787.3259887695312,792.967041015625,786.923095703125,779.6703491210938
683,791.7582397460938,791.7582397460938,782.4908447265625,784.5054931640625
684,792.1611938476562,791.7582397460938,782.893798828125,782.087890625
685,785.3113403320312,791.3552856445312,786.5201416015625,783.2966918945312
686,784.5054931640625,787.7289428710938,786.5201416015625,787.7289428710938
687,786.1171875,782.893798828125,786.923095703125,789.3406372070312
688,794.981689453125,788.1318969726562,791.3552856445312,792.1611938476562
689,804.2490844726562,790.5494384765625,794.981689453125,797.8021850585938
690,800.6226806640625,786.5201416015625,791.3552856445312,796.5933837890625
691,800.6226806640625,788.937744140625,790.952392578125,794.1758422851562
692,799.4139404296875,790.952392578125,794.5787353515625,795.3846435546875
693,796.996337890625,792.5640869140625,794.981689453125,795.7875366210938
694,792.967041015625,787.7289428710938,793.7728881835938,792.5640869140625
695,790.1465454101562,786.5201416015625,791.3552856445312,794.1758422851562
696,792.1611938476562,789.7435913085938,790.1465454101562,790.952392578125
697,788.5347900390625,792.967041015625,788.5347900390625,785.7142944335938
698,786.1171875,794.5787353515625,794.981689453125,790.5494384765625
699,788.937744140625,790.952392578125,795.3846435546875,788.937744140625
700,788.937744140625,790.952392578125,790.5494384765625,782.087890625
701,788.937744140625,791.7582397460938,789.3406372070312,783.2966918945312
702,790.952392578125,790.952392578125,789.7435913085938,783.6996459960938
703,786.923095703125,790.5494384765625,788.937744140625,780.4761962890625
704,786.1171875,790.1465454101562,786.1171875,777.6557006835938
705,790.1465454101562,786.923095703125,778.8644409179688,787.7289428710938
706,785.3113403320312,780.4761962890625,776.0439453125,794.1758422851562
707,784.5054931640625,778.05859375,775.6410522460938,782.4908447265625
708,788.1318969726562,783.6996459960938,778.4615478515625,778.05859375
709,794.1758422851562,787.7289428710938,784.5054931640625,782.4908447265625
710,794.981689453125,786.923095703125,788.1318969726562,784.5054931640625
711,790.1465454101562,784.1025390625,792.1611938476562,781.2820434570312
712,782.087890625,781.6849975585938,788.937744140625,778.05859375
713,781.2820434570312,782.893798828125,788.937744140625,784.908447265625
714,783.6996459960938,782.4908447265625,791.3552856445312,790.1465454101562
715,788.937744140625,784.1025390625,792.1611938476562,788.1318969726562
716,790.952392578125,782.893798828125,793.7728881835938,789.7435913085938
717,790.1465454101562,786.923095703125,793.3699340820312,796.5933837890625
718,794.981689453125,788.1318969726562,790.952392578125,799.8168334960938
719,789.7435913085938,781.2820434570312,787.7289428710938,786.1171875
720,786.5201416015625,786.1171875,786.923095703125,780.4761962890625
721,790.1465454101562,788.937744140625,788.1318969726562,782.4908447265625
722,784.908447265625,790.5494384765625,791.7582397460938,774.029296875
723,784.1025390625,790.5494384765625,790.1465454101562,772.4176025390625
724,788.1318969726562,789.7435913085938,787.3259887695312,779.2673950195312
725,793.3699340820312,790.952392578125,788.937744140625,784.908447265625
726,794.1758422851562,790.5494384765625,790.952392578125,785.3113403320312
727,789.7435913085938,789.3406372070312,790.5494384765625,784.5054931640625
728,793.3699340820312,790.1465454101562,792.967041015625,784.5054931640625
729,796.996337890625,791.7582397460938,793.7728881835938,791.7582397460938
730,796.5933837890625,789.7435913085938,793.7728881835938,799.4139404296875
731,797.3992919921875,792.967041015625,798.2051391601562,795.7875366210938
732,799.010986328125,795.3846435546875,803.4432373046875,796.996337890625
733,796.1904907226562,790.5494384765625,801.4285888671875,797.8021850585938
734,796.1904907226562,791.7582397460938,796.1904907226562,798.6080322265625
735,801.025634765625,797.3992919921875,796.1904907226562,794.981689453125
736,802.6373901367188,797.3992919921875,796.996337890625,794.981689453125
737,794.5787353515625,791.7582397460938,795.3846435546875,792.5640869140625
738,790.5494384765625,789.7435913085938,795.3846435546875,790.952392578125
739,790.5494384765625,790.5494384765625,800.2197875976562,793.7728881835938
740,788.5347900390625,792.1611938476562,797.3992919921875,798.6080322265625
741,788.1318969726562,784.1025390625,799.010986328125,801.8314819335938
742,784.5054931640625,785.7142944335938,798.6080322265625,789.3406372070312
743,782.893798828125,792.1611938476562,797.8021850585938,780.4761962890625
744,788.1318969726562,790.5494384765625,802.6373901367188,787.3259887695312
745,786.1171875,785.7142944335938,800.2197875976562,790.952392578125
746,782.4908447265625,784.908447265625,797.8021850585938,786.1171875
747,784.5054931640625,784.1025390625,795.3846435546875,785.7142944335938
748,780.0732421875,785.3113403320312,791.7582397460938,778.8644409179688
749,783.6996459960938,786.5201416015625,790.5494384765625,777.2527465820312
750,791.7582397460938,784.908447265625,788.937744140625,781.2820434570312
751,790.952392578125,786.923095703125,786.923095703125,779.6703491210938
752,794.981689453125,789.3406372070312,789.3406372070312,787.7289428710938
753,795.7875366210938,790.1465454101562,790.952392578125,785.7142944335938
754,800.6226806640625,789.7435913085938,785.3113403320312,776.0439453125
755,807.4725341796875,786.923095703125,784.908447265625,781.6849975585938
756,800.2197875976562,786.1171875,786.923095703125,788.937744140625
757,796.1904907226562,792.5640869140625,784.908447265625,785.3113403320312
758,794.5787353515625,790.952392578125,783.2966918945312,782.087890625
759,798.2051391601562,789.7435913085938,784.1025390625,789.3406372070312
760,797.8021850585938,788.5347900390625,786.923095703125,791.3552856445312
761,798.6080322265625,790.1465454101562,788.1318969726562,786.923095703125
762,798.6080322265625,797.3992919921875,785.3113403320312,787.7289428710938
763,792.967041015625,795.7875366210938,787.3259887695312,790.1465454101562
764,792.5640869140625,792.1611938476562,790.1465454101562,792.5640869140625
765,787.3259887695312,791.7582397460938,787.3259887695312,794.5787353515625
766,784.5054931640625,792.967041015625,787.7289428710938,792.1611938476562
767,786.1171875,793.3699340820312,791.3552856445312,791.7582397460938
768,780.879150390625,794.1758422851562,790.1465454101562,796.1904907226562
769,778.05859375,792.5640869140625,793.3699340820312,792.967041015625
770,783.2966918945312,793.3699340820312,793.7728881835938,791.7582397460938
771,788.5347900390625,794.1758422851562,790.5494384765625,796.1904907226562
772,787.7289428710938,789.7435913085938,790.952392578125,788.937744140625
773,787.3259887695312,788.937744140625,792.5640869140625,784.1025390625
774,790.952392578125,792.5640869140625,791.3552856445312,785.7142944335938
775,791.7582397460938,791.3552856445312,787.7289428710938,783.2966918945312
776,796.996337890625,787.3259887695312,788.1318969726562,788.5347900390625
777,800.6226806640625,790.952392578125,790.952392578125,794.5787353515625
778,797.3992919921875,790.1465454101562,794.5787353515625,793.3699340820312
779,796.5933837890625,788.937744140625,795.7875366210938,793.7728881835938
780,797.3992919921875,793.3699340820312,794.1758422851562,785.7142944335938
781,799.4139404296875,793.7728881835938,791.3552856445312,779.2673950195312
782,794.981689453125,790.1465454101562,790.1465454101562,781.6849975585938
783,790.5494384765625,797.8021850585938,790.5494384765625,777.6557006835938
784,791.3552856445312,805.4578857421875,793.3699340820312,770.4029541015625
785,792.5640869140625,801.8314819335938,792.967041015625,775.2380981445312
786,799.010986328125,805.054931640625,786.5201416015625,786.5201416015625
787,799.8168334960938,804.6520385742188,782.087890625,784.908447265625
788,794.981689453125,799.4139404296875,780.879150390625,773.6264038085938
789,791.7582397460938,797.3992919921875,783.2966918945312,774.4322509765625
790,789.7435913085938,792.967041015625,782.893798828125,788.5347900390625
791,783.6996459960938,791.7582397460938,782.893798828125,790.952392578125
792,785.7142944335938,792.967041015625,784.1025390625,784.1025390625
793,789.7435913085938,790.5494384765625,787.3259887695312,786.5201416015625
794,780.0732421875,784.5054931640625,788.5347900390625,783.2966918945312
795,780.0732421875,782.087890625,787.7289428710938,778.05859375
796,789.3406372070312,783.2966918945312,787.3259887695312,782.087890625
797,791.3552856445312,784.1025390625,784.908447265625,784.908447265625
798,790.952392578125,783.2966918945312,785.3113403320312,786.1171875
799,789.7435913085938,781.2820434570312,788.5347900390625,785.7142944335938
800,788.5347900390625,784.1025390625,786.923095703125,785.3113403320312
801,796.1904907226562,791.7582397460938,784.908447265625,790.952392578125
802,800.2197875976562,792.967041015625,786.1171875,788.937744140625
803,798.6080322265625,792.5640869140625,790.5494384765625,787.7289428710938
804,791.7582397460938,790.952392578125,789.7435913085938,786.923095703125
805,788.1318969726562,788.937744140625,788.5347900390625,786.5201416015625
806,790.1465454101562,786.1171875,792.5640869140625,798.2051391601562
807,792.1611938476562,786.1171875,789.3406372070312,795.3846435546875
808,793.3699340820312,782.893798828125,784.908447265625,787.7289428710938
809,790.1465454101562,784.908447265625,786.1171875,792.967041015625
810,786.923095703125,791.3552856445312,787.7289428710938,796.1904907226562
811,786.1171875,790.5494384765625,784.908447265625,791.3552856445312
812,793.3699340820312,790.952392578125,787.7289428710938,786.923095703125
813,791.7582397460938,788.5347900390625,790.1465454101562,790.1465454101562
814,786.5201416015625,783.2966918945312,790.1465454101562,794.5787353515625
815,784.908447265625,785.7142944335938,792.5640869140625,786.1171875
816,782.4908447265625,782.4908447265625,790.952392578125,778.4615478515625
817,788.5347900390625,780.4761962890625,787.3259887695312,782.893798828125
818,789.7435913085938,784.5054931640625,784.1025390625,782.893798828125
819,784.5054931640625,783.2966918945312,785.3113403320312,778.05859375
820,783.2966918945312,783.6996459960938,787.3259887695312,783.2966918945312
821,783.6996459960938,784.1025390625,786.923095703125,789.3406372070312
822,779.2673950195312,785.3113403320312,784.1025390625,783.6996459960938
823,782.4908447265625,793.3699340820312,784.5054931640625,782.4908447265625
824,786.1171875,790.952392578125,786.5201416015625,785.7142944335938
825,784.1025390625,789.7435913085938,786.5201416015625,791.7582397460938
826,786.5201416015625,793.3699340820312,788.1318969726562,797.3992919921875
827,787.3259887695312,791.3552856445312,787.7289428710938,791.3552856445312
828,793.7728881835938,789.7435913085938,787.7289428710938,788.5347900390625
829,794.1758422851562,791.3552856445312,789.7435913085938,791.7582397460938
830,788.1318969726562,790.952392578125,790.952392578125,790.952392578125
831,790.5494384765625,790.5494384765625,792.967041015625,789.7435913085938
832,802.6373901367188,788.5347900390625,790.952392578125,792.5640869140625
833,803.040283203125,788.1318969726562,785.7142944335938,789.7435913085938
834,797.8021850585938,793.3699340820312,786.923095703125,789.7435913085938
835,802.6373901367188,794.1758422851562,786.923095703125,793.3699340820312
836,803.4432373046875,794.981689453125,782.087890625,793.7728881835938
837,805.054931640625,801.025634765625,787.7289428710938,794.981689453125
838,805.8607788085938,800.6226806640625,791.3552856445312,793.3699340820312
839,802.2344360351562,794.5787353515625,789.7435913085938,793.3699340820312
840,804.2490844726562,791.7582397460938,786.1171875,798.6080322265625
841,807.4725341796875,791.7582397460938,784.908447265625,802.6373901367188
842,806.2637329101562,794.1758422851562,787.7289428710938,802.6373901367188
843,807.069580078125,795.7875366210938,790.1465454101562,805.8607788085938
844,802.2344360351562,792.967041015625,790.1465454101562,801.025634765625
845,790.5494384765625,792.1611938476562,787.7289428710938,791.3552856445312
846,783.2966918945312,790.5494384765625,791.3552856445312,784.1025390625
847,786.1171875,790.952392578125,794.1758422851562,786.5201416015625
848,790.1465454101562,790.1465454101562,796.5933837890625,795.3846435546875
849,784.1025390625,787.7289428710938,796.1904907226562,789.7435913085938
850,779.2673950195312,786.923095703125,792.5640869140625,782.087890625
851,780.0732421875,784.5054931640625,790.1465454101562,782.4908447265625
852,785.7142944335938,786.1171875,784.908447265625,779.2673950195312
853,785.7142944335938,784.5054931640625,788.1318969726562,778.05859375
854,781.6849975585938,785.7142944335938,786.923095703125,777.2527465820312
855,784.908447265625,790.1465454101562,782.087890625,779.2673950195312
856,789.3406372070312,788.937744140625,784.908447265625,783.2966918945312
857,792.5640869140625,785.7142944335938,785.7142944335938,779.6703491210938
858,792.1611938476562,786.923095703125,782.4908447265625,777.2527465820312
859,790.952392578125,786.923095703125,784.1025390625,782.087890625
860,793.3699340820312,790.5494384765625,785.7142944335938,786.5201416015625
861,793.3699340820312,792.5640869140625,789.3406372070312,790.952392578125
862,783.6996459960938,788.937744140625,790.5494384765625,790.1465454101562
863,784.908447265625,787.7289428710938,786.5201416015625,790.952392578125
864,789.7435913085938,793.7728881835938,790.952392578125,789.3406372070312
865,790.1465454101562,796.996337890625,792.1611938476562,783.2966918945312
866,792.5640869140625,791.7582397460938,789.3406372070312,786.5201416015625
867,797.3992919921875,790.5494384765625,792.5640869140625,794.1758422851562
868,802.6373901367188,792.967041015625,790.952392578125,796.1904907226562
869,801.025634765625,793.3699340820312,790.5494384765625,792.967041015625
870,795.7875366210938,793.3699340820312,793.3699340820312,792.5640869140625
871,799.4139404296875,796.5933837890625,795.3846435546875,798.2051391601562
872,801.025634765625,791.3552856445312,796.1904907226562,796.996337890625
873,799.8168334960938,790.5494384765625,794.5787353515625,790.5494384765625
874,799.010986328125,790.952392578125,796.5933837890625,789.7435913085938
875,792.967041015625,794.5787353515625,794.5787353515625,789.3406372070312
876,788.937744140625,801.4285888671875,795.7875366210938,788.5347900390625
877,790.952392578125,803.4432373046875,799.4139404296875,789.3406372070312
878,794.5787353515625,801.8314819335938,794.5787353515625,794.5787353515625
879,799.010986328125,801.8314819335938,794.981689453125,796.996337890625
880,799.8168334960938,801.8314819335938,795.7875366210938,793.3699340820312
881,803.4432373046875,799.4139404296875,794.1758422851562,796.1904907226562
882,805.054931640625,802.2344360351562,791.7582397460938,799.010986328125
883,810.2930297851562,802.2344360351562,796.1904907226562,803.8461303710938
884,815.1282348632812,800.2197875976562,801.4285888671875,805.054931640625
885,801.8314819335938,799.8168334960938,797.8021850585938,795.3846435546875
886,796.996337890625,798.6080322265625,792.1611938476562,792.5640869140625
887,790.5494384765625,796.1904907226562,788.937744140625,796.5933837890625
888,779.2673950195312,792.1611938476562,791.3552856445312,794.5787353515625
889,782.4908447265625,792.967041015625,795.7875366210938,796.1904907226562
890,791.3552856445312,793.3699340820312,800.6226806640625,802.6373901367188
891,794.1758422851562,792.1611938476562,806.6666870117188,802.6373901367188
892,794.5787353515625,791.7582397460938,807.87548828125,799.010986328125
893,796.5933837890625,783.2966918945312,804.6520385742188,795.3846435546875
894,794.5787353515625,784.5054931640625,799.8168334960938,792.1611938476562
895,788.937744140625,792.1611938476562,796.996337890625,794.1758422851562
896,787.7289428710938,796.996337890625,801.8314819335938,796.5933837890625
897,787.7289428710938,796.1904907226562,798.6080322265625,794.5787353515625
898,790.1465454101562,790.952392578125,797.3992919921875,797.8021850585938
899,793.3699340820312,796.1904907226562,795.3846435546875,797.8021850585938
900,794.5787353515625,799.010986328125,789.3406372070312,788.5347900390625
901,790.1465454101562,797.3992919921875,791.3552856445312,790.952392578125
902,788.1318969726562,800.2197875976562,786.5201416015625,790.1465454101562
903,794.5787353515625,795.7875366210938,789.3406372070312,789.7435913085938
904,797.3992919921875,791.3552856445312,788.1318969726562,795.3846435546875
905,797.3992919921875,790.952392578125,782.893798828125,789.7435913085938
906,794.5787353515625,792.1611938476562,786.1171875,784.908447265625
907,791.7582397460938,796.5933837890625,780.0732421875,785.3113403320312
908,791.7582397460938,795.3846435546875,780.4761962890625,786.923095703125
909,791.3552856445312,790.1465454101562,778.8644409179688,785.7142944335938
910,790.5494384765625,786.1171875,778.8644409179688,783.2966918945312
911,791.7582397460938,787.7289428710938,778.05859375,782.087890625
912,787.7289428710938,792.1611938476562,781.2820434570312,780.879150390625
913,790.5494384765625,788.937744140625,784.1025390625,784.908447265625
914,799.010986328125,788.1318969726562,781.6849975585938,786.923095703125
915,799.4139404296875,792.5640869140625,784.5054931640625,785.7142944335938
916,801.025634765625,789.7435913085938,785.3113403320312,790.1465454101562
917,797.3992919921875,787.3259887695312,790.952392578125,790.952392578125
918,794.1758422851562,789.3406372070312,794.5787353515625,792.1611938476562
919,798.6080322265625,790.1465454101562,795.7875366210938,791.7582397460938
920,801.4285888671875,792.5640869140625,802.6373901367188,786.5201416015625
921,798.2051391601562,790.5494384765625,803.4432373046875,788.937744140625
922,787.7289428710938,786.1171875,798.2051391601562,787.7289428710938
923,790.952392578125,787.7289428710938,796.5933837890625,779.2673950195312
924,795.3846435546875,785.3113403320312,794.981689453125,776.8497924804688
925,788.1318969726562,785.7142944335938,794.981689453125,783.6996459960938
926,780.4761962890625,784.5054931640625,802.2344360351562,783.6996459960938
927,779.2673950195312,780.0732421875,804.6520385742188,784.5054931640625
928,782.4908447265625,786.1171875,805.4578857421875,792.1611938476562
929,784.908447265625,795.7875366210938,802.6373901367188,792.5640869140625
930,786.923095703125,795.3846435546875,799.010986328125,788.937744140625
931,787.3259887695312,792.1611938476562,800.2197875976562,786.923095703125
932,786.1171875,790.1465454101562,797.8021850585938,788.937744140625
933,786.5201416015625,792.967041015625,792.1611938476562,794.5787353515625
934,793.3699340820312,794.5787353515625,791.7582397460938,794.981689453125
935,797.8021850585938,792.5640869140625,795.3846435546875,799.010986328125
936,796.1904907226562,791.7582397460938,793.3699340820312,798.2051391601562
937,792.967041015625,791.7582397460938,790.5494384765625,789.3406372070312
938,791.3552856445312,790.5494384765625,790.952392578125,787.7289428710938
939,792.5640869140625,791.7582397460938,788.937744140625,788.937744140625
940,795.7875366210938,793.3699340820312,790.5494384765625,792.1611938476562
941,790.952392578125,790.952392578125,787.7289428710938,790.1465454101562
942,788.1318969726562,786.1171875,782.4908447265625,783.6996459960938
943,791.3552856445312,786.923095703125,785.3113403320312,783.6996459960938
944,788.937744140625,787.3259887695312,784.1025390625,786.5201416015625
945,785.7142944335938,786.923095703125,783.6996459960938,784.1025390625
946,786.5201416015625,786.923095703125,789.7435913085938,784.1025390625
947,785.3113403320312,784.5054931640625,788.5347900390625,783.2966918945312
948,782.4908447265625,784.1025390625,786.1171875,778.8644409179688
949,785.3113403320312,786.923095703125,786.923095703125,780.4761962890625
950,788.5347900390625,789.3406372070312,786.5201416015625,786.1171875
951,785.7142944335938,790.5494384765625,789.3406372070312,790.1465454101562
952,777.6557006835938,792.1611938476562,794.5787353515625,789.3406372070312
953,778.05859375,793.7728881835938,797.8021850585938,791.7582397460938
954,781.2820434570312,790.1465454101562,793.3699340820312,791.7582397460938
955,785.3113403320312,788.5347900390625,792.5640869140625,796.1904907226562
956,785.7142944335938,789.7435913085938,797.3992919921875,802.2344360351562
957,782.893798828125,790.952392578125,794.981689453125,794.1758422851562
958,786.1171875,789.3406372070312,794.1758422851562,791.7582397460938
959,788.5347900390625,788.1318969726562,794.5787353515625,796.1904907226562
960,792.967041015625,790.5494384765625,796.1904907226562,805.054931640625
961,797.8021850585938,789.3406372070312,797.8021850585938,807.4725341796875
962,796.5933837890625,788.1318969726562,798.2051391601562,798.2051391601562
963,795.7875366210938,787.3259887695312,795.3846435546875,792.5640869140625
964,799.8168334960938,790.952392578125,792.967041015625,787.7289428710938
965,807.87548828125,795.7875366210938,793.7728881835938,789.7435913085938
966,819.1575317382812,794.981689453125,792.1611938476562,794.1758422851562
967,819.96337890625,794.5787353515625,796.1904907226562,796.1904907226562
968,807.4725341796875,796.1904907226562,797.8021850585938,791.7582397460938
969,805.054931640625,796.996337890625,796.996337890625,790.952392578125
970,813.113525390625,797.8021850585938,801.8314819335938,800.2197875976562
971,812.3076782226562,792.5640869140625,794.1758422851562,805.4578857421875
972,799.4139404296875,782.893798828125,785.7142944335938,798.6080322265625
973,793.7728881835938,780.879150390625,784.5054931640625,788.937744140625
974,792.1611938476562,784.908447265625,786.923095703125,786.923095703125
975,788.1318969726562,785.3113403320312,790.952392578125,786.923095703125
976,790.1465454101562,787.7289428710938,797.3992919921875,792.1611938476562
977,789.7435913085938,788.5347900390625,796.5933837890625,798.6080322265625
978,783.6996459960938,783.6996459960938,791.3552856445312,793.7728881835938
979,786.923095703125,784.5054931640625,793.3699340820312,791.7582397460938
980,792.1611938476562,790.5494384765625,795.3846435546875,794.981689453125
981,792.1611938476562,790.5494384765625,795.3846435546875,795.7875366210938
982,790.952392578125,790.952392578125,796.996337890625,803.040283203125
983,786.1171875,792.5640869140625,800.2197875976562,801.8314819335938
984,783.6996459960938,790.952392578125,800.2197875976562,797.3992919921875
985,786.1171875,792.1611938476562,799.8168334960938,796.5933837890625
986,796.1904907226562,789.7435913085938,794.981689453125,799.8168334960938
987,804.2490844726562,786.923095703125,790.5494384765625,801.4285888671875
988,801.4285888671875,784.1025390625,791.3552856445312,792.1611938476562
989,805.054931640625,780.4761962890625,788.5347900390625,788.5347900390625
990,808.6813354492188,786.1171875,788.5347900390625,788.1318969726562
991,805.8607788085938,788.5347900390625,787.7289428710938,781.6849975585938
992,801.8314819335938,784.908447265625,785.7142944335938,775.6410522460938
993,794.981689453125,783.2966918945312,783.6996459960938,772.8204956054688
994,787.7289428710938,785.3113403320312,783.6996459960938,777.2527465820312
995,779.6703491210938,789.7435913085938,784.1025390625,777.2527465820312
996,784.1025390625,792.967041015625,784.1025390625,776.4468994140625
997,785.7142944335938,788.937744140625,784.908447265625,779.2673950195312
998,778.05859375,784.1025390625,786.1171875,780.4761962890625
999,775.6410522460938,785.7142944335938,788.937744140625,788.5347900390625
1000,776.4468994140625,789.3406372070312,789.3406372070312,791.3552856445312
1001,779.2673950195312,789.7435913085938,788.937744140625,790.952392578125
1002,780.0732421875,787.3259887695312,790.1465454101562,793.3699340820312
1003,783.2966918945312,788.5347900390625,792.967041015625,799.8168334960938
1004,776.4468994140625,784.1025390625,796.5933837890625,797.3992919921875
1005,765.5677490234375,776.0439453125,792.967041015625,793.3699340820312
1006,768.7911987304688,776.4468994140625,796.1904907226562,796.5933837890625
1007,774.8351440429688,779.2673950195312,805.8607788085938,791.3552856445312
1008,777.2527465820312,778.4615478515625,806.2637329101562,790.1465454101562
1009,783.2966918945312,777.2527465820312,799.4139404296875,793.7728881835938
1010,790.5494384765625,782.4908447265625,798.6080322265625,792.1611938476562
1011,794.5787353515625,784.908447265625,803.040283203125,790.952392578125
1012,796.996337890625,783.2966918945312,799.8168334960938,788.5347900390625
1013,793.3699340820312,791.7582397460938,796.1904907226562,786.923095703125
1014,786.5201416015625,797.8021850585938,795.7875366210938,782.087890625
1015,788.5347900390625,790.952392578125,796.5933837890625,776.8497924804688
1016,795.3846435546875,790.5494384765625,790.1465454101562,778.4615478515625
1017,799.4139404296875,795.7875366210938,791.3552856445312,786.1171875
1018,799.4139404296875,797.8021850585938,798.2051391601562,783.2966918945312
1019,794.1758422851562,798.2051391601562,792.1611938476562,771.6116943359375
1020,795.3846435546875,796.996337890625,791.7582397460938,769.1941528320312
1021,799.8168334960938,805.8607788085938,798.2051391601562,779.6703491210938
1022,800.2197875976562,809.4871826171875,799.010986328125,784.1025390625
1023,796.5933837890625,802.6373901367188,797.3992919921875,775.2380981445312
1024,794.981689453125,801.4285888671875,794.1758422851562,780.879150390625
1025,794.981689453125,799.4139404296875,796.5933837890625,788.1318969726562
1026,791.3552856445312,794.5787353515625,801.4285888671875,783.6996459960938
1027,794.1758422851562,796.996337890625,805.054931640625,783.6996459960938
1028,796.1904907226562,796.5933837890625,808.2783813476562,786.923095703125
1029,786.5201416015625,792.5640869140625,809.4871826171875,788.5347900390625
1030,772.0146484375,786.1171875,806.6666870117188,783.2966918945312
1031,768.7911987304688,784.1025390625,805.8607788085938,782.893798828125
1032,775.2380981445312,784.1025390625,804.6520385742188,792.967041015625
1033,771.2088012695312,780.0732421875,803.8461303710938,792.5640869140625
1034,765.970703125,780.879150390625,803.8461303710938,782.4908447265625
1035,767.5823974609375,778.8644409179688,803.040283203125,781.6849975585938
1036,776.0439453125,784.908447265625,806.6666870117188,793.3699340820312
1037,784.5054931640625,787.7289428710938,805.4578857421875,792.5640869140625
1038,788.5347900390625,786.923095703125,803.040283203125,787.3259887695312
1039,793.3699340820312,793.3699340820312,804.6520385742188,792.1611938476562
1040,803.8461303710938,796.1904907226562,803.040283203125,796.1904907226562
1041,807.87548828125,790.952392578125,799.8168334960938,792.5640869140625
1042,813.5164794921875,791.7582397460938,799.8168334960938,791.3552856445312
1043,820.3662719726562,796.996337890625,798.6080322265625,792.1611938476562
1044,816.7399291992188,795.3846435546875,798.6080322265625,785.7142944335938
1045,806.6666870117188,792.5640869140625,793.3699340820312,778.05859375
1046,802.6373901367188,794.5787353515625,792.5640869140625,783.6996459960938
1047,803.8461303710938,799.4139404296875,792.967041015625,784.908447265625
1048,797.3992919921875,803.040283203125,788.937744140625,780.0732421875
1049,790.952392578125,800.2197875976562,791.7582397460938,782.4908447265625
1050,786.5201416015625,797.8021850585938,792.5640869140625,784.1025390625
1051,785.3113403320312,792.1611938476562,789.3406372070312,786.1171875
1052,784.908447265625,788.5347900390625,788.937744140625,791.3552856445312
1053,777.6557006835938,788.5347900390625,792.1611938476562,792.967041015625
1054,772.0146484375,789.3406372070312,792.967041015625,791.3552856445312
1055,774.8351440429688,790.952392578125,797.8021850585938,800.2197875976562
1056,774.4322509765625,790.952392578125,796.5933837890625,801.4285888671875
1057,774.4322509765625,791.3552856445312,790.1465454101562,797.3992919921875
1058,775.2380981445312,787.7289428710938,794.1758422851562,802.2344360351562
1059,776.8497924804688,782.893798828125,799.4139404296875,800.2197875976562
1060,778.8644409179688,785.7142944335938,803.4432373046875,799.4139404296875
1061,779.6703491210938,790.1465454101562,807.069580078125,801.8314819335938
1062,782.4908447265625,788.937744140625,804.2490844726562,803.4432373046875
1063,787.7289428710938,785.3113403320312,803.040283203125,811.098876953125
1064,789.7435913085938,788.5347900390625,803.8461303710938,804.6520385742188
1065,791.7582397460938,790.1465454101562,801.8314819335938,793.7728881835938
1066,796.1904907226562,790.1465454101562,801.025634765625,792.967041015625
1067,799.4139404296875,790.5494384765625,799.8168334960938,802.6373901367188
1068,802.2344360351562,788.5347900390625,795.3846435546875,805.4578857421875
1069,806.2637329101562,790.952392578125,790.952392578125,796.996337890625
1070,802.6373901367188,791.3552856445312,789.7435913085938,784.908447265625
1071,802.6373901367188,788.937744140625,791.7582397460938,782.893798828125
1072,802.2344360351562,790.952392578125,790.952392578125,787.3259887695312
1073,802.2344360351562,795.3846435546875,792.5640869140625,785.7142944335938
1074,801.8314819335938,798.2051391601562,795.3846435546875,788.1318969726562
1075,799.8168334960938,793.7728881835938,793.7728881835938,788.1318969726562
1076,795.3846435546875,790.1465454101562,790.5494384765625,782.087890625
1077,796.996337890625,796.996337890625,788.937744140625,784.5054931640625
1078,803.8461303710938,798.6080322265625,792.1611938476562,789.3406372070312
1079,803.8461303710938,793.3699340820312,795.3846435546875,792.967041015625
1080,799.8168334960938,792.967041015625,791.3552856445312,789.7435913085938
1081,798.6080322265625,794.5787353515625,788.1318969726562,784.1025390625
1082,804.6520385742188,791.7582397460938,788.937744140625,786.5201416015625
1083,800.2197875976562,788.5347900390625,788.937744140625,790.952392578125
1084,790.952392578125,788.1318969726562,790.1465454101562,786.923095703125
1085,792.5640869140625,793.3699340820312,790.952392578125,786.1171875
1086,797.3992919921875,794.5787353515625,789.7435913085938,789.7435913085938
1087,800.6226806640625,794.981689453125,793.7728881835938,792.967041015625
1088,806.6666870117188,800.6226806640625,800.6226806640625,798.2051391601562
1089,813.5164794921875,799.4139404296875,798.2051391601562,798.6080322265625
1090,813.91943359375,794.1758422851562,796.5933837890625,798.6080322265625
1091,803.040283203125,793.3699340820312,796.1904907226562,796.996337890625
1092,796.5933837890625,794.5787353515625,790.952392578125,789.7435913085938
1093,798.6080322265625,794.1758422851562,790.5494384765625,788.5347900390625
1094,806.2637329101562,800.2197875976562,795.3846435546875,792.5640869140625
1095,807.069580078125,800.2197875976562,795.3846435546875,789.3406372070312
1096,801.4285888671875,797.8021850585938,792.5640869140625,785.7142944335938
1097,801.4285888671875,794.981689453125,796.996337890625,787.7289428710938
1098,807.4725341796875,795.3846435546875,797.3992919921875,792.5640869140625
1099,810.2930297851562,797.8021850585938,796.996337890625,800.6226806640625
1100,803.4432373046875,799.4139404296875,794.1758422851562,800.6226806640625
1101,794.1758422851562,794.5787353515625,792.5640869140625,792.5640869140625
1102,792.967041015625,795.3846435546875,792.967041015625,792.5640869140625
1103,801.8314819335938,800.2197875976562,796.1904907226562,792.5640869140625
1104,806.2637329101562,797.3992919921875,795.3846435546875,789.7435913085938
1105,801.8314819335938,794.5787353515625,793.3699340820312,790.1465454101562
1106,793.7728881835938,789.7435913085938,794.5787353515625,787.7289428710938
1107,786.1171875,790.5494384765625,794.981689453125,782.087890625
1108,790.952392578125,796.5933837890625,795.3846435546875,782.4908447265625
1109,799.4139404296875,799.4139404296875,793.7728881835938,789.7435913085938
1110,796.1904907226562,792.1611938476562,790.952392578125,788.937744140625
1111,790.1465454101562,788.1318969726562,796.1904907226562,781.6849975585938
1112,796.5933837890625,795.3846435546875,803.4432373046875,781.6849975585938
1113,801.4285888671875,794.1758422851562,802.6373901367188,780.879150390625
1114,793.3699340820312,788.937744140625,795.3846435546875,774.8351440429688
1115,793.3699340820312,790.1465454101562,791.3552856445312,770.0
1116,793.3699340820312,785.7142944335938,787.7289428710938,768.3883056640625
1117,788.1318969726562,787.3259887695312,786.923095703125,776.4468994140625
1118,786.923095703125,792.1611938476562,792.967041015625,784.1025390625
1119,787.3259887695312,786.5201416015625,795.7875366210938,787.7289428710938
1120,786.1171875,787.3259887695312,799.010986328125,790.952392578125
1121,784.5054931640625,791.3552856445312,802.6373901367188,793.7728881835938
1122,788.5347900390625,796.1904907226562,809.4871826171875,801.8314819335938
1123,792.967041015625,804.2490844726562,813.5164794921875,807.069580078125
1124,788.937744140625,798.2051391601562,811.098876953125,803.8461303710938
1125,790.1465454101562,800.6226806640625,812.3076782226562,803.040283203125
1126,786.5201416015625,799.010986328125,800.6226806640625,785.7142944335938
1127,778.4615478515625,796.1904907226562,793.3699340820312,774.8351440429688
1128,783.2966918945312,805.4578857421875,798.6080322265625,785.3113403320312
1129,788.5347900390625,812.7106323242188,790.952392578125,784.5054931640625
1130,776.8497924804688,817.1428833007812,784.1025390625,767.1795043945312
1131,764.3589477539062,818.7545776367188,786.5201416015625,752.6740112304688
1132,761.5384521484375,837.2893676757812,794.1758422851562,746.2271118164062
1133,754.6886596679688,844.5421142578125,792.5640869140625,729.3040161132812
1134,737.3626098632812,840.5128173828125,780.0732421875,709.96337890625
1135,721.2454223632812,843.7362670898438,776.0439453125,703.91943359375
1136,714.7985229492188,862.2710571289062,780.4761962890625,704.7252807617188
1137,702.3076782226562,870.3296508789062,783.6996459960938,687.8021850585938
1138,689.4139404296875,864.2857055664062,778.8644409179688,672.087890625
1139,682.967041015625,866.7033081054688,779.6703491210938,668.8644409179688
1140,678.5347900390625,863.4798583984375,781.2820434570312,667.2527465820312
1141,670.879150390625,862.6740112304688,783.6996459960938,657.1795043945312
1142,660.0,862.2710571289062,785.3113403320312,643.4798583984375
1143,660.8058471679688,856.6300659179688,784.908447265625,643.4798583984375
1144,666.4468994140625,854.6153564453125,788.1318969726562,653.5531005859375
1145,666.8497924804688,853.8095092773438,791.3552856445312,660.0
1146,667.6557006835938,856.2271118164062,794.1758422851562,666.0439453125
1147,671.6849975585938,852.6007080078125,793.3699340820312,672.893798828125
1148,674.5054931640625,841.3186645507812,788.1318969726562,676.1171875
1149,682.1611938476562,838.09521484375,786.1171875,683.7728881835938
1150,689.4139404296875,846.1538696289062,788.5347900390625,687.3992919921875
1151,691.4285888671875,840.5128173828125,790.5494384765625,691.8314819335938
1152,698.2783813476562,834.06591796875,785.3113403320312,704.7252807617188
1153,709.1575317382812,840.5128173828125,777.6557006835938,705.93408203125
1154,726.886474609375,838.901123046875,778.05859375,713.1868286132812
1155,738.974365234375,834.4688720703125,783.6996459960938,731.3186645507812
1156,740.1831665039062,830.4395751953125,785.3113403320312,736.5567626953125
1157,747.4359130859375,829.2307739257812,780.879150390625,741.3919677734375
1158,761.5384521484375,826.4102783203125,776.4468994140625,753.8828125
1159,770.8058471679688,817.5457763671875,777.6557006835938,766.3735961914062
1160,775.2380981445312,809.4871826171875,777.6557006835938,771.6116943359375
1161,782.4908447265625,803.8461303710938,778.4615478515625,777.6557006835938
1162,789.3406372070312,800.6226806640625,781.6849975585938,782.893798828125
1163,792.5640869140625,795.3846435546875,788.5347900390625,798.6080322265625
1164,797.3992919921875,791.7582397460938,791.7582397460938,805.4578857421875
1165,803.4432373046875,785.3113403320312,793.7728881835938,798.6080322265625
1166,806.2637329101562,775.6410522460938,794.1758422851562,805.054931640625
1167,811.5018310546875,771.2088012695312,792.1611938476562,815.93408203125
1168,815.5311279296875,770.8058471679688,790.1465454101562,816.7399291992188
1169,816.3369750976562,767.1795043945312,788.5347900390625,820.7692260742188
1170,821.1721801757812,762.3442993164062,784.1025390625,823.5897216796875
1171,819.1575317382812,760.3296508789062,775.6410522460938,816.7399291992188
1172,818.3516235351562,760.3296508789062,774.4322509765625,813.5164794921875
1173,823.5897216796875,763.5531005859375,778.05859375,816.3369750976562
1174,836.08056640625,763.9560546875,780.0732421875,826.8131713867188
1175,837.6923217773438,766.3735961914062,785.7142944335938,833.2600708007812
1176,829.6337280273438,765.1648559570312,786.5201416015625,829.2307739257812
1177,832.8571166992188,761.5384521484375,782.087890625,826.4102783203125
1178,834.8717651367188,763.9560546875,774.8351440429688,820.3662719726562
1179,833.6630249023438,764.3589477539062,771.6116943359375,823.1868286132812
1180,833.2600708007812,762.3442993164062,774.4322509765625,822.7838745117188
1181,828.4249267578125,758.3150024414062,778.4615478515625,823.5897216796875
1182,819.5604248046875,756.3003540039062,787.3259887695312,830.4395751953125
1183,815.93408203125,758.3150024414062,793.7728881835938,830.4395751953125
1184,826.00732421875,760.3296508789062,794.5787353515625,834.06591796875
1185,834.8717651367188,759.9267578125,794.981689453125,841.3186645507812
1186,839.3040161132812,757.106201171875,794.5787353515625,851.7948608398438
1187,844.945068359375,757.5091552734375,798.2051391601562,852.6007080078125
1188,840.5128173828125,753.4798583984375,798.6080322265625,847.3626098632812
1189,835.6776733398438,747.4359130859375,793.7728881835938,847.3626098632812
1190,839.3040161132812,753.4798583984375,792.1611938476562,847.3626098632812
1191,841.7216186523438,759.9267578125,792.1611938476562,844.1392211914062
1192,839.3040161132812,760.7326049804688,793.3699340820312,838.4981689453125
1193,838.901123046875,764.3589477539062,792.5640869140625,832.8571166992188
1194,838.901123046875,768.3883056640625,794.1758422851562,835.2747192382812
1195,840.5128173828125,769.1941528320312,793.7728881835938,836.08056640625
1196,843.3333129882812,766.7765502929688,792.1611938476562,831.2454223632812
1197,839.3040161132812,765.970703125,792.5640869140625,827.6190185546875
1198,835.2747192382812,764.7619018554688,792.1611938476562,826.00732421875
1199,836.08056640625,765.1648559570312,794.1758422851562,826.4102783203125
1200,835.6776733398438,764.3589477539062,796.1904907226562,825.6043701171875
1201,840.10986328125,766.3735961914062,795.3846435546875,824.7985229492188
1202,835.6776733398438,765.5677490234375,794.981689453125,820.7692260742188
1203,829.2307739257812,765.5677490234375,796.996337890625,815.93408203125
1204,831.6483764648438,773.2234497070312,796.1904907226562,815.5311279296875
1205,835.2747192382812,769.1941528320312,794.5787353515625,823.5897216796875
1206,831.6483764648438,767.9853515625,796.996337890625,834.4688720703125
1207,830.03662109375,767.5823974609375,802.2344360351562,833.2600708007812
1208,830.8424682617188,768.7911987304688,802.2344360351562,829.2307739257812
1209,831.6483764648438,770.8058471679688,800.6226806640625,836.886474609375
1210,834.4688720703125,772.8204956054688,802.2344360351562,839.7069702148438
1211,836.08056640625,773.2234497070312,803.040283203125,838.09521484375
1212,832.05126953125,767.9853515625,802.6373901367188,838.901123046875
1213,825.2014770507812,767.9853515625,800.2197875976562,832.8571166992188
1214,826.4102783203125,768.3883056640625,799.8168334960938,830.8424682617188
1215,824.7985229492188,767.1795043945312,803.8461303710938,832.8571166992188
1216,822.3809814453125,771.2088012695312,807.87548828125,829.6337280273438
1217,823.1868286132812,773.2234497070312,805.8607788085938,830.03662109375
1218,820.3662719726562,767.9853515625,801.8314819335938,824.3956298828125
1219,819.96337890625,774.8351440429688,801.025634765625,822.7838745117188
1220,825.6043701171875,780.4761962890625,805.054931640625,830.8424682617188
1221,824.7985229492188,777.2527465820312,806.2637329101562,828.4249267578125
1222,818.7545776367188,773.2234497070312,801.8314819335938,821.97802734375
1223,813.5164794921875,771.6116943359375,801.025634765625,817.1428833007812
1224,807.87548828125,773.6264038085938,796.996337890625,811.098876953125
1225,804.2490844726562,774.4322509765625,792.5640869140625,804.2490844726562
1226,803.8461303710938,776.4468994140625,795.3846435546875,804.6520385742188
1227,805.8607788085938,778.4615478515625,795.3846435546875,802.6373901367188
1228,810.2930297851562,782.087890625,793.3699340820312,795.7875366210938
1229,815.5311279296875,778.05859375,795.7875366210938,794.981689453125
1230,817.5457763671875,778.4615478515625,797.8021850585938,800.6226806640625
1231,814.3223266601562,784.1025390625,799.010986328125,805.4578857421875
1232,809.89013671875,779.6703491210938,801.4285888671875,811.90478515625
1233,795.3846435546875,775.2380981445312,800.6226806640625,803.8461303710938
1234,789.7435913085938,776.8497924804688,796.5933837890625,792.967041015625
1235,796.5933837890625,779.2673950195312,799.8168334960938,797.3992919921875
1236,797.3992919921875,780.0732421875,801.8314819335938,799.010986328125
1237,799.8168334960938,781.2820434570312,801.4285888671875,800.2197875976562
1238,803.4432373046875,784.1025390625,804.2490844726562,798.2051391601562
1239,800.2197875976562,783.6996459960938,804.2490844726562,796.5933837890625
1240,801.025634765625,785.7142944335938,802.2344360351562,799.010986328125
1241,801.4285888671875,791.7582397460938,803.8461303710938,799.010986328125
1242,800.6226806640625,789.7435913085938,804.2490844726562,796.1904907226562
1243,801.025634765625,786.5201416015625,799.010986328125,789.3406372070312
1244,790.5494384765625,788.5347900390625,799.010986328125,786.5201416015625
1245,786.1171875,786.5201416015625,792.967041015625,783.2966918945312
1246,794.5787353515625,782.4908447265625,789.7435913085938,782.893798828125
1247,795.3846435546875,779.6703491210938,794.1758422851562,787.3259887695312
1248,789.7435913085938,783.6996459960938,792.967041015625,784.908447265625
1249,785.7142944335938,786.5201416015625,794.981689453125,781.6849975585938
1250,785.3113403320312,787.3259887695312,795.7875366210938,788.1318969726562
1251,783.6996459960938,785.3113403320312,792.967041015625,794.1758422851562
1252,787.7289428710938,783.2966918945312,793.3699340820312,790.1465454101562
1253,786.1171875,786.1171875,794.1758422851562,782.893798828125
1254,786.5201416015625,785.3113403320312,794.5787353515625,787.7289428710938
1255,787.7289428710938,782.087890625,790.1465454101562,788.1318969726562
1256,785.7142944335938,786.5201416015625,790.952392578125,786.1171875
1257,786.1171875,791.7582397460938,798.6080322265625,792.967041015625
1258,790.5494384765625,791.7582397460938,797.8021850585938,801.025634765625
1259,790.1465454101562,789.7435913085938,796.996337890625,803.8461303710938
1260,782.893798828125,791.3552856445312,797.8021850585938,792.1611938476562
1261,785.7142944335938,788.937744140625,794.5787353515625,790.5494384765625
1262,794.981689453125,786.1171875,793.3699340820312,795.7875366210938
1263,794.981689453125,785.7142944335938,792.5640869140625,792.967041015625
1264,787.7289428710938,784.1025390625,793.7728881835938,788.937744140625
1265,788.5347900390625,784.908447265625,794.5787353515625,788.1318969726562
1266,794.1758422851562,785.3113403320312,790.952392578125,788.937744140625
1267,796.5933837890625,791.7582397460938,794.1758422851562,792.967041015625
1268,791.3552856445312,794.981689453125,796.1904907226562,790.952392578125
1269,783.6996459960938,788.5347900390625,794.5787353515625,780.879150390625
1270,791.7582397460938,787.7289428710938,800.6226806640625,788.5347900390625
1271,794.5787353515625,784.908447265625,803.8461303710938,795.7875366210938
1272,794.1758422851562,786.5201416015625,798.2051391601562,791.3552856445312
1273,792.967041015625,786.5201416015625,797.8021850585938,789.7435913085938
1274,783.6996459960938,782.4908447265625,801.4285888671875,788.1318969726562
1275,778.05859375,784.908447265625,797.3992919921875,786.5201416015625
1276,774.4322509765625,782.893798828125,795.7875366210938,782.4908447265625
1277,778.4615478515625,780.0732421875,797.3992919921875,783.6996459960938
1278,785.7142944335938,784.1025390625,799.4139404296875,789.7435913085938
1279,785.3113403320312,781.6849975585938,799.010986328125,794.981689453125
1280,782.4908447265625,780.4761962890625,796.1904907226562,796.1904907226562
1281,781.6849975585938,785.7142944335938,791.7582397460938,789.3406372070312
1282,788.5347900390625,786.923095703125,795.3846435546875,798.6080322265625
1283,801.8314819335938,782.893798828125,805.054931640625,813.5164794921875
1284,802.6373901367188,784.908447265625,800.6226806640625,799.4139404296875
1285,790.1465454101562,793.3699340820312,803.4432373046875,784.908447265625
1286,794.5787353515625,794.5787353515625,801.4285888671875,793.3699340820312
1287,799.4139404296875,794.1758422851562,794.981689453125,796.5933837890625
1288,792.967041015625,794.1758422851562,799.010986328125,788.937744140625
1289,798.2051391601562,794.1758422851562,799.4139404296875,794.5787353515625
1290,798.6080322265625,798.2051391601562,798.2051391601562,799.010986328125
1291,790.5494384765625,794.981689453125,796.5933837890625,786.1171875
1292,793.7728881835938,795.3846435546875,801.025634765625,788.1318969726562
1293,804.6520385742188,796.1904907226562,801.8314819335938,802.6373901367188
1294,803.040283203125,799.4139404296875,797.8021850585938,806.2637329101562
1295,792.967041015625,800.6226806640625,798.2051391601562,799.8168334960938
1296,793.7728881835938,794.981689453125,793.7728881835938,793.7728881835938
1297,799.4139404296875,794.1758422851562,794.1758422851562,794.981689453125
1298,805.054931640625,793.7728881835938,797.8021850585938,798.6080322265625
1299,810.6959838867188,795.3846435546875,795.7875366210938,801.8314819335938
1300,810.2930297851562,792.1611938476562,793.7728881835938,800.6226806640625
1301,804.2490844726562,790.952392578125,795.3846435546875,795.7875366210938
1302,804.6520385742188,791.3552856445312,794.1758422851562,796.1904907226562
1303,812.3076782226562,787.7289428710938,794.981689453125,804.6520385742188
1304,810.2930297851562,790.1465454101562,794.1758422851562,803.040283203125
1305,803.4432373046875,791.3552856445312,788.5347900390625,803.4432373046875
1306,806.2637329101562,792.967041015625,787.3259887695312,802.6373901367188
1307,803.8461303710938,796.5933837890625,787.7289428710938,797.8021850585938
1308,799.8168334960938,794.5787353515625,786.923095703125,796.5933837890625
1309,799.010986328125,790.5494384765625,786.1171875,793.3699340820312
1310,794.1758422851562,784.1025390625,785.7142944335938,784.908447265625
1311,789.3406372070312,784.5054931640625,787.7289428710938,781.6849975585938
1312,796.5933837890625,790.952392578125,792.5640869140625,788.937744140625
1313,801.025634765625,785.3113403320312,795.3846435546875,790.1465454101562
1314,795.7875366210938,784.1025390625,790.952392578125,784.5054931640625
1315,798.2051391601562,789.3406372070312,788.1318969726562,786.1171875
1316,791.7582397460938,786.1171875,788.5347900390625,787.7289428710938
1317,785.7142944335938,783.2966918945312,789.7435913085938,793.7728881835938
1318,792.5640869140625,783.6996459960938,794.1758422851562,790.1465454101562
1319,796.1904907226562,784.908447265625,794.5787353515625,788.937744140625
1320,797.3992919921875,786.923095703125,792.1611938476562,790.952392578125
1321,794.981689453125,787.3259887695312,794.1758422851562,784.908447265625
1322,792.5640869140625,787.3259887695312,792.5640869140625,783.2966918945312
1323,799.8168334960938,788.5347900390625,792.967041015625,792.967041015625
1324,803.4432373046875,789.3406372070312,794.981689453125,800.2197875976562
1325,798.6080322265625,787.3259887695312,798.2051391601562,797.8021850585938
1326,796.996337890625,787.3259887695312,799.4139404296875,789.7435913085938
1327,796.996337890625,787.3259887695312,794.1758422851562,787.3259887695312
1328,796.5933837890625,788.5347900390625,793.7728881835938,799.010986328125
1329,793.7728881835938,787.7289428710938,796.1904907226562,796.5933837890625
1330,790.5494384765625,786.5201416015625,797.3992919921875,782.4908447265625
1331,792.967041015625,789.3406372070312,797.8021850585938,782.893798828125
1332,791.7582397460938,790.1465454101562,798.6080322265625,780.4761962890625
1333,788.1318969726562,789.3406372070312,795.7875366210938,778.05859375
1334,794.1758422851562,790.5494384765625,794.981689453125,782.087890625
1335,792.5640869140625,791.7582397460938,794.5787353515625,780.0732421875
1336,788.1318969726562,793.3699340820312,792.1611938476562,784.908447265625
1337,786.1171875,795.3846435546875,789.3406372070312,785.7142944335938
1338,784.5054931640625,794.1758422851562,790.1465454101562,782.893798828125
1339,792.967041015625,794.981689453125,794.1758422851562,796.5933837890625
1340,793.3699340820312,798.6080322265625,794.981689453125,801.8314819335938
1341,788.5347900390625,796.1904907226562,795.7875366210938,795.7875366210938
1342,786.923095703125,792.1611938476562,794.5787353515625,790.1465454101562
1343,793.3699340820312,793.7728881835938,794.981689453125,790.5494384765625
1344,796.996337890625,792.967041015625,795.7875366210938,794.1758422851562
1345,798.2051391601562,790.5494384765625,789.7435913085938,797.8021850585938
1346,801.4285888671875,794.5787353515625,791.7582397460938,796.996337890625
1347,802.6373901367188,796.5933837890625,799.4139404296875,796.996337890625
1348,799.010986328125,790.5494384765625,799.010986328125,800.2197875976562
1349,802.2344360351562,791.3552856445312,797.8021850585938,801.4285888671875
1350,807.87548828125,791.7582397460938,798.2051391601562,802.2344360351562
1351,805.4578857421875,792.967041015625,796.1904907226562,800.6226806640625
1352,801.4285888671875,796.1904907226562,795.7875366210938,794.5787353515625
1353,801.025634765625,789.7435913085938,793.3699340820312,790.1465454101562
1354,801.8314819335938,790.952392578125,790.1465454101562,790.952392578125
1355,798.6080322265625,791.7582397460938,794.5787353515625,792.1611938476562
1356,795.7875366210938,790.952392578125,796.1904907226562,790.1465454101562
1357,788.5347900390625,790.1465454101562,795.7875366210938,783.2966918945312
1358,783.2966918945312,787.7289428710938,795.3846435546875,787.3259887695312
1359,786.5201416015625,783.2966918945312,795.3846435546875,789.7435913085938
1360,785.7142944335938,784.1025390625,796.996337890625,787.3259887695312
1361,780.0732421875,791.7582397460938,803.4432373046875,790.1465454101562
1362,782.087890625,793.7728881835938,803.8461303710938,784.908447265625
1363,785.3113403320312,794.1758422851562,797.8021850585938,780.879150390625
1364,793.7728881835938,794.981689453125,796.1904907226562,784.1025390625
1365,798.6080322265625,790.952392578125,798.2051391601562,784.1025390625
1366,790.952392578125,790.952392578125,791.7582397460938,782.4908447265625
1367,788.5347900390625,795.7875366210938,790.5494384765625,789.7435913085938
1368,789.3406372070312,793.7728881835938,794.5787353515625,784.5054931640625
1369,795.7875366210938,792.1611938476562,798.2051391601562,780.879150390625
1370,796.5933837890625,794.5787353515625,797.8021850585938,783.6996459960938
1371,793.7728881835938,794.981689453125,796.5933837890625,779.2673950195312
1372,794.1758422851562,796.1904907226562,798.6080322265625,777.2527465820312
1373,792.967041015625,797.3992919921875,792.5640869140625,772.4176025390625
1374,795.3846435546875,797.8021850585938,791.3552856445312,772.0146484375
1375,799.8168334960938,796.5933837890625,793.3699340820312,775.2380981445312
1376,801.025634765625,795.3846435546875,791.3552856445312,779.2673950195312
1377,797.8021850585938,793.7728881835938,789.7435913085938,777.2527465820312
1378,795.3846435546875,794.1758422851562,787.7289428710938,774.4322509765625
1379,788.937744140625,792.1611938476562,787.3259887695312,776.4468994140625
1380,785.7142944335938,792.1611938476562,785.7142944335938,778.4615478515625
1381,784.5054931640625,791.3552856445312,782.087890625,782.087890625
1382,780.0732421875,789.3406372070312,788.1318969726562,783.2966918945312
1383,782.893798828125,791.7582397460938,791.7582397460938,782.087890625
1384,784.908447265625,796.5933837890625,786.923095703125,782.087890625
1385,782.4908447265625,795.7875366210938,785.3113403320312,783.6996459960938
1386,783.2966918945312,794.1758422851562,786.1171875,785.7142944335938
1387,772.8204956054688,792.5640869140625,781.6849975585938,776.0439453125
1388,766.3735961914062,790.952392578125,777.6557006835938,766.7765502929688
1389,774.8351440429688,788.937744140625,779.6703491210938,776.4468994140625
1390,782.087890625,788.1318969726562,785.7142944335938,788.1318969726562
1391,785.7142944335938,787.7289428710938,787.3259887695312,785.3113403320312
1392,788.1318969726562,791.3552856445312,786.5201416015625,780.879150390625
1393,788.5347900390625,792.5640869140625,784.5054931640625,776.8497924804688
1394,792.967041015625,791.3552856445312,782.893798828125,778.05859375
1395,798.6080322265625,791.3552856445312,783.2966918945312,779.2673950195312
1396,797.8021850585938,788.937744140625,784.5054931640625,780.879150390625
1397,788.5347900390625,789.3406372070312,784.908447265625,779.2673950195312
1398,787.3259887695312,793.3699340820312,786.5201416015625,782.087890625
1399,792.1611938476562,791.3552856445312,786.5201416015625,788.937744140625
1400,791.3552856445312,786.1171875,787.3259887695312,792.967041015625
1401,789.3406372070312,784.5054931640625,788.937744140625,794.1758422851562
1402,787.3259887695312,786.1171875,788.937744140625,789.3406372070312
1403,786.923095703125,789.7435913085938,790.5494384765625,781.2820434570312
1404,785.3113403320312,788.5347900390625,790.952392578125,783.6996459960938
1405,784.908447265625,791.3552856445312,794.1758422851562,791.3552856445312
1406,786.1171875,789.7435913085938,794.1758422851562,791.3552856445312
1407,789.7435913085938,784.908447265625,790.5494384765625,786.1171875
1408,795.3846435546875,788.1318969726562,793.7728881835938,790.5494384765625
1409,791.7582397460938,783.6996459960938,791.7582397460938,793.7728881835938
1410,794.981689453125,782.4908447265625,788.1318969726562,793.7728881835938
1411,790.1465454101562,782.4908447265625,790.5494384765625,792.967041015625
1412,787.3259887695312,780.879150390625,793.3699340820312,791.3552856445312
1413,790.1465454101562,785.7142944335938,788.1318969726562,793.7728881835938
1414,786.1171875,786.1171875,785.7142944335938,789.3406372070312
1415,790.1465454101562,786.5201416015625,788.937744140625,785.7142944335938
1416,794.981689453125,784.908447265625,786.5201416015625,789.7435913085938
1417,793.7728881835938,781.2820434570312,784.5054931640625,789.3406372070312
1418,787.7289428710938,785.3113403320312,785.3113403320312,788.1318969726562
1419,787.3259887695312,782.893798828125,785.7142944335938,789.7435913085938
1420,794.1758422851562,785.3113403320312,786.923095703125,790.952392578125
1421,803.4432373046875,789.7435913085938,791.7582397460938,790.952392578125
1422,811.098876953125,792.5640869140625,793.3699340820312,790.952392578125
1423,807.069580078125,795.7875366210938,793.3699340820312,788.1318969726562
1424,799.8168334960938,796.1904907226562,789.3406372070312,792.1611938476562
1425,788.1318969726562,792.5640869140625,782.087890625,792.5640869140625
1426,783.2966918945312,786.5201416015625,781.6849975585938,788.1318969726562
1427,792.967041015625,790.5494384765625,788.1318969726562,790.1465454101562
1428,792.5640869140625,790.1465454101562,794.1758422851562,790.5494384765625
1429,788.5347900390625,786.5201416015625,790.5494384765625,787.7289428710938
1430,788.937744140625,790.1465454101562,786.923095703125,781.6849975585938
1431,793.3699340820312,794.5787353515625,793.3699340820312,784.1025390625
1432,796.5933837890625,793.3699340820312,796.996337890625,784.1025390625
1433,799.4139404296875,793.3699340820312,794.981689453125,786.5201416015625
1434,800.2197875976562,793.7728881835938,796.1904907226562,791.7582397460938
1435,804.6520385742188,793.7728881835938,796.1904907226562,794.1758422851562
1436,805.4578857421875,795.7875366210938,800.6226806640625,802.6373901367188
1437,801.8314819335938,796.5933837890625,802.2344360351562,801.4285888671875
1438,804.6520385742188,794.981689453125,799.8168334960938,797.8021850585938
1439,801.025634765625,792.1611938476562,796.996337890625,799.010986328125
1440,797.3992919921875,788.937744140625,795.7875366210938,799.8168334960938
1441,796.5933837890625,787.7289428710938,800.6226806640625,795.3846435546875
1442,799.4139404296875,793.7728881835938,801.8314819335938,795.3846435546875
1443,797.8021850585938,794.1758422851562,803.4432373046875,792.5640869140625
1444,794.981689453125,792.967041015625,799.010986328125,789.7435913085938
1445,797.3992919921875,791.7582397460938,798.2051391601562,793.7728881835938
1446,795.7875366210938,790.952392578125,805.4578857421875,794.1758422851562
1447,797.3992919921875,789.7435913085938,803.040283203125,792.5640869140625
1448,794.981689453125,790.952392578125,800.2197875976562,790.952392578125
1449,785.3113403320312,790.5494384765625,800.6226806640625,791.7582397460938
1450,784.908447265625,786.923095703125,798.6080322265625,793.7728881835938
1451,783.6996459960938,786.5201416015625,801.4285888671875,799.010986328125
1452,782.087890625,787.3259887695312,797.8021850585938,794.1758422851562
1453,784.1025390625,786.923095703125,794.5787353515625,783.2966918945312
1454,780.4761962890625,787.3259887695312,796.5933837890625,782.4908447265625
1455,781.2820434570312,790.1465454101562,793.3699340820312,781.6849975585938
1456,786.923095703125,785.3113403320312,792.967041015625,783.6996459960938
1457,786.923095703125,784.908447265625,793.7728881835938,786.1171875
1458,787.3259887695312,790.5494384765625,793.3699340820312,783.6996459960938
1459,793.3699340820312,793.3699340820312,792.5640869140625,781.6849975585938
1460,792.1611938476562,796.1904907226562,789.7435913085938,784.5054931640625
1461,787.3259887695312,794.1758422851562,784.1025390625,780.0732421875
1462,794.5787353515625,790.1465454101562,784.908447265625,781.6849975585938
1463,795.7875366210938,786.5201416015625,790.1465454101562,790.5494384765625
1464,795.3846435546875,790.1465454101562,791.7582397460938,785.7142944335938
1465,792.5640869140625,791.3552856445312,785.7142944335938,776.4468994140625
1466,795.3846435546875,790.952392578125,784.5054931640625,784.908447265625
1467,802.6373901367188,791.3552856445312,784.5054931640625,789.3406372070312
1468,802.2344360351562,785.3113403320312,783.2966918945312,783.6996459960938
1469,797.8021850585938,789.3406372070312,785.7142944335938,782.087890625
1470,799.4139404296875,794.981689453125,786.1171875,780.0732421875
1471,796.1904907226562,791.3552856445312,790.1465454101562,776.8497924804688
1472,790.952392578125,790.952392578125,789.7435913085938,776.0439453125
1473,786.1171875,789.7435913085938,790.952392578125,780.0732421875
1474,784.1025390625,788.5347900390625,794.981689453125,782.4908447265625
1475,790.1465454101562,791.7582397460938,795.7875366210938,786.923095703125
1476,789.7435913085938,786.923095703125,793.3699340820312,788.5347900390625
1477,787.3259887695312,787.7289428710938,794.981689453125,788.5347900390625
1478,788.1318969726562,788.1318969726562,801.8314819335938,788.937744140625
1479,787.7289428710938,784.5054931640625,801.025634765625,783.6996459960938
1480,789.7435913085938,784.1025390625,798.2051391601562,785.3113403320312
1481,792.1611938476562,784.908447265625,800.6226806640625,794.1758422851562
1482,796.5933837890625,788.5347900390625,800.2197875976562,797.3992919921875
1483,797.8021850585938,789.3406372070312,798.2051391601562,797.8021850585938
1484,786.923095703125,782.893798828125,792.5640869140625,792.1611938476562
1485,784.1025390625,778.8644409179688,788.1318969726562,791.3552856445312
1486,785.7142944335938,782.087890625,791.7582397460938,799.8168334960938
1487,788.5347900390625,785.3113403320312,792.5640869140625,801.8314819335938
1488,792.967041015625,787.7289428710938,789.7435913085938,800.2197875976562
1489,786.1171875,783.6996459960938,788.937744140625,795.3846435546875
1490,784.1025390625,780.879150390625,791.7582397460938,796.996337890625
1491,786.1171875,784.1025390625,791.3552856445312,792.967041015625
1492,787.7289428710938,785.7142944335938,788.1318969726562,789.3406372070312
1493,791.7582397460938,784.5054931640625,792.5640869140625,793.7728881835938
1494,789.3406372070312,786.1171875,795.3846435546875,787.7289428710938
1495,792.967041015625,788.1318969726562,794.1758422851562,788.937744140625
1496,798.6080322265625,785.3113403320312,794.1758422851562,794.5787353515625
1497,793.7728881835938,785.3113403320312,791.7582397460938,794.981689453125
1498,793.7728881835938,787.7289428710938,788.5347900390625,793.3699340820312
1499,794.1758422851562,787.7289428710938,791.3552856445312,789.3406372070312
1500,790.1465454101562,787.3259887695312,793.7728881835938,785.7142944335938
1501,787.7289428710938,787.7289428710938,796.1904907226562,780.0732421875
1502,792.1611938476562,787.3259887695312,796.1904907226562,780.879150390625
1503,799.010986328125,787.3259887695312,792.967041015625,785.3113403320312
1504,801.025634765625,788.937744140625,791.3552856445312,791.3552856445312
1505,796.996337890625,789.7435913085938,793.7728881835938,787.3259887695312
1506,792.1611938476562,787.3259887695312,794.5787353515625,784.908447265625
1507,794.1758422851562,785.3113403320312,794.1758422851562,788.1318969726562
1508,792.967041015625,782.087890625,793.3699340820312,788.5347900390625
1509,789.7435913085938,784.908447265625,796.996337890625,800.6226806640625
1510,793.3699340820312,789.7435913085938,800.6226806640625,799.010986328125
1511,795.3846435546875,790.952392578125,798.2051391601562,796.5933837890625
1512,797.8021850585938,796.996337890625,797.8021850585938,802.2344360351562
1513,796.5933837890625,796.1904907226562,794.981689453125,795.7875366210938
1514,796.5933837890625,791.3552856445312,795.7875366210938,794.1758422851562
1515,795.7875366210938,788.937744140625,801.025634765625,789.7435913085938
1516,790.952392578125,782.4908447265625,800.6226806640625,782.087890625
1517,794.1758422851562,786.1171875,795.7875366210938,786.923095703125
1518,798.2051391601562,791.7582397460938,797.3992919921875,790.5494384765625
1519,793.3699340820312,789.7435913085938,794.5787353515625,784.1025390625
1520,796.996337890625,792.1611938476562,790.952392578125,784.1025390625
1521,801.025634765625,798.2051391601562,793.7728881835938,787.3259887695312
1522,798.2051391601562,796.5933837890625,792.5640869140625,782.087890625
1523,791.3552856445312,788.937744140625,788.937744140625,775.6410522460938
1524,788.937744140625,786.923095703125,792.1611938476562,782.893798828125
1525,785.7142944335938,786.1171875,796.1904907226562,784.1025390625
1526,784.5054931640625,787.3259887695312,792.5640869140625,781.2820434570312
1527,784.1025390625,789.7435913085938,792.5640869140625,780.879150390625
1528,784.1025390625,786.5201416015625,789.7435913085938,780.879150390625
1529,781.6849975585938,782.893798828125,790.5494384765625,783.2966918945312
1530,778.05859375,782.4908447265625,792.1611938476562,781.2820434570312
1531,778.4615478515625,784.1025390625,792.1611938476562,779.6703491210938
1532,781.2820434570312,785.7142944335938,796.5933837890625,781.6849975585938
1533,782.893798828125,786.5201416015625,794.981689453125,783.2966918945312
1534,788.5347900390625,789.7435913085938,799.010986328125,782.893798828125
1535,787.7289428710938,789.7435913085938,802.6373901367188,786.1171875
1536,779.2673950195312,787.3259887695312,803.8461303710938,792.1611938476562
1537,778.4615478515625,788.937744140625,804.2490844726562,791.7582397460938
1538,781.2820434570312,787.7289428710938,803.040283203125,792.1611938476562
1539,782.893798828125,786.5201416015625,802.2344360351562,790.5494384765625
1540,786.5201416015625,786.923095703125,802.6373901367188,786.5201416015625
1541,788.5347900390625,790.1465454101562,799.4139404296875,786.5201416015625
1542,787.7289428710938,795.3846435546875,794.981689453125,785.7142944335938
1543,791.3552856445312,798.6080322265625,792.1611938476562,785.3113403320312
1544,792.1611938476562,797.8021850585938,792.5640869140625,783.6996459960938
1545,790.1465454101562,794.981689453125,794.1758422851562,784.5054931640625
1546,784.908447265625,793.3699340820312,792.5640869140625,784.5054931640625
1547,783.6996459960938,792.5640869140625,791.7582397460938,790.1465454101562
1548,789.7435913085938,794.5787353515625,794.5787353515625,790.1465454101562
1549,790.1465454101562,790.952392578125,799.010986328125,784.5054931640625
1550,788.5347900390625,789.7435913085938,803.040283203125,788.5347900390625
1551,787.3259887695312,791.3552856445312,802.6373901367188,791.7582397460938
1552,786.5201416015625,788.1318969726562,796.5933837890625,788.5347900390625
1553,789.7435913085938,792.1611938476562,794.981689453125,789.7435913085938
1554,792.967041015625,789.7435913085938,795.3846435546875,792.967041015625
1555,792.967041015625,790.5494384765625,793.3699340820312,792.5640869140625
1556,791.7582397460938,798.2051391601562,789.3406372070312,791.3552856445312
1557,790.952392578125,799.010986328125,788.937744140625,788.1318969726562
1558,793.7728881835938,792.967041015625,789.7435913085938,795.3846435546875
1559,796.1904907226562,789.7435913085938,791.7582397460938,799.010986328125
1560,793.3699340820312,789.7435913085938,787.3259887695312,788.5347900390625
1561,790.952392578125,784.1025390625,781.6849975585938,782.893798828125
1562,790.5494384765625,784.5054931640625,782.893798828125,785.3113403320312
1563,788.1318969726562,785.3113403320312,782.087890625,783.2966918945312
1564,788.5347900390625,788.1318969726562,784.1025390625,780.0732421875
1565,789.7435913085938,789.3406372070312,784.908447265625,781.2820434570312
1566,788.937744140625,785.3113403320312,782.893798828125,783.6996459960938
1567,786.5201416015625,786.1171875,782.4908447265625,778.4615478515625
1568,788.1318969726562,788.1318969726562,782.893798828125,781.2820434570312
1569,790.5494384765625,786.1171875,782.087890625,785.7142944335938
1570,794.5787353515625,788.5347900390625,786.5201416015625,793.7728881835938
1571,792.967041015625,790.5494384765625,790.5494384765625,792.1611938476562
1572,792.5640869140625,789.3406372070312,790.1465454101562,782.4908447265625
1573,798.2051391601562,788.5347900390625,791.3552856445312,786.5201416015625
1574,803.040283203125,788.5347900390625,790.1465454101562,792.967041015625
1575,803.040283203125,786.1171875,787.3259887695312,797.3992919921875
1576,795.3846435546875,780.879150390625,786.923095703125,795.7875366210938
1577,791.3552856445312,783.6996459960938,788.1318969726562,799.010986328125
1578,788.937744140625,786.1171875,786.5201416015625,803.4432373046875
1579,790.5494384765625,786.1171875,786.923095703125,802.6373901367188
1580,793.3699340820312,788.5347900390625,788.5347900390625,794.981689453125
1581,792.967041015625,789.7435913085938,788.937744140625,796.5933837890625
1582,788.937744140625,789.3406372070312,788.1318969726562,798.6080322265625
1583,787.3259887695312,784.5054931640625,787.7289428710938,789.7435913085938
1584,792.1611938476562,783.2966918945312,787.7289428710938,789.3406372070312
1585,794.5787353515625,784.1025390625,792.5640869140625,792.1611938476562
1586,793.3699340820312,785.3113403320312,789.3406372070312,788.937744140625
1587,793.7728881835938,790.5494384765625,782.893798828125,779.6703491210938
1588,794.5787353515625,791.3552856445312,787.3259887695312,778.4615478515625
1589,794.5787353515625,788.1318969726562,790.5494384765625,785.3113403320312
1590,793.3699340820312,788.1318969726562,791.7582397460938,785.3113403320312
1591,787.7289428710938,791.3552856445312,787.7289428710938,779.6703491210938
