timestamp,RAW_TP9,RAW_AF7,RAW_AF8,RAW_TP10
1,795.3846435546875,786.5201416015625,798.6080322265625,801.025634765625
2,789.7435913085938,788.1318969726562,797.3992919921875,796.5933837890625
3,787.7289428710938,792.5640869140625,795.3846435546875,801.8314819335938
4,788.1318969726562,788.1318969726562,794.5787353515625,799.4139404296875
5,795.3846435546875,787.7289428710938,794.1758422851562,800.2197875976562
6,799.010986328125,790.952392578125,793.3699340820312,801.025634765625
7,795.7875366210938,792.967041015625,802.2344360351562,800.2197875976562
8,793.3699340820312,795.3846435546875,805.054931640625,796.996337890625
9,798.6080322265625,796.5933837890625,805.8607788085938,798.6080322265625
10,804.6520385742188,799.8168334960938,806.6666870117188,809.084228515625
11,803.040283203125,797.3992919921875,804.6520385742188,804.2490844726562
12,801.4285888671875,793.7728881835938,808.6813354492188,796.996337890625
13,808.2783813476562,791.7582397460938,809.4871826171875,802.2344360351562
14,805.4578857421875,790.952392578125,803.4432373046875,800.6226806640625
15,797.8021850585938,793.3699340820312,797.3992919921875,797.3992919921875
16,792.5640869140625,792.967041015625,795.3846435546875,794.981689453125
17,794.981689453125,789.7435913085938,800.6226806640625,791.3552856445312
18,801.4285888671875,789.7435913085938,799.4139404296875,800.6226806640625
19,795.7875366210938,790.952392578125,794.5787353515625,804.6520385742188
20,795.3846435546875,790.5494384765625,798.6080322265625,795.7875366210938
21,799.8168334960938,791.7582397460938,797.8021850585938,799.4139404296875
22,794.1758422851562,794.5787353515625,793.7728881835938,799.8168334960938
23,793.3699340820312,793.7728881835938,796.996337890625,799.8168334960938
24,794.1758422851562,790.5494384765625,798.2051391601562,799.8168334960938
25,801.8314819335938,788.1318969726562,796.996337890625,801.4285888671875
26,805.4578857421875,788.937744140625,799.8168334960938,811.5018310546875
27,797.8021850585938,792.5640869140625,802.6373901367188,810.6959838867188
28,796.996337890625,796.1904907226562,802.6373901367188,804.2490844726562
29,795.3846435546875,793.3699340820312,799.8168334960938,801.025634765625
30,794.981689453125,791.7582397460938,799.010986328125,805.4578857421875
31,789.7435913085938,790.5494384765625,799.010986328125,801.8314819335938
32,784.908447265625,790.1465454101562,796.1904907226562,796.996337890625
33,786.5201416015625,793.7728881835938,795.3846435546875,792.1611938476562
34,786.5201416015625,788.937744140625,796.1904907226562,788.1318969726562
35,791.7582397460938,790.5494384765625,798.6080322265625,794.981689453125
36,794.1758422851562,790.1465454101562,798.6080322265625,794.981689453125
37,793.3699340820312,788.937744140625,800.2197875976562,796.996337890625
38,790.952392578125,792.967041015625,799.8168334960938,794.5787353515625
39,797.8021850585938,797.8021850585938,796.996337890625,792.1611938476562
40,800.6226806640625,799.8168334960938,800.2197875976562,797.3992919921875
41,801.025634765625,793.7728881835938,800.2197875976562,803.040283203125
42,798.2051391601562,792.967041015625,796.5933837890625,808.2783813476562
43,791.3552856445312,796.5933837890625,799.8168334960938,799.4139404296875
44,795.3846435546875,801.4285888671875,802.6373901367188,796.996337890625
45,796.5933837890625,797.3992919921875,801.8314819335938,802.2344360351562
46,799.010986328125,794.981689453125,801.8314819335938,804.2490844726562
47,800.6226806640625,793.7728881835938,800.2197875976562,806.6666870117188
48,798.2051391601562,783.6996459960938,800.6226806640625,802.6373901367188
49,797.8021850585938,785.3113403320312,801.025634765625,803.8461303710938
50,798.2051391601562,792.5640869140625,796.996337890625,806.2637329101562
51,796.1904907226562,798.2051391601562,792.1611938476562,799.4139404296875
52,789.7435913085938,800.2197875976562,793.7728881835938,796.1904907226562
53,792.5640869140625,797.3992919921875,794.981689453125,799.8168334960938
54,799.010986328125,799.4139404296875,795.7875366210938,798.6080322265625
55,800.2197875976562,801.025634765625,798.6080322265625,793.3699340820312
56,801.025634765625,795.3846435546875,799.4139404296875,793.7728881835938
57,802.6373901367188,792.1611938476562,800.6226806640625,809.89013671875
58,798.2051391601562,795.3846435546875,804.6520385742188,805.054931640625
59,800.6226806640625,795.7875366210938,801.4285888671875,797.3992919921875
60,806.6666870117188,796.1904907226562,799.4139404296875,803.8461303710938
61,800.6226806640625,796.996337890625,801.8314819335938,797.3992919921875
62,792.967041015625,794.981689453125,799.010986328125,796.5933837890625
63,798.2051391601562,794.1758422851562,796.5933837890625,799.4139404296875
64,799.010986328125,790.952392578125,797.8021850585938,801.8314819335938
65,792.967041015625,791.7582397460938,797.3992919921875,807.4725341796875
66,790.1465454101562,796.1904907226562,794.1758422851562,799.8168334960938
67,786.5201416015625,794.5787353515625,789.7435913085938,792.967041015625
68,788.5347900390625,791.3552856445312,791.3552856445312,799.4139404296875
69,784.1025390625,792.5640869140625,792.1611938476562,799.010986328125
70,789.3406372070312,794.1758422851562,792.1611938476562,788.937744140625
71,798.6080322265625,794.981689453125,795.3846435546875,795.7875366210938
72,797.8021850585938,796.5933837890625,798.6080322265625,803.040283203125
73,795.3846435546875,796.1904907226562,793.7728881835938,795.7875366210938
74,789.3406372070312,788.937744140625,789.7435913085938,784.1025390625
75,794.1758422851562,785.3113403320312,799.010986328125,787.3259887695312
76,801.025634765625,782.4908447265625,799.8168334960938,799.8168334960938
77,796.5933837890625,783.2966918945312,793.3699340820312,798.2051391601562
78,788.1318969726562,786.923095703125,792.967041015625,795.7875366210938
79,788.5347900390625,790.5494384765625,792.967041015625,796.5933837890625
80,792.5640869140625,789.3406372070312,791.7582397460938,798.6080322265625
81,797.3992919921875,788.5347900390625,792.5640869140625,797.8021850585938
82,805.054931640625,790.5494384765625,793.3699340820312,800.6226806640625
83,802.6373901367188,790.5494384765625,793.7728881835938,803.8461303710938
84,801.4285888671875,788.5347900390625,795.7875366210938,801.025634765625
85,804.2490844726562,791.3552856445312,798.6080322265625,795.3846435546875
86,800.6226806640625,795.3846435546875,797.3992919921875,786.5201416015625
87,796.1904907226562,795.3846435546875,792.5640869140625,791.3552856445312
88,796.5933837890625,793.3699340820312,795.3846435546875,802.2344360351562
89,795.7875366210938,793.3699340820312,803.8461303710938,795.7875366210938
90,798.2051391601562,790.1465454101562,803.040283203125,796.1904907226562
91,798.2051391601562,790.1465454101562,797.3992919921875,803.4432373046875
92,797.8021850585938,796.1904907226562,796.5933837890625,804.2490844726562
93,802.6373901367188,795.3846435546875,797.3992919921875,798.2051391601562
94,801.025634765625,794.1758422851562,797.3992919921875,796.996337890625
95,796.1904907226562,790.952392578125,799.4139404296875,805.4578857421875
96,796.996337890625,788.937744140625,801.4285888671875,806.6666870117188
97,796.996337890625,789.3406372070312,801.025634765625,799.4139404296875
98,790.5494384765625,784.908447265625,798.2051391601562,803.4432373046875
99,790.5494384765625,784.908447265625,797.8021850585938,807.87548828125
100,790.5494384765625,787.3259887695312,797.8021850585938,799.4139404296875
101,789.7435913085938,788.937744140625,797.8021850585938,792.967041015625
102,796.1904907226562,791.3552856445312,800.2197875976562,796.1904907226562
103,793.3699340820312,789.7435913085938,798.6080322265625,805.054931640625
104,785.7142944335938,784.908447265625,799.010986328125,795.7875366210938
105,781.6849975585938,781.6849975585938,795.3846435546875,788.937744140625
106,781.6849975585938,784.1025390625,793.7728881835938,788.937744140625
107,789.3406372070312,784.1025390625,796.996337890625,787.7289428710938
108,787.3259887695312,785.3113403320312,793.7728881835938,788.937744140625
109,779.6703491210938,784.5054931640625,789.3406372070312,791.3552856445312
110,779.6703491210938,782.087890625,789.7435913085938,795.3846435546875
111,782.087890625,788.1318969726562,794.1758422851562,792.5640869140625
112,783.6996459960938,790.952392578125,798.6080322265625,787.3259887695312
113,788.5347900390625,786.1171875,796.1904907226562,787.3259887695312
114,797.8021850585938,789.3406372070312,791.7582397460938,799.8168334960938
115,793.3699340820312,794.5787353515625,789.7435913085938,803.040283203125
116,788.5347900390625,789.7435913085938,792.1611938476562,785.3113403320312
117,799.010986328125,783.2966918945312,792.967041015625,786.1171875
118,797.3992919921875,789.3406372070312,790.5494384765625,794.981689453125
119,785.3113403320312,795.3846435546875,793.7728881835938,795.3846435546875
120,782.893798828125,791.3552856445312,792.967041015625,788.937744140625
121,790.952392578125,794.5787353515625,791.3552856445312,790.1465454101562
122,794.5787353515625,794.1758422851562,792.5640869140625,795.3846435546875
123,793.3699340820312,788.1318969726562,792.1611938476562,788.5347900390625
124,792.5640869140625,785.3113403320312,793.3699340820312,784.5054931640625
125,788.5347900390625,784.908447265625,796.1904907226562,790.952392578125
126,788.1318969726562,784.1025390625,795.7875366210938,790.952392578125
127,793.3699340820312,787.7289428710938,795.3846435546875,790.952392578125
128,796.996337890625,788.937744140625,795.7875366210938,800.2197875976562
129,793.3699340820312,785.3113403320312,795.7875366210938,799.8168334960938
130,788.5347900390625,784.908447265625,798.6080322265625,796.1904907226562
131,790.1465454101562,787.7289428710938,799.010986328125,799.8168334960938
132,794.1758422851562,791.3552856445312,801.025634765625,799.010986328125
133,801.4285888671875,792.1611938476562,801.025634765625,798.2051391601562
134,805.054931640625,790.5494384765625,796.1904907226562,807.4725341796875
135,796.996337890625,788.5347900390625,797.3992919921875,802.2344360351562
136,792.1611938476562,792.967041015625,799.010986328125,793.3699340820312
137,796.996337890625,797.3992919921875,796.5933837890625,794.5787353515625
138,803.4432373046875,798.6080322265625,798.6080322265625,803.040283203125
139,800.6226806640625,797.8021850585938,797.8021850585938,796.5933837890625
140,793.3699340820312,794.1758422851562,797.3992919921875,785.7142944335938
141,792.5640869140625,791.7582397460938,797.3992919921875,780.879150390625
142,792.5640869140625,789.3406372070312,796.5933837890625,777.2527465820312
143,796.5933837890625,786.923095703125,794.5787353515625,780.0732421875
144,799.8168334960938,786.1171875,793.7728881835938,782.4908447265625
145,792.5640869140625,788.1318969726562,796.996337890625,780.879150390625
146,787.7289428710938,789.3406372070312,796.1904907226562,780.0732421875
147,795.7875366210938,792.5640869140625,799.010986328125,789.3406372070312
148,798.6080322265625,783.2966918945312,794.981689453125,790.5494384765625
149,793.3699340820312,780.0732421875,789.7435913085938,788.5347900390625
150,787.3259887695312,788.5347900390625,791.3552856445312,792.1611938476562
151,782.087890625,785.7142944335938,790.1465454101562,790.5494384765625
152,791.7582397460938,788.5347900390625,795.3846435546875,792.5640869140625
153,805.054931640625,786.923095703125,800.6226806640625,805.054931640625
154,803.4432373046875,786.923095703125,800.6226806640625,803.040283203125
155,801.4285888671875,798.6080322265625,799.4139404296875,794.981689453125
156,799.8168334960938,799.8168334960938,799.4139404296875,799.8168334960938
157,791.3552856445312,797.3992919921875,795.7875366210938,799.010986328125
158,793.7728881835938,793.3699340820312,793.7728881835938,792.1611938476562
159,793.7728881835938,788.937744140625,793.3699340820312,790.5494384765625
160,792.967041015625,787.3259887695312,790.952392578125,792.5640869140625
161,788.937744140625,784.908447265625,791.3552856445312,792.5640869140625
162,787.3259887695312,786.923095703125,789.3406372070312,788.937744140625
163,795.7875366210938,788.1318969726562,790.1465454101562,793.7728881835938
164,798.2051391601562,786.1171875,798.2051391601562,796.1904907226562
165,792.5640869140625,790.5494384765625,795.3846435546875,789.7435913085938
166,787.7289428710938,793.3699340820312,795.7875366210938,792.5640869140625
167,790.1465454101562,788.1318969726562,801.025634765625,805.054931640625
168,788.5347900390625,790.5494384765625,800.2197875976562,804.6520385742188
169,784.908447265625,796.1904907226562,796.5933837890625,802.2344360351562
170,788.937744140625,792.5640869140625,795.7875366210938,801.8314819335938
171,792.967041015625,785.3113403320312,794.1758422851562,798.6080322265625
172,791.7582397460938,785.3113403320312,792.5640869140625,799.010986328125
173,790.5494384765625,788.1318969726562,796.1904907226562,792.1611938476562
174,793.7728881835938,787.3259887695312,798.2051391601562,790.1465454101562
175,794.981689453125,791.3552856445312,798.6080322265625,792.967041015625
176,801.025634765625,795.3846435546875,800.2197875976562,803.4432373046875
177,802.6373901367188,799.8168334960938,803.8461303710938,801.8314819335938
178,800.6226806640625,801.025634765625,803.4432373046875,787.3259887695312
179,796.5933837890625,794.5787353515625,798.6080322265625,790.1465454101562
180,792.5640869140625,793.3699340820312,799.010986328125,799.4139404296875
181,792.1611938476562,792.967041015625,804.6520385742188,793.3699340820312
182,790.952392578125,789.7435913085938,802.6373901367188,788.5347900390625
183,791.7582397460938,786.5201416015625,799.4139404296875,788.5347900390625
184,792.967041015625,786.923095703125,796.996337890625,783.6996459960938
185,791.3552856445312,789.7435913085938,796.996337890625,784.5054931640625
186,789.7435913085938,791.3552856445312,798.2051391601562,790.952392578125
187,792.5640869140625,788.937744140625,799.010986328125,794.981689453125
188,792.1611938476562,788.1318969726562,801.8314819335938,791.3552856445312
189,789.7435913085938,790.952392578125,803.8461303710938,787.3259887695312
190,788.937744140625,790.5494384765625,801.8314819335938,790.5494384765625
191,786.923095703125,788.937744140625,798.2051391601562,793.3699340820312
192,786.1171875,787.3259887695312,799.4139404296875,791.3552856445312
193,786.923095703125,788.1318969726562,801.8314819335938,798.2051391601562
194,790.5494384765625,792.5640869140625,798.6080322265625,806.6666870117188
195,792.967041015625,799.4139404296875,795.7875366210938,801.025634765625
196,782.893798828125,799.4139404296875,798.2051391601562,788.5347900390625
197,771.6116943359375,795.7875366210938,797.8021850585938,787.7289428710938
198,784.908447265625,793.7728881835938,794.981689453125,793.7728881835938
199,799.4139404296875,790.1465454101562,791.7582397460938,796.5933837890625
200,796.5933837890625,788.937744140625,792.5640869140625,788.5347900390625
201,798.6080322265625,793.7728881835938,799.010986328125,789.7435913085938
202,800.6226806640625,798.6080322265625,800.6226806640625,796.996337890625
203,803.4432373046875,796.996337890625,798.6080322265625,796.996337890625
204,805.8607788085938,794.5787353515625,799.4139404296875,796.996337890625
205,801.025634765625,792.5640869140625,801.025634765625,797.3992919921875
206,799.4139404296875,787.7289428710938,801.025634765625,800.6226806640625
207,796.5933837890625,784.1025390625,796.996337890625,799.010986328125
208,793.3699340820312,783.6996459960938,792.967041015625,798.2051391601562
209,794.1758422851562,781.2820434570312,794.5787353515625,794.981689453125
210,794.1758422851562,781.6849975585938,797.8021850585938,796.1904907226562
211,796.996337890625,785.7142944335938,796.5933837890625,803.4432373046875
212,797.8021850585938,793.3699340820312,798.6080322265625,798.2051391601562
213,795.3846435546875,794.981689453125,800.6226806640625,799.010986328125
214,796.5933837890625,796.1904907226562,800.6226806640625,800.2197875976562
215,799.010986328125,795.3846435546875,799.8168334960938,798.2051391601562
216,794.1758422851562,788.937744140625,797.8021850585938,796.1904907226562
217,792.967041015625,789.7435913085938,794.1758422851562,793.7728881835938
218,799.4139404296875,793.7728881835938,796.1904907226562,801.8314819335938
219,802.2344360351562,792.967041015625,799.010986328125,808.6813354492188
220,801.4285888671875,790.1465454101562,796.1904907226562,804.6520385742188
221,807.4725341796875,789.7435913085938,796.1904907226562,808.2783813476562
222,806.2637329101562,791.3552856445312,799.8168334960938,824.3956298828125
223,804.2490844726562,797.8021850585938,804.2490844726562,828.4249267578125
224,805.4578857421875,804.2490844726562,803.040283203125,809.4871826171875
225,803.4432373046875,801.8314819335938,798.2051391601562,799.4139404296875
226,801.025634765625,795.7875366210938,793.3699340820312,798.6080322265625
227,797.8021850585938,798.6080322265625,795.3846435546875,799.010986328125
228,796.5933837890625,800.6226806640625,798.2051391601562,802.6373901367188
229,797.8021850585938,796.996337890625,796.1904907226562,805.4578857421875
230,797.8021850585938,795.7875366210938,796.996337890625,805.054931640625
231,796.1904907226562,796.1904907226562,793.7728881835938,799.8168334960938
232,795.7875366210938,794.1758422851562,791.3552856445312,790.5494384765625
233,802.2344360351562,793.7728881835938,796.5933837890625,794.981689453125
234,801.025634765625,796.5933837890625,796.1904907226562,805.4578857421875
235,795.7875366210938,800.2197875976562,793.3699340820312,801.025634765625
236,799.010986328125,798.6080322265625,792.5640869140625,800.2197875976562
237,801.8314819335938,793.7728881835938,794.981689453125,803.8461303710938
238,802.2344360351562,792.967041015625,794.1758422851562,795.7875366210938
239,805.054931640625,796.1904907226562,796.996337890625,795.7875366210938
240,807.069580078125,795.7875366210938,801.025634765625,800.6226806640625
241,797.3992919921875,792.967041015625,796.1904907226562,795.7875366210938
242,798.2051391601562,793.3699340820312,793.3699340820312,799.8168334960938
243,802.6373901367188,786.1171875,790.5494384765625,797.8021850585938
244,799.4139404296875,781.2820434570312,788.5347900390625,797.8021850585938
245,802.2344360351562,786.1171875,788.5347900390625,806.6666870117188
246,800.6226806640625,790.952392578125,790.1465454101562,804.6520385742188
247,796.996337890625,790.5494384765625,794.5787353515625,799.4139404296875
248,795.3846435546875,795.3846435546875,795.3846435546875,797.8021850585938
249,790.1465454101562,798.2051391601562,794.1758422851562,795.7875366210938
250,796.5933837890625,791.7582397460938,797.3992919921875,799.4139404296875
251,805.8607788085938,791.7582397460938,803.4432373046875,803.8461303710938
252,805.4578857421875,790.952392578125,801.4285888671875,806.2637329101562
253,798.6080322265625,792.1611938476562,797.8021850585938,806.2637329101562
254,792.967041015625,795.7875366210938,801.025634765625,803.040283203125
255,796.5933837890625,794.981689453125,801.8314819335938,799.8168334960938
256,801.025634765625,792.5640869140625,799.4139404296875,805.054931640625
257,795.3846435546875,792.967041015625,799.4139404296875,811.90478515625
258,786.1171875,799.4139404296875,798.6080322265625,799.4139404296875
259,787.3259887695312,795.3846435546875,797.3992919921875,796.996337890625
260,793.3699340820312,788.5347900390625,794.981689453125,798.6080322265625
261,798.2051391601562,791.3552856445312,795.3846435546875,787.7289428710938
262,790.5494384765625,792.5640869140625,794.1758422851562,785.7142944335938
263,789.7435913085938,792.5640869140625,793.7728881835938,784.5054931640625
264,801.8314819335938,788.1318969726562,797.3992919921875,787.7289428710938
265,803.4432373046875,786.1171875,797.8021850585938,793.7728881835938
266,799.4139404296875,792.1611938476562,795.7875366210938,793.3699340820312
267,800.6226806640625,795.7875366210938,793.7728881835938,792.967041015625
268,801.025634765625,791.3552856445312,791.7582397460938,798.6080322265625
269,799.010986328125,792.1611938476562,795.7875366210938,794.1758422851562
270,798.2051391601562,796.5933837890625,797.3992919921875,784.1025390625
271,799.4139404296875,799.8168334960938,796.996337890625,789.3406372070312
272,799.4139404296875,799.4139404296875,800.6226806640625,794.981689453125
273,790.952392578125,793.7728881835938,807.4725341796875,794.5787353515625
274,787.7289428710938,789.7435913085938,804.6520385742188,794.981689453125
275,789.7435913085938,790.1465454101562,801.4285888671875,796.996337890625
276,795.3846435546875,792.967041015625,806.2637329101562,801.4285888671875
277,792.967041015625,790.952392578125,805.4578857421875,797.3992919921875
278,789.7435913085938,785.3113403320312,800.2197875976562,789.7435913085938
279,794.5787353515625,786.923095703125,797.8021850585938,793.3699340820312
280,796.5933837890625,790.952392578125,802.2344360351562,797.3992919921875
281,801.4285888671875,788.5347900390625,805.8607788085938,799.8168334960938
282,799.4139404296875,791.3552856445312,803.8461303710938,800.6226806640625
283,794.1758422851562,792.1611938476562,799.4139404296875,803.8461303710938
284,796.1904907226562,788.5347900390625,802.6373901367188,805.4578857421875
285,801.8314819335938,789.7435913085938,807.4725341796875,809.89013671875
286,805.8607788085938,791.7582397460938,806.2637329101562,811.098876953125
287,808.2783813476562,791.7582397460938,799.8168334960938,808.6813354492188
288,801.025634765625,792.1611938476562,797.8021850585938,807.87548828125
289,791.3552856445312,794.981689453125,801.8314819335938,794.1758422851562
290,785.7142944335938,795.3846435546875,805.4578857421875,793.7728881835938
291,792.1611938476562,797.8021850585938,804.2490844726562,802.6373901367188
292,799.8168334960938,797.8021850585938,802.6373901367188,800.6226806640625
293,801.4285888671875,798.6080322265625,800.6226806640625,798.6080322265625
294,799.8168334960938,803.4432373046875,800.2197875976562,801.4285888671875
295,801.4285888671875,800.6226806640625,800.6226806640625,812.3076782226562
296,805.054931640625,799.8168334960938,801.4285888671875,811.098876953125
297,805.4578857421875,805.054931640625,803.040283203125,805.8607788085938
298,801.4285888671875,798.6080322265625,801.4285888671875,805.8607788085938
299,793.3699340820312,791.7582397460938,800.6226806640625,802.6373901367188
300,792.1611938476562,795.3846435546875,801.8314819335938,795.7875366210938
301,802.2344360351562,799.8168334960938,800.2197875976562,794.1758422851562
302,799.010986328125,794.981689453125,800.6226806640625,794.981689453125
303,793.3699340820312,787.3259887695312,800.2197875976562,792.1611938476562
304,797.8021850585938,783.2966918945312,802.6373901367188,794.5787353515625
305,793.3699340820312,786.1171875,799.8168334960938,793.7728881835938
306,786.5201416015625,787.7289428710938,795.3846435546875,794.1758422851562
307,792.967041015625,791.7582397460938,801.8314819335938,807.069580078125
308,802.2344360351562,797.3992919921875,805.054931640625,805.4578857421875
309,800.6226806640625,795.3846435546875,803.4432373046875,800.2197875976562
310,800.6226806640625,788.1318969726562,798.6080322265625,805.4578857421875
311,796.996337890625,789.3406372070312,796.5933837890625,803.8461303710938
312,792.967041015625,793.3699340820312,800.2197875976562,798.6080322265625
313,793.7728881835938,792.5640869140625,801.8314819335938,795.3846435546875
314,792.1611938476562,789.7435913085938,801.025634765625,796.1904907226562
315,790.5494384765625,790.1465454101562,801.4285888671875,801.025634765625
316,792.1611938476562,785.3113403320312,799.010986328125,795.3846435546875
317,801.025634765625,784.5054931640625,801.8314819335938,798.6080322265625
318,806.2637329101562,790.5494384765625,805.4578857421875,811.098876953125
319,799.8168334960938,797.3992919921875,804.2490844726562,805.8607788085938
320,805.054931640625,797.8021850585938,803.040283203125,798.6080322265625
321,807.87548828125,789.7435913085938,800.2197875976562,801.4285888671875
322,796.5933837890625,786.1171875,799.8168334960938,798.2051391601562
323,791.7582397460938,790.5494384765625,798.6080322265625,788.937744140625
324,792.1611938476562,792.967041015625,796.1904907226562,790.952392578125
325,788.1318969726562,784.908447265625,792.5640869140625,795.3846435546875
326,791.7582397460938,780.4761962890625,795.3846435546875,794.1758422851562
327,800.6226806640625,787.7289428710938,802.6373901367188,798.6080322265625
328,805.054931640625,790.5494384765625,805.8607788085938,803.8461303710938
329,797.3992919921875,789.7435913085938,799.4139404296875,806.6666870117188
330,795.3846435546875,788.1318969726562,797.8021850585938,806.6666870117188
331,796.996337890625,788.5347900390625,796.5933837890625,799.010986328125
332,797.8021850585938,790.5494384765625,796.5933837890625,794.1758422851562
333,798.2051391601562,786.1171875,795.3846435546875,798.6080322265625
334,796.1904907226562,791.7582397460938,792.967041015625,795.7875366210938
335,796.996337890625,800.2197875976562,798.2051391601562,795.3846435546875
336,792.5640869140625,796.5933837890625,798.6080322265625,796.996337890625
337,790.1465454101562,792.967041015625,792.1611938476562,792.967041015625
338,792.5640869140625,789.7435913085938,794.1758422851562,794.981689453125
339,794.981689453125,791.3552856445312,799.010986328125,803.040283203125
340,794.5787353515625,791.7582397460938,795.3846435546875,799.010986328125
341,791.7582397460938,783.6996459960938,790.1465454101562,797.8021850585938
342,786.5201416015625,786.1171875,792.1611938476562,797.3992919921875
343,785.7142944335938,792.1611938476562,794.1758422851562,789.3406372070312
344,786.5201416015625,787.3259887695312,792.1611938476562,784.5054931640625
345,785.7142944335938,782.087890625,789.7435913085938,787.7289428710938
346,786.923095703125,787.7289428710938,791.3552856445312,791.7582397460938
347,788.1318969726562,790.5494384765625,790.5494384765625,783.6996459960938
348,791.7582397460938,790.5494384765625,792.5640869140625,783.2966918945312
349,789.7435913085938,795.7875366210938,796.5933837890625,790.1465454101562
350,788.1318969726562,795.7875366210938,794.981689453125,793.7728881835938
351,788.1318969726562,792.967041015625,793.7728881835938,796.5933837890625
352,788.5347900390625,796.1904907226562,794.5787353515625,802.6373901367188
353,795.7875366210938,796.1904907226562,796.5933837890625,808.2783813476562
354,798.6080322265625,796.996337890625,797.3992919921875,806.2637329101562
355,791.7582397460938,797.8021850585938,797.8021850585938,802.2344360351562
356,791.7582397460938,795.3846435546875,798.2051391601562,800.6226806640625
357,796.5933837890625,790.1465454101562,798.6080322265625,801.8314819335938
358,793.3699340820312,783.6996459960938,792.967041015625,794.981689453125
359,793.3699340820312,788.5347900390625,788.937744140625,790.5494384765625
360,799.4139404296875,791.7582397460938,787.7289428710938,806.2637329101562
361,800.6226806640625,788.937744140625,792.5640869140625,811.098876953125
362,786.923095703125,789.3406372070312,793.3699340820312,791.3552856445312
363,782.4908447265625,791.7582397460938,788.937744140625,785.7142944335938
364,785.7142944335938,788.1318969726562,787.7289428710938,791.3552856445312
365,781.6849975585938,785.7142944335938,790.1465454101562,784.908447265625
366,780.0732421875,790.952392578125,792.5640869140625,782.4908447265625
367,780.879150390625,791.7582397460938,793.3699340820312,784.908447265625
368,788.1318969726562,790.952392578125,791.7582397460938,792.5640869140625
369,790.952392578125,796.5933837890625,791.3552856445312,790.5494384765625
370,796.1904907226562,796.1904907226562,793.3699340820312,792.967041015625
371,799.8168334960938,797.8021850585938,792.967041015625,795.3846435546875
372,788.5347900390625,799.010986328125,792.1611938476562,792.967041015625
373,786.1171875,789.7435913085938,792.967041015625,791.7582397460938
374,794.1758422851562,788.937744140625,791.3552856445312,793.3699340820312
375,798.6080322265625,795.7875366210938,790.5494384765625,795.3846435546875
376,799.010986328125,797.3992919921875,791.7582397460938,795.3846435546875
377,794.5787353515625,794.5787353515625,793.3699340820312,795.7875366210938
378,792.5640869140625,796.5933837890625,799.010986328125,792.5640869140625
379,792.967041015625,796.1904907226562,798.2051391601562,794.981689453125
380,795.7875366210938,792.967041015625,796.996337890625,802.2344360351562
381,795.3846435546875,795.7875366210938,801.025634765625,801.025634765625
382,798.2051391601562,797.8021850585938,803.040283203125,804.6520385742188
383,799.4139404296875,795.3846435546875,803.040283203125,809.084228515625
384,800.6226806640625,791.3552856445312,803.040283203125,806.6666870117188
385,802.6373901367188,797.3992919921875,801.025634765625,804.2490844726562
386,802.2344360351562,803.8461303710938,798.2051391601562,805.054931640625
387,802.2344360351562,803.8461303710938,797.3992919921875,807.4725341796875
388,801.025634765625,800.6226806640625,797.8021850585938,808.6813354492188
389,801.4285888671875,796.5933837890625,793.3699340820312,804.2490844726562
390,803.8461303710938,789.3406372070312,793.3699340820312,799.8168334960938
391,809.4871826171875,788.937744140625,796.996337890625,809.4871826171875
392,809.084228515625,796.5933837890625,799.010986328125,810.6959838867188
393,801.4285888671875,797.8021850585938,796.996337890625,798.6080322265625
394,799.010986328125,793.7728881835938,799.010986328125,797.3992919921875
395,795.7875366210938,794.1758422851562,801.4285888671875,802.2344360351562
396,792.967041015625,798.6080322265625,797.8021850585938,801.4285888671875
397,794.1758422851562,798.2051391601562,797.3992919921875,803.040283203125
398,796.5933837890625,797.8021850585938,798.2051391601562,801.4285888671875
399,795.3846435546875,794.981689453125,799.4139404296875,803.4432373046875
400,796.996337890625,794.5787353515625,798.6080322265625,803.4432373046875
401,801.8314819335938,795.7875366210938,799.010986328125,799.4139404296875
402,806.6666870117188,790.5494384765625,799.010986328125,807.4725341796875
403,807.4725341796875,786.923095703125,803.040283203125,817.1428833007812
404,806.2637329101562,793.7728881835938,805.4578857421875,816.3369750976562
405,803.8461303710938,792.1611938476562,801.4285888671875,810.6959838867188
406,799.4139404296875,787.7289428710938,800.2197875976562,803.040283203125
407,793.3699340820312,787.7289428710938,799.8168334960938,798.2051391601562
408,793.7728881835938,790.952392578125,795.7875366210938,797.3992919921875
409,797.3992919921875,789.3406372070312,791.3552856445312,794.1758422851562
410,795.7875366210938,786.5201416015625,791.7582397460938,790.952392578125
411,797.3992919921875,791.3552856445312,800.6226806640625,796.1904907226562
412,796.5933837890625,792.967041015625,802.6373901367188,796.996337890625
413,791.3552856445312,792.1611938476562,797.3992919921875,795.7875366210938
414,788.5347900390625,792.5640869140625,794.5787353515625,800.6226806640625
415,788.1318969726562,794.1758422851562,797.8021850585938,794.1758422851562
416,795.3846435546875,794.5787353515625,799.4139404296875,792.1611938476562
417,800.2197875976562,793.7728881835938,795.3846435546875,799.8168334960938
418,797.8021850585938,793.7728881835938,796.5933837890625,802.6373901367188
419,796.5933837890625,796.996337890625,798.2051391601562,799.8168334960938
420,799.4139404296875,801.025634765625,799.8168334960938,800.2197875976562
421,799.010986328125,796.996337890625,797.8021850585938,802.2344360351562
422,795.3846435546875,793.7728881835938,796.1904907226562,803.8461303710938
423,793.3699340820312,793.3699340820312,794.1758422851562,799.010986328125
424,791.7582397460938,795.3846435546875,794.981689453125,791.7582397460938
425,796.5933837890625,799.8168334960938,798.6080322265625,801.8314819335938
426,799.4139404296875,800.6226806640625,793.3699340820312,811.098876953125
427,793.3699340820312,798.2051391601562,796.1904907226562,802.2344360351562
428,789.7435913085938,792.1611938476562,799.010986328125,800.6226806640625
429,790.952392578125,792.1611938476562,798.2051391601562,800.6226806640625
430,794.5787353515625,792.967041015625,800.2197875976562,796.1904907226562
431,794.981689453125,784.908447265625,796.1904907226562,800.2197875976562
432,789.7435913085938,785.3113403320312,795.3846435546875,802.6373901367188
433,790.952392578125,793.3699340820312,797.8021850585938,800.6226806640625
434,794.5787353515625,799.4139404296875,800.2197875976562,801.8314819335938
435,793.7728881835938,796.996337890625,796.996337890625,803.4432373046875
436,790.5494384765625,790.1465454101562,794.5787353515625,799.010986328125
437,791.7582397460938,788.5347900390625,789.3406372070312,797.3992919921875
438,791.3552856445312,789.7435913085938,785.7142944335938,795.7875366210938
439,786.5201416015625,788.937744140625,791.7582397460938,792.967041015625
440,792.5640869140625,794.1758422851562,796.996337890625,802.2344360351562
441,799.010986328125,796.996337890625,798.2051391601562,807.069580078125
442,800.2197875976562,791.3552856445312,800.6226806640625,804.6520385742188
443,803.040283203125,791.7582397460938,802.2344360351562,803.040283203125
444,806.6666870117188,791.3552856445312,801.4285888671875,798.6080322265625
445,807.4725341796875,792.1611938476562,797.3992919921875,796.5933837890625
446,801.4285888671875,794.1758422851562,794.1758422851562,788.1318969726562
447,801.8314819335938,794.5787353515625,796.5933837890625,790.952392578125
448,803.040283203125,796.1904907226562,796.1904907226562,801.025634765625
449,803.8461303710938,799.4139404296875,792.1611938476562,805.4578857421875
450,809.084228515625,801.025634765625,794.981689453125,801.4285888671875
451,809.084228515625,800.2197875976562,797.8021850585938,801.4285888671875
452,800.2197875976562,799.010986328125,796.1904907226562,802.2344360351562
453,794.981689453125,799.8168334960938,798.2051391601562,796.996337890625
454,797.8021850585938,793.3699340820312,803.040283203125,793.3699340820312
455,795.3846435546875,792.967041015625,801.8314819335938,796.996337890625
456,797.8021850585938,796.996337890625,795.7875366210938,800.6226806640625
457,802.2344360351562,799.8168334960938,797.3992919921875,802.2344360351562
458,797.8021850585938,799.4139404296875,800.2197875976562,797.8021850585938
459,795.3846435546875,796.996337890625,799.010986328125,797.8021850585938
460,796.996337890625,795.7875366210938,799.010986328125,808.2783813476562
461,801.025634765625,792.967041015625,798.6080322265625,805.054931640625
462,804.2490844726562,792.967041015625,796.996337890625,799.010986328125
463,791.7582397460938,794.5787353515625,796.1904907226562,789.7435913085938
464,780.4761962890625,797.3992919921875,793.3699340820312,779.6703491210938
465,781.6849975585938,799.4139404296875,797.8021850585938,775.2380981445312
466,783.2966918945312,796.996337890625,802.2344360351562,781.2820434570312
467,786.923095703125,799.8168334960938,797.8021850585938,792.1611938476562
468,786.5201416015625,797.3992919921875,797.8021850585938,795.7875366210938
469,787.7289428710938,797.3992919921875,798.2051391601562,792.1611938476562
470,791.3552856445312,797.3992919921875,798.6080322265625,787.3259887695312
471,791.3552856445312,793.7728881835938,799.8168334960938,790.952392578125
472,788.5347900390625,791.3552856445312,796.5933837890625,794.981689453125
473,790.5494384765625,790.1465454101562,798.2051391601562,796.1904907226562
474,791.3552856445312,789.7435913085938,802.6373901367188,795.7875366210938
475,791.7582397460938,785.7142944335938,796.1904907226562,796.996337890625
476,788.1318969726562,789.7435913085938,788.1318969726562,795.7875366210938
477,786.5201416015625,792.967041015625,791.7582397460938,791.3552856445312
478,786.923095703125,790.5494384765625,796.1904907226562,789.7435913085938
479,786.923095703125,795.3846435546875,793.3699340820312,796.1904907226562
480,788.5347900390625,796.996337890625,795.3846435546875,793.7728881835938
481,789.3406372070312,794.981689453125,799.010986328125,785.3113403320312
482,788.937744140625,794.1758422851562,799.4139404296875,789.3406372070312
483,792.5640869140625,794.1758422851562,796.996337890625,797.3992919921875
484,792.5640869140625,794.981689453125,797.3992919921875,797.3992919921875
485,796.5933837890625,793.3699340820312,796.5933837890625,789.7435913085938
486,801.025634765625,796.5933837890625,790.952392578125,792.1611938476562
487,797.8021850585938,797.3992919921875,788.5347900390625,805.8607788085938
488,795.3846435546875,794.1758422851562,791.7582397460938,800.2197875976562
489,794.1758422851562,795.7875366210938,796.5933837890625,792.5640869140625
490,787.7289428710938,793.7728881835938,796.5933837890625,793.3699340820312
491,789.3406372070312,794.1758422851562,795.3846435546875,791.7582397460938
492,791.3552856445312,795.3846435546875,794.981689453125,783.6996459960938
493,790.1465454101562,795.7875366210938,794.5787353515625,782.4908447265625
494,794.981689453125,788.937744140625,796.1904907226562,784.908447265625
495,801.8314819335938,784.5054931640625,798.6080322265625,794.1758422851562
496,802.6373901367188,790.952392578125,797.3992919921875,797.3992919921875
497,801.4285888671875,795.3846435546875,794.981689453125,792.967041015625
498,795.3846435546875,787.7289428710938,797.3992919921875,796.996337890625
499,786.5201416015625,777.2527465820312,794.5787353515625,794.981689453125
500,781.6849975585938,779.2673950195312,791.7582397460938,790.1465454101562
501,788.5347900390625,784.1025390625,792.1611938476562,798.2051391601562
502,795.7875366210938,785.7142944335938,790.5494384765625,798.6080322265625
503,792.967041015625,785.7142944335938,792.1611938476562,794.5787353515625
504,790.952392578125,788.1318969726562,791.3552856445312,794.1758422851562
505,789.7435913085938,790.952392578125,787.7289428710938,797.3992919921875
506,789.3406372070312,789.7435913085938,792.5640869140625,803.040283203125
507,790.952392578125,791.7582397460938,795.7875366210938,801.025634765625
508,788.1318969726562,789.7435913085938,797.8021850585938,793.7728881835938
509,785.3113403320312,784.908447265625,797.3992919921875,793.7728881835938
510,792.1611938476562,787.7289428710938,794.1758422851562,803.4432373046875
511,790.952392578125,791.7582397460938,794.1758422851562,794.981689453125
512,793.3699340820312,790.952392578125,794.1758422851562,792.1611938476562
513,799.8168334960938,785.7142944335938,794.5787353515625,801.8314819335938
514,795.3846435546875,788.937744140625,793.3699340820312,802.6373901367188
515,797.3992919921875,790.952392578125,790.5494384765625,803.8461303710938
516,792.967041015625,782.087890625,790.1465454101562,792.5640869140625
517,785.3113403320312,781.2820434570312,793.7728881835938,789.3406372070312
518,787.3259887695312,785.3113403320312,791.3552856445312,794.1758422851562
519,792.5640869140625,789.3406372070312,790.5494384765625,791.3552856445312
520,792.5640869140625,790.952392578125,797.3992919921875,787.7289428710938
521,792.5640869140625,788.937744140625,800.2197875976562,792.967041015625
522,796.996337890625,785.7142944335938,797.8021850585938,801.4285888671875
523,795.3846435546875,787.3259887695312,798.6080322265625,795.3846435546875
524,792.967041015625,791.7582397460938,799.010986328125,792.1611938476562
525,792.1611938476562,793.7728881835938,799.4139404296875,797.8021850585938
526,793.3699340820312,797.8021850585938,799.4139404296875,796.5933837890625
527,798.2051391601562,790.952392578125,800.6226806640625,800.2197875976562
528,797.3992919921875,788.937744140625,803.040283203125,807.4725341796875
529,793.3699340820312,790.5494384765625,798.6080322265625,800.2197875976562
530,793.3699340820312,788.1318969726562,797.8021850585938,798.6080322265625
531,791.7582397460938,791.3552856445312,800.2197875976562,800.2197875976562
532,792.5640869140625,794.5787353515625,798.6080322265625,794.5787353515625
533,796.5933837890625,787.7289428710938,794.981689453125,802.6373901367188
534,793.3699340820312,784.908447265625,793.3699340820312,794.5787353515625
535,787.7289428710938,787.7289428710938,794.5787353515625,780.4761962890625
536,791.3552856445312,785.3113403320312,797.8021850585938,790.5494384765625
537,793.7728881835938,786.5201416015625,792.5640869140625,799.8168334960938
538,792.5640869140625,790.1465454101562,790.1465454101562,794.981689453125
539,789.3406372070312,791.7582397460938,795.7875366210938,790.1465454101562
540,790.1465454101562,792.1611938476562,799.4139404296875,792.967041015625
541,789.7435913085938,788.937744140625,799.010986328125,790.5494384765625
542,788.5347900390625,794.1758422851562,796.996337890625,787.3259887695312
543,792.5640869140625,792.1611938476562,798.6080322265625,786.1171875
544,797.8021850585938,786.1171875,797.3992919921875,791.7582397460938
545,797.3992919921875,785.3113403320312,798.2051391601562,796.5933837890625
546,798.2051391601562,788.937744140625,800.6226806640625,792.5640869140625
547,796.996337890625,789.3406372070312,797.3992919921875,792.1611938476562
548,795.3846435546875,790.5494384765625,796.996337890625,797.8021850585938
549,794.1758422851562,793.7728881835938,797.8021850585938,799.010986328125
550,793.3699340820312,794.1758422851562,799.010986328125,801.025634765625
551,796.5933837890625,792.1611938476562,797.3992919921875,804.6520385742188
552,796.1904907226562,789.7435913085938,796.1904907226562,803.8461303710938
553,798.6080322265625,793.7728881835938,799.4139404296875,803.4432373046875
554,800.2197875976562,796.996337890625,803.4432373046875,805.054931640625
555,791.3552856445312,794.981689453125,801.4285888671875,798.2051391601562
556,790.1465454101562,788.937744140625,798.2051391601562,799.4139404296875
557,792.967041015625,790.5494384765625,798.2051391601562,802.6373901367188
558,797.8021850585938,797.3992919921875,798.6080322265625,803.4432373046875
559,806.2637329101562,798.2051391601562,801.4285888671875,802.6373901367188
560,805.054931640625,798.6080322265625,807.069580078125,803.8461303710938
561,797.3992919921875,797.8021850585938,803.4432373046875,801.025634765625
562,798.2051391601562,795.3846435546875,796.5933837890625,795.7875366210938
563,804.2490844726562,796.5933837890625,796.996337890625,799.8168334960938
564,797.8021850585938,793.7728881835938,796.5933837890625,794.1758422851562
565,792.967041015625,792.1611938476562,795.7875366210938,784.908447265625
566,800.6226806640625,796.1904907226562,796.5933837890625,794.1758422851562
567,800.2197875976562,792.5640869140625,792.1611938476562,795.7875366210938
568,793.7728881835938,788.5347900390625,790.5494384765625,784.1025390625
569,800.2197875976562,790.952392578125,793.7728881835938,783.2966918945312
570,801.4285888671875,795.7875366210938,796.1904907226562,788.937744140625
571,794.5787353515625,795.3846435546875,799.010986328125,798.2051391601562
572,794.5787353515625,793.3699340820312,798.6080322265625,801.8314819335938
573,795.3846435546875,792.967041015625,799.8168334960938,794.981689453125
574,797.8021850585938,790.952392578125,796.996337890625,795.7875366210938
575,796.996337890625,793.3699340820312,799.4139404296875,803.8461303710938
576,791.7582397460938,798.2051391601562,797.3992919921875,797.8021850585938
577,791.3552856445312,794.981689453125,794.1758422851562,798.6080322265625
578,795.7875366210938,791.7582397460938,800.2197875976562,803.040283203125
579,799.8168334960938,785.3113403320312,799.010986328125,803.040283203125
580,800.6226806640625,782.4908447265625,796.996337890625,806.6666870117188
581,794.981689453125,786.923095703125,799.4139404296875,804.2490844726562
582,791.7582397460938,793.3699340820312,798.6080322265625,799.8168334960938
583,797.8021850585938,796.1904907226562,802.2344360351562,807.87548828125
584,799.010986328125,795.7875366210938,804.6520385742188,802.2344360351562
585,791.7582397460938,794.1758422851562,801.8314819335938,793.7728881835938
586,795.3846435546875,791.3552856445312,801.4285888671875,799.010986328125
587,801.8314819335938,791.3552856445312,801.025634765625,803.040283203125
588,799.010986328125,792.5640869140625,801.8314819335938,798.2051391601562
589,798.6080322265625,793.7728881835938,800.6226806640625,790.5494384765625
590,801.4285888671875,794.1758422851562,800.2197875976562,790.952392578125
591,798.6080322265625,793.7728881835938,801.025634765625,786.923095703125
592,791.7582397460938,793.3699340820312,800.6226806640625,782.893798828125
593,787.3259887695312,793.3699340820312,799.8168334960938,785.7142944335938
594,790.5494384765625,790.5494384765625,798.6080322265625,791.7582397460938
595,795.3846435546875,789.7435913085938,796.1904907226562,795.3846435546875
596,797.3992919921875,793.7728881835938,795.3846435546875,788.5347900390625
597,793.7728881835938,789.3406372070312,796.1904907226562,784.908447265625
598,792.1611938476562,790.5494384765625,797.8021850585938,784.908447265625
599,797.3992919921875,793.3699340820312,799.4139404296875,786.5201416015625
600,798.2051391601562,789.7435913085938,798.2051391601562,788.937744140625
601,792.967041015625,790.5494384765625,796.1904907226562,792.1611938476562
602,788.937744140625,791.7582397460938,795.3846435546875,797.3992919921875
603,787.7289428710938,787.7289428710938,796.1904907226562,792.967041015625
604,788.1318969726562,785.3113403320312,797.3992919921875,786.5201416015625
605,794.1758422851562,787.3259887695312,798.2051391601562,790.952392578125
606,801.8314819335938,793.3699340820312,796.996337890625,805.054931640625
607,794.1758422851562,796.1904907226562,796.1904907226562,803.040283203125
608,791.7582397460938,789.7435913085938,798.6080322265625,797.3992919921875
609,798.6080322265625,788.5347900390625,796.996337890625,802.2344360351562
610,793.3699340820312,787.3259887695312,791.3552856445312,798.2051391601562
611,793.7728881835938,788.1318969726562,790.1465454101562,792.967041015625
612,797.8021850585938,792.1611938476562,792.1611938476562,790.1465454101562
613,796.1904907226562,798.6080322265625,791.3552856445312,788.937744140625
614,794.1758422851562,796.996337890625,792.967041015625,784.5054931640625
615,796.5933837890625,788.5347900390625,794.1758422851562,784.1025390625
616,799.4139404296875,790.952392578125,794.1758422851562,783.2966918945312
617,800.2197875976562,793.3699340820312,791.7582397460938,781.6849975585938
618,803.4432373046875,792.1611938476562,789.3406372070312,790.5494384765625
619,803.040283203125,796.5933837890625,792.1611938476562,785.3113403320312
620,801.025634765625,797.8021850585938,794.1758422851562,778.4615478515625
621,800.6226806640625,794.1758422851562,795.3846435546875,786.5201416015625
622,795.3846435546875,792.967041015625,799.4139404296875,789.3406372070312
623,790.1465454101562,794.981689453125,802.6373901367188,784.1025390625
624,791.7582397460938,794.5787353515625,801.8314819335938,790.5494384765625
625,793.3699340820312,794.981689453125,799.010986328125,792.5640869140625
626,801.025634765625,794.981689453125,799.4139404296875,789.7435913085938
627,803.040283203125,794.5787353515625,801.8314819335938,802.6373901367188
628,792.967041015625,792.1611938476562,796.996337890625,806.6666870117188
629,790.5494384765625,792.5640869140625,794.981689453125,807.87548828125
630,794.5787353515625,794.981689453125,802.2344360351562,807.87548828125
631,798.6080322265625,796.5933837890625,805.054931640625,803.8461303710938
632,798.2051391601562,795.7875366210938,803.8461303710938,808.2783813476562
633,795.7875366210938,794.1758422851562,800.6226806640625,805.054931640625
634,796.5933837890625,790.5494384765625,795.3846435546875,794.981689453125
635,799.8168334960938,786.1171875,792.1611938476562,795.3846435546875
636,801.8314819335938,790.1465454101562,790.952392578125,799.010986328125
637,797.3992919921875,794.981689453125,792.967041015625,801.8314819335938
638,790.952392578125,797.3992919921875,795.3846435546875,801.8314819335938
639,788.1318969726562,799.8168334960938,793.7728881835938,800.6226806640625
640,791.3552856445312,797.3992919921875,794.1758422851562,805.054931640625
641,792.5640869140625,795.3846435546875,795.3846435546875,813.5164794921875
642,790.952392578125,795.3846435546875,796.1904907226562,807.069580078125
643,793.7728881835938,794.5787353515625,801.025634765625,803.4432373046875
644,791.3552856445312,792.1611938476562,801.025634765625,800.6226806640625
645,785.3113403320312,788.937744140625,791.3552856445312,792.967041015625
646,785.7142944335938,784.5054931640625,791.7582397460938,791.7582397460938
647,784.908447265625,782.893798828125,793.7728881835938,794.981689453125
648,790.1465454101562,788.1318969726562,793.7728881835938,799.8168334960938
649,799.010986328125,792.1611938476562,799.010986328125,799.4139404296875
650,799.8168334960938,796.5933837890625,801.025634765625,802.2344360351562
651,805.4578857421875,795.7875366210938,800.6226806640625,809.89013671875
652,809.084228515625,789.3406372070312,798.6080322265625,816.3369750976562
653,805.054931640625,793.3699340820312,799.010986328125,808.6813354492188
654,798.6080322265625,793.3699340820312,799.010986328125,797.8021850585938
655,795.7875366210938,790.1465454101562,801.8314819335938,796.1904907226562
656,796.996337890625,790.1465454101562,803.8461303710938,797.3992919921875
657,796.5933837890625,789.7435913085938,799.4139404296875,797.3992919921875
658,802.2344360351562,790.1465454101562,797.8021850585938,803.040283203125
659,809.4871826171875,789.7435913085938,799.8168334960938,813.113525390625
660,805.054931640625,792.967041015625,800.2197875976562,805.8607788085938
661,798.2051391601562,790.952392578125,801.4285888671875,799.4139404296875
662,802.2344360351562,786.5201416015625,802.2344360351562,804.2490844726562
663,805.054931640625,792.5640869140625,801.4285888671875,805.8607788085938
664,797.3992919921875,796.1904907226562,801.4285888671875,807.069580078125
665,786.923095703125,797.8021850585938,799.4139404296875,798.6080322265625
666,793.7728881835938,803.4432373046875,804.6520385742188,796.5933837890625
667,801.025634765625,803.8461303710938,804.2490844726562,796.5933837890625
668,792.967041015625,804.2490844726562,797.8021850585938,788.5347900390625
669,792.5640869140625,801.8314819335938,799.010986328125,786.1171875
670,796.996337890625,797.8021850585938,801.4285888671875,794.5787353515625
671,792.5640869140625,795.3846435546875,798.2051391601562,796.5933837890625
672,792.1611938476562,793.7728881835938,798.6080322265625,793.3699340820312
673,796.1904907226562,792.5640869140625,802.6373901367188,792.5640869140625
674,794.981689453125,792.967041015625,802.6373901367188,800.2197875976562
675,796.5933837890625,791.3552856445312,803.040283203125,803.4432373046875
676,798.2051391601562,791.3552856445312,800.6226806640625,795.7875366210938
677,799.010986328125,796.1904907226562,800.6226806640625,794.5787353515625
678,801.8314819335938,795.3846435546875,799.8168334960938,796.5933837890625
679,802.6373901367188,790.5494384765625,797.3992919921875,813.91943359375
680,801.8314819335938,796.1904907226562,800.6226806640625,813.91943359375
681,795.7875366210938,795.7875366210938,801.4285888671875,796.5933837890625
682,795.3846435546875,791.7582397460938,794.5787353515625,796.1904907226562
683,799.010986328125,790.1465454101562,795.3846435546875,796.996337890625
684,792.5640869140625,788.937744140625,798.6080322265625,796.5933837890625
685,789.7435913085938,790.1465454101562,796.1904907226562,790.952392578125
686,797.3992919921875,789.3406372070312,794.5787353515625,790.5494384765625
687,802.2344360351562,787.7289428710938,794.5787353515625,793.3699340820312
688,792.5640869140625,785.7142944335938,795.3846435546875,789.7435913085938
689,786.5201416015625,787.3259887695312,797.3992919921875,785.3113403320312
690,788.937744140625,792.967041015625,794.5787353515625,791.3552856445312
691,789.3406372070312,792.967041015625,790.952392578125,801.025634765625
692,796.1904907226562,792.967041015625,791.3552856445312,792.5640869140625
693,803.040283203125,795.3846435546875,795.3846435546875,784.908447265625
694,793.3699340820312,791.3552856445312,795.3846435546875,786.5201416015625
695,787.7289428710938,790.952392578125,793.3699340820312,786.923095703125
696,790.5494384765625,793.7728881835938,794.1758422851562,784.908447265625
697,794.5787353515625,790.5494384765625,794.981689453125,786.923095703125
698,794.5787353515625,788.5347900390625,794.5787353515625,787.7289428710938
699,790.5494384765625,786.923095703125,796.996337890625,788.1318969726562
700,796.996337890625,784.908447265625,800.6226806640625,794.5787353515625
701,801.8314819335938,786.1171875,799.8168334960938,801.8314819335938
702,799.8168334960938,787.3259887695312,795.7875366210938,809.89013671875
703,794.1758422851562,789.3406372070312,796.1904907226562,803.8461303710938
704,793.3699340820312,790.952392578125,798.2051391601562,796.5933837890625
705,793.7728881835938,787.3259887695312,797.3992919921875,795.3846435546875
706,794.1758422851562,784.5054931640625,796.5933837890625,796.996337890625
707,796.996337890625,790.5494384765625,793.3699340820312,795.7875366210938
708,799.010986328125,795.3846435546875,795.3846435546875,801.8314819335938
709,797.3992919921875,790.1465454101562,798.6080322265625,805.054931640625
710,796.1904907226562,786.923095703125,799.8168334960938,806.2637329101562
711,799.4139404296875,788.1318969726562,799.010986328125,807.87548828125
712,801.4285888671875,789.7435913085938,796.996337890625,802.6373901367188
713,801.4285888671875,792.1611938476562,796.996337890625,799.4139404296875
714,794.5787353515625,795.7875366210938,801.8314819335938,797.3992919921875
715,787.7289428710938,796.996337890625,801.4285888671875,793.7728881835938
716,788.5347900390625,794.1758422851562,795.7875366210938,793.3699340820312
717,792.967041015625,790.952392578125,794.5787353515625,795.7875366210938
718,796.996337890625,790.1465454101562,802.6373901367188,798.2051391601562
719,801.025634765625,792.967041015625,807.069580078125,797.8021850585938
720,802.6373901367188,793.3699340820312,803.040283203125,799.010986328125
721,803.040283203125,794.1758422851562,801.025634765625,807.4725341796875
722,801.8314819335938,793.7728881835938,801.4285888671875,803.4432373046875
723,798.2051391601562,789.7435913085938,801.4285888671875,800.2197875976562
724,799.010986328125,789.7435913085938,799.4139404296875,805.4578857421875
725,797.8021850585938,790.952392578125,796.1904907226562,802.6373901367188
726,794.5787353515625,791.7582397460938,797.3992919921875,795.7875366210938
727,791.3552856445312,790.5494384765625,794.981689453125,789.7435913085938
728,792.967041015625,790.5494384765625,795.3846435546875,792.5640869140625
729,795.3846435546875,793.7728881835938,800.2197875976562,799.4139404296875
730,790.5494384765625,788.937744140625,800.6226806640625,796.996337890625
731,791.7582397460938,786.1171875,799.8168334960938,793.3699340820312
732,795.7875366210938,788.5347900390625,797.8021850585938,795.7875366210938
733,791.7582397460938,792.1611938476562,793.7728881835938,792.1611938476562
734,794.5787353515625,789.3406372070312,790.5494384765625,792.5640869140625
735,794.981689453125,784.1025390625,793.3699340820312,796.996337890625
736,792.5640869140625,787.3259887695312,791.3552856445312,796.996337890625
737,794.981689453125,790.1465454101562,786.5201416015625,799.010986328125
738,796.5933837890625,788.937744140625,789.7435913085938,788.1318969726562
739,794.5787353515625,788.1318969726562,794.1758422851562,782.4908447265625
740,789.7435913085938,788.937744140625,793.3699340820312,788.5347900390625
741,789.3406372070312,788.5347900390625,795.3846435546875,788.5347900390625
742,793.7728881835938,791.3552856445312,797.8021850585938,794.1758422851562
743,803.4432373046875,792.1611938476562,799.4139404296875,803.8461303710938
744,805.054931640625,789.7435913085938,799.8168334960938,804.6520385742188
745,799.8168334960938,793.7728881835938,797.3992919921875,802.6373901367188
746,795.7875366210938,797.8021850585938,799.010986328125,803.4432373046875
747,791.7582397460938,794.981689453125,799.8168334960938,796.5933837890625
748,805.054931640625,790.5494384765625,799.4139404296875,799.4139404296875
749,805.4578857421875,790.5494384765625,799.010986328125,807.4725341796875
750,796.5933837890625,792.1611938476562,802.2344360351562,801.025634765625
751,799.4139404296875,794.981689453125,804.2490844726562,803.040283203125
752,799.4139404296875,796.1904907226562,803.8461303710938,810.2930297851562
753,802.2344360351562,794.981689453125,797.8021850585938,805.8607788085938
754,803.8461303710938,792.967041015625,794.1758422851562,800.2197875976562
755,802.6373901367188,795.7875366210938,796.5933837890625,803.8461303710938
756,800.6226806640625,795.7875366210938,799.010986328125,802.2344360351562
757,797.3992919921875,790.1465454101562,797.8021850585938,796.1904907226562
758,795.7875366210938,787.7289428710938,797.3992919921875,794.981689453125
759,798.6080322265625,788.1318969726562,799.8168334960938,798.2051391601562
760,804.2490844726562,792.5640869140625,800.2197875976562,801.8314819335938
761,794.5787353515625,791.3552856445312,799.8168334960938,796.1904907226562
762,790.5494384765625,789.3406372070312,799.010986328125,793.3699340820312
763,794.981689453125,787.3259887695312,796.996337890625,796.996337890625
764,798.2051391601562,790.1465454101562,796.1904907226562,801.8314819335938
765,794.981689453125,795.3846435546875,797.3992919921875,797.3992919921875
766,792.1611938476562,792.1611938476562,799.8168334960938,795.3846435546875
767,793.3699340820312,788.5347900390625,799.010986328125,799.8168334960938
768,790.952392578125,789.3406372070312,793.3699340820312,796.1904907226562
769,795.7875366210938,792.1611938476562,797.3992919921875,797.3992919921875
770,801.4285888671875,788.5347900390625,800.2197875976562,801.4285888671875
771,801.8314819335938,787.7289428710938,798.6080322265625,805.054931640625
772,800.6226806640625,794.1758422851562,801.025634765625,805.8607788085938
773,800.6226806640625,794.1758422851562,801.4285888671875,801.025634765625
774,804.6520385742188,795.7875366210938,801.4285888671875,802.2344360351562
775,811.098876953125,792.1611938476562,799.8168334960938,816.3369750976562
776,808.2783813476562,791.7582397460938,803.8461303710938,811.098876953125
777,805.054931640625,796.1904907226562,805.8607788085938,794.981689453125
778,808.6813354492188,793.3699340820312,802.6373901367188,799.010986328125
779,807.87548828125,787.3259887695312,799.8168334960938,800.2197875976562
780,803.4432373046875,791.3552856445312,803.040283203125,797.3992919921875
781,803.040283203125,798.2051391601562,804.6520385742188,804.2490844726562
782,796.1904907226562,790.952392578125,799.8168334960938,803.040283203125
783,790.1465454101562,787.7289428710938,798.2051391601562,800.6226806640625
784,794.5787353515625,793.3699340820312,801.8314819335938,807.4725341796875
785,796.996337890625,796.1904907226562,800.6226806640625,807.87548828125
786,797.3992919921875,792.1611938476562,796.996337890625,807.4725341796875
787,797.3992919921875,787.7289428710938,799.8168334960938,807.87548828125
788,798.2051391601562,792.1611938476562,799.4139404296875,801.4285888671875
789,800.6226806640625,796.996337890625,800.2197875976562,794.5787353515625
790,803.4432373046875,793.3699340820312,801.4285888671875,797.3992919921875
791,806.2637329101562,792.5640869140625,802.2344360351562,798.6080322265625
792,802.6373901367188,794.5787353515625,805.4578857421875,799.4139404296875
793,796.1904907226562,793.3699340820312,806.2637329101562,804.2490844726562
794,798.2051391601562,792.1611938476562,803.8461303710938,803.040283203125
795,798.2051391601562,790.1465454101562,799.8168334960938,806.2637329101562
796,792.5640869140625,790.952392578125,799.010986328125,799.8168334960938
797,789.7435913085938,788.1318969726562,796.996337890625,794.981689453125
798,791.7582397460938,785.7142944335938,796.1904907226562,806.6666870117188
799,791.7582397460938,791.7582397460938,798.6080322265625,801.8314819335938
800,794.1758422851562,794.981689453125,799.4139404296875,798.2051391601562
801,798.2051391601562,794.981689453125,803.040283203125,803.4432373046875
802,793.3699340820312,792.5640869140625,801.4285888671875,802.2344360351562
803,788.937744140625,784.908447265625,797.3992919921875,799.010986328125
804,787.7289428710938,782.087890625,797.8021850585938,791.7582397460938
805,786.5201416015625,789.7435913085938,798.2051391601562,791.3552856445312
806,786.1171875,789.7435913085938,799.010986328125,789.3406372070312
807,790.1465454101562,786.923095703125,796.996337890625,782.4908447265625
808,793.3699340820312,786.923095703125,792.967041015625,783.2966918945312
809,792.5640869140625,783.2966918945312,794.1758422851562,794.5787353515625
810,797.3992919921875,785.7142944335938,795.3846435546875,803.8461303710938
811,800.2197875976562,789.3406372070312,794.1758422851562,793.3699340820312
812,794.981689453125,788.937744140625,790.1465454101562,788.5347900390625
813,789.7435913085938,786.923095703125,791.7582397460938,794.981689453125
814,788.5347900390625,789.3406372070312,792.5640869140625,798.6080322265625
815,784.5054931640625,788.5347900390625,791.7582397460938,795.3846435546875
816,786.1171875,787.3259887695312,792.1611938476562,797.8021850585938
817,792.1611938476562,788.5347900390625,792.1611938476562,799.8168334960938
818,789.3406372070312,790.5494384765625,792.5640869140625,793.7728881835938
819,790.5494384765625,792.5640869140625,791.3552856445312,790.5494384765625
820,796.996337890625,791.7582397460938,792.967041015625,796.996337890625
821,796.5933837890625,790.1465454101562,793.3699340820312,807.87548828125
822,795.7875366210938,788.5347900390625,790.5494384765625,802.2344360351562
823,795.3846435546875,794.981689453125,794.981689453125,790.5494384765625
824,789.3406372070312,794.1758422851562,799.010986328125,788.937744140625
825,790.5494384765625,789.7435913085938,798.2051391601562,789.3406372070312
826,794.1758422851562,792.967041015625,800.2197875976562,788.937744140625
827,790.1465454101562,794.5787353515625,800.6226806640625,789.3406372070312
828,789.7435913085938,792.967041015625,795.7875366210938,793.3699340820312
829,795.3846435546875,795.3846435546875,796.1904907226562,802.6373901367188
830,796.996337890625,795.3846435546875,797.3992919921875,805.4578857421875
831,792.1611938476562,791.3552856445312,795.7875366210938,795.3846435546875
832,800.2197875976562,790.952392578125,794.1758422851562,801.8314819335938
833,806.2637329101562,794.981689453125,796.5933837890625,813.113525390625
834,799.8168334960938,799.010986328125,803.4432373046875,797.3992919921875
835,805.4578857421875,797.3992919921875,802.6373901367188,793.3699340820312
836,810.2930297851562,790.952392578125,794.5787353515625,799.010986328125
837,804.2490844726562,792.967041015625,792.5640869140625,799.010986328125
838,796.1904907226562,801.025634765625,796.1904907226562,798.6080322265625
839,792.5640869140625,798.6080322265625,796.5933837890625,796.5933837890625
840,791.7582397460938,792.5640869140625,798.2051391601562,801.025634765625
841,791.3552856445312,793.3699340820312,799.8168334960938,799.010986328125
842,797.3992919921875,794.5787353515625,796.5933837890625,797.8021850585938
843,803.040283203125,792.1611938476562,797.3992919921875,807.069580078125
844,802.2344360351562,788.5347900390625,799.010986328125,813.5164794921875
845,793.7728881835938,796.996337890625,794.981689453125,801.025634765625
846,792.1611938476562,793.3699340820312,791.7582397460938,792.5640869140625
847,796.5933837890625,782.4908447265625,795.7875366210938,794.1758422851562
848,796.5933837890625,788.1318969726562,799.4139404296875,798.2051391601562
849,791.7582397460938,790.1465454101562,795.3846435546875,795.3846435546875
850,786.5201416015625,791.3552856445312,795.3846435546875,794.5787353515625
851,787.3259887695312,789.3406372070312,795.7875366210938,796.996337890625
852,787.7289428710938,787.7289428710938,790.952392578125,794.1758422851562
853,787.3259887695312,788.937744140625,793.3699340820312,786.5201416015625
854,788.937744140625,786.1171875,798.2051391601562,780.879150390625
855,785.3113403320312,786.1171875,799.010986328125,783.6996459960938
856,785.7142944335938,789.3406372070312,800.2197875976562,788.5347900390625
857,792.5640869140625,790.952392578125,797.3992919921875,791.7582397460938
858,792.1611938476562,790.5494384765625,798.2051391601562,793.7728881835938
859,790.1465454101562,784.1025390625,799.4139404296875,796.1904907226562
860,792.1611938476562,788.1318969726562,799.4139404296875,801.8314819335938
861,791.3552856445312,794.5787353515625,798.2051391601562,791.7582397460938
862,794.981689453125,793.3699340820312,794.1758422851562,787.3259887695312
863,793.7728881835938,794.981689453125,797.3992919921875,796.5933837890625
864,793.7728881835938,799.8168334960938,802.2344360351562,798.6080322265625
865,792.1611938476562,797.8021850585938,799.8168334960938,795.3846435546875
866,789.7435913085938,793.7728881835938,796.5933837890625,798.2051391601562
867,795.7875366210938,789.7435913085938,796.5933837890625,801.025634765625
868,798.2051391601562,792.1611938476562,795.7875366210938,801.025634765625
869,797.8021850585938,797.3992919921875,798.2051391601562,800.6226806640625
870,802.2344360351562,791.3552856445312,796.996337890625,802.6373901367188
871,809.084228515625,792.967041015625,797.3992919921875,806.2637329101562
872,806.2637329101562,801.4285888671875,799.8168334960938,795.7875366210938
873,806.6666870117188,800.6226806640625,795.3846435546875,793.7728881835938
874,807.069580078125,800.6226806640625,796.996337890625,802.6373901367188
875,801.025634765625,798.2051391601562,803.4432373046875,801.4285888671875
876,800.2197875976562,799.8168334960938,801.8314819335938,791.7582397460938
877,799.010986328125,798.6080322265625,794.5787353515625,789.7435913085938
878,798.6080322265625,794.981689453125,793.7728881835938,793.7728881835938
879,794.1758422851562,794.1758422851562,792.1611938476562,790.5494384765625
880,785.3113403320312,792.1611938476562,791.7582397460938,783.6996459960938
881,786.5201416015625,791.7582397460938,797.3992919921875,783.2966918945312
882,789.7435913085938,788.5347900390625,794.5787353515625,789.3406372070312
883,791.3552856445312,788.937744140625,792.5640869140625,794.981689453125
884,790.1465454101562,796.1904907226562,796.5933837890625,792.1611938476562
885,791.3552856445312,794.981689453125,798.6080322265625,794.5787353515625
886,797.3992919921875,796.996337890625,799.8168334960938,802.6373901367188
887,800.2197875976562,796.996337890625,799.8168334960938,803.040283203125
888,804.2490844726562,792.5640869140625,796.996337890625,805.4578857421875
889,804.6520385742188,793.7728881835938,796.996337890625,809.4871826171875
890,796.5933837890625,792.5640869140625,796.996337890625,814.7252807617188
891,796.5933837890625,790.952392578125,797.8021850585938,816.3369750976562
892,795.7875366210938,791.3552856445312,797.8021850585938,805.4578857421875
893,797.3992919921875,796.996337890625,795.7875366210938,800.2197875976562
894,798.2051391601562,794.5787353515625,794.5787353515625,803.8461303710938
895,798.6080322265625,791.3552856445312,793.3699340820312,800.2197875976562
896,801.4285888671875,795.7875366210938,794.981689453125,796.996337890625
897,804.2490844726562,801.4285888671875,795.7875366210938,804.6520385742188
898,809.4871826171875,802.2344360351562,797.3992919921875,814.7252807617188
899,810.2930297851562,797.8021850585938,800.6226806640625,813.113525390625
900,803.040283203125,796.996337890625,800.6226806640625,809.4871826171875
901,799.4139404296875,798.2051391601562,800.2197875976562,813.113525390625
902,806.6666870117188,799.8168334960938,801.4285888671875,813.5164794921875
903,808.2783813476562,796.996337890625,797.8021850585938,807.87548828125
904,805.8607788085938,794.981689453125,796.996337890625,806.2637329101562
905,802.2344360351562,796.996337890625,797.8021850585938,809.084228515625
906,798.6080322265625,795.3846435546875,799.4139404296875,813.113525390625
907,799.4139404296875,795.7875366210938,800.6226806640625,798.2051391601562
908,794.5787353515625,793.3699340820312,799.010986328125,792.967041015625
909,795.3846435546875,796.1904907226562,801.8314819335938,804.2490844726562
910,794.981689453125,795.3846435546875,802.2344360351562,803.8461303710938
911,789.3406372070312,786.923095703125,799.4139404296875,795.3846435546875
912,791.3552856445312,789.3406372070312,797.8021850585938,800.6226806640625
913,794.5787353515625,792.967041015625,797.8021850585938,805.4578857421875
914,792.1611938476562,791.3552856445312,800.2197875976562,796.996337890625
915,792.1611938476562,788.5347900390625,800.2197875976562,793.3699340820312
916,792.967041015625,792.1611938476562,801.8314819335938,798.6080322265625
917,792.1611938476562,792.1611938476562,803.4432373046875,807.87548828125
918,790.1465454101562,785.7142944335938,803.040283203125,801.4285888671875
919,786.923095703125,786.5201416015625,803.4432373046875,789.7435913085938
920,788.1318969726562,787.7289428710938,802.6373901367188,792.967041015625
921,788.937744140625,786.923095703125,800.2197875976562,792.967041015625
922,790.1465454101562,788.937744140625,799.8168334960938,789.3406372070312
923,792.5640869140625,788.937744140625,799.010986328125,793.3699340820312
924,792.1611938476562,790.1465454101562,798.2051391601562,799.8168334960938
925,791.7582397460938,794.5787353515625,799.010986328125,793.7728881835938
926,792.1611938476562,796.1904907226562,801.025634765625,790.952392578125
927,790.5494384765625,792.967041015625,803.4432373046875,793.3699340820312
928,796.996337890625,794.5787353515625,803.4432373046875,800.6226806640625
929,798.2051391601562,787.3259887695312,802.2344360351562,799.8168334960938
930,792.967041015625,788.937744140625,799.8168334960938,794.5787353515625
931,793.3699340820312,795.7875366210938,797.3992919921875,799.010986328125
932,797.3992919921875,793.3699340820312,796.996337890625,800.2197875976562
933,797.3992919921875,794.1758422851562,796.996337890625,800.2197875976562
934,795.7875366210938,792.5640869140625,796.5933837890625,794.981689453125
935,797.8021850585938,792.1611938476562,797.3992919921875,792.5640869140625
936,793.7728881835938,793.3699340820312,799.4139404296875,795.3846435546875
937,791.7582397460938,793.3699340820312,796.996337890625,794.5787353515625
938,790.5494384765625,796.996337890625,794.981689453125,797.8021850585938
939,789.3406372070312,791.7582397460938,798.6080322265625,796.996337890625
940,791.7582397460938,789.3406372070312,794.981689453125,803.4432373046875
941,790.952392578125,796.5933837890625,794.1758422851562,808.6813354492188
942,789.3406372070312,794.981689453125,798.2051391601562,796.996337890625
943,790.5494384765625,786.923095703125,797.8021850585938,796.1904907226562
944,792.967041015625,788.937744140625,797.3992919921875,797.8021850585938
945,796.1904907226562,793.3699340820312,795.3846435546875,796.1904907226562
946,794.981689453125,794.981689453125,794.1758422851562,796.996337890625
947,793.3699340820312,792.1611938476562,794.1758422851562,794.1758422851562
948,794.1758422851562,791.7582397460938,790.5494384765625,793.7728881835938
949,795.3846435546875,801.025634765625,795.3846435546875,797.8021850585938
950,795.3846435546875,801.025634765625,798.6080322265625,798.6080322265625
951,797.3992919921875,794.1758422851562,796.996337890625,803.040283203125
952,789.3406372070312,792.1611938476562,797.3992919921875,800.6226806640625
953,788.1318969726562,794.981689453125,796.996337890625,794.981689453125
954,799.010986328125,796.996337890625,795.3846435546875,797.3992919921875
955,798.2051391601562,797.8021850585938,797.3992919921875,798.2051391601562
956,793.7728881835938,796.996337890625,795.7875366210938,797.3992919921875
957,793.7728881835938,798.2051391601562,794.1758422851562,793.7728881835938
958,798.2051391601562,801.8314819335938,795.3846435546875,799.4139404296875
959,801.4285888671875,801.4285888671875,795.7875366210938,804.6520385742188
960,801.025634765625,801.025634765625,799.4139404296875,801.8314819335938
961,796.996337890625,798.2051391601562,797.8021850585938,797.8021850585938
962,790.952392578125,796.1904907226562,793.3699340820312,791.7582397460938
963,794.1758422851562,795.3846435546875,798.2051391601562,801.025634765625
964,799.010986328125,793.3699340820312,797.8021850585938,799.8168334960938
965,792.967041015625,791.7582397460938,796.1904907226562,782.087890625
966,794.1758422851562,796.1904907226562,799.4139404296875,786.923095703125
967,795.3846435546875,799.010986328125,800.2197875976562,795.3846435546875
968,792.5640869140625,796.1904907226562,802.2344360351562,789.3406372070312
969,796.996337890625,794.981689453125,803.4432373046875,789.7435913085938
970,800.2197875976562,794.981689453125,801.4285888671875,790.5494384765625
971,794.1758422851562,794.981689453125,797.8021850585938,788.1318969726562
972,788.1318969726562,794.5787353515625,795.7875366210938,788.5347900390625
973,791.7582397460938,794.1758422851562,794.5787353515625,794.981689453125
974,792.5640869140625,790.5494384765625,794.1758422851562,794.5787353515625
975,796.996337890625,787.3259887695312,794.981689453125,792.1611938476562
976,794.981689453125,782.087890625,797.3992919921875,793.3699340820312
977,794.981689453125,785.3113403320312,801.8314819335938,796.1904907226562
978,792.5640869140625,786.1171875,798.6080322265625,800.6226806640625
979,789.7435913085938,787.3259887695312,796.5933837890625,802.6373901367188
980,799.4139404296875,789.7435913085938,798.6080322265625,802.6373901367188
981,803.040283203125,787.7289428710938,797.3992919921875,801.025634765625
982,792.1611938476562,786.5201416015625,796.5933837890625,793.3699340820312
983,789.7435913085938,786.1171875,798.2051391601562,793.3699340820312
984,792.5640869140625,788.937744140625,795.7875366210938,791.3552856445312
985,794.1758422851562,785.7142944335938,797.8021850585938,789.3406372070312
986,800.6226806640625,787.7289428710938,802.2344360351562,800.6226806640625
987,801.4285888671875,788.5347900390625,800.6226806640625,801.025634765625
988,799.4139404296875,786.923095703125,799.8168334960938,792.1611938476562
989,803.8461303710938,790.1465454101562,796.1904907226562,790.5494384765625
990,808.6813354492188,795.3846435546875,799.010986328125,794.981689453125
991,805.8607788085938,798.6080322265625,803.4432373046875,797.3992919921875
992,799.8168334960938,797.8021850585938,797.3992919921875,792.1611938476562
993,802.2344360351562,793.3699340820312,794.981689453125,790.5494384765625
994,803.040283203125,788.937744140625,796.996337890625,803.8461303710938
995,801.4285888671875,790.1465454101562,796.996337890625,806.2637329101562
996,800.6226806640625,794.1758422851562,796.1904907226562,799.4139404296875
997,802.6373901367188,793.7728881835938,795.3846435546875,802.2344360351562
998,805.4578857421875,795.3846435546875,790.1465454101562,799.8168334960938
999,803.8461303710938,793.7728881835938,788.937744140625,794.981689453125
1000,800.6226806640625,787.7289428710938,790.952392578125,791.3552856445312
1001,795.3846435546875,790.952392578125,788.937744140625,785.7142944335938
1002,790.5494384765625,792.1611938476562,791.3552856445312,792.5640869140625
1003,788.1318969726562,792.967041015625,791.7582397460938,793.7728881835938
1004,787.3259887695312,794.5787353515625,789.7435913085938,783.6996459960938
1005,786.1171875,794.5787353515625,789.7435913085938,778.05859375
1006,786.923095703125,797.3992919921875,793.3699340820312,788.1318969726562
1007,788.1318969726562,790.952392578125,794.1758422851562,790.5494384765625
1008,784.908447265625,785.7142944335938,793.3699340820312,788.937744140625
1009,792.1611938476562,793.7728881835938,794.981689453125,802.6373901367188
1010,795.7875366210938,792.1611938476562,795.3846435546875,799.8168334960938
1011,793.3699340820312,786.5201416015625,794.1758422851562,793.3699340820312
1012,792.967041015625,791.3552856445312,792.5640869140625,801.8314819335938
1013,799.4139404296875,792.5640869140625,792.5640869140625,807.87548828125
1014,798.2051391601562,790.1465454101562,795.7875366210938,803.8461303710938
1015,793.3699340820312,787.7289428710938,800.2197875976562,803.4432373046875
1016,792.1611938476562,787.7289428710938,795.7875366210938,802.6373901367188
1017,792.1611938476562,790.1465454101562,792.5640869140625,800.2197875976562
1018,792.967041015625,789.7435913085938,794.1758422851562,800.2197875976562
1019,795.3846435546875,787.3259887695312,795.7875366210938,800.2197875976562
1020,797.8021850585938,789.7435913085938,797.8021850585938,800.2197875976562
1021,797.3992919921875,794.981689453125,797.8021850585938,805.054931640625
1022,791.7582397460938,791.3552856445312,792.5640869140625,803.040283203125
1023,793.7728881835938,792.967041015625,791.7582397460938,799.010986328125
1024,792.967041015625,794.1758422851562,794.981689453125,799.010986328125
1025,788.937744140625,793.7728881835938,795.7875366210938,803.4432373046875
1026,794.1758422851562,796.996337890625,799.010986328125,799.010986328125
1027,798.6080322265625,799.010986328125,797.3992919921875,794.981689453125
1028,797.3992919921875,800.2197875976562,793.7728881835938,798.2051391601562
1029,798.2051391601562,798.2051391601562,794.981689453125,792.5640869140625
1030,806.2637329101562,794.981689453125,796.5933837890625,789.7435913085938
1031,809.084228515625,795.3846435546875,799.4139404296875,791.3552856445312
1032,801.8314819335938,794.1758422851562,798.6080322265625,793.3699340820312
1033,797.8021850585938,793.7728881835938,801.4285888671875,793.7728881835938
1034,796.5933837890625,792.967041015625,804.6520385742188,792.5640869140625
1035,791.3552856445312,790.1465454101562,803.8461303710938,791.3552856445312
1036,794.1758422851562,790.952392578125,802.2344360351562,804.2490844726562
1037,794.981689453125,792.1611938476562,802.2344360351562,806.6666870117188
1038,788.5347900390625,788.937744140625,799.4139404296875,796.996337890625
1039,789.3406372070312,787.7289428710938,794.981689453125,797.8021850585938
1040,797.8021850585938,790.952392578125,793.3699340820312,802.2344360351562
1041,800.2197875976562,794.1758422851562,796.5933837890625,806.2637329101562
1042,798.6080322265625,795.7875366210938,794.981689453125,807.4725341796875
1043,799.8168334960938,790.952392578125,792.1611938476562,807.87548828125
1044,799.010986328125,792.1611938476562,794.981689453125,806.2637329101562
1045,801.8314819335938,796.996337890625,792.1611938476562,800.6226806640625
1046,805.054931640625,791.7582397460938,792.1611938476562,798.6080322265625
1047,801.025634765625,787.7289428710938,792.1611938476562,798.6080322265625
1048,795.7875366210938,788.5347900390625,789.7435913085938,799.8168334960938
1049,788.937744140625,790.952392578125,788.1318969726562,793.3699340820312
1050,787.3259887695312,791.3552856445312,784.1025390625,787.7289428710938
1051,795.7875366210938,784.5054931640625,787.3259887695312,794.1758422851562
1052,799.8168334960938,786.1171875,791.3552856445312,803.4432373046875
1053,796.1904907226562,788.937744140625,789.3406372070312,798.2051391601562
1054,797.3992919921875,784.5054931640625,794.1758422851562,789.3406372070312
1055,801.025634765625,787.7289428710938,796.1904907226562,794.1758422851562
1056,797.8021850585938,791.7582397460938,795.3846435546875,796.5933837890625
1057,792.967041015625,792.5640869140625,799.8168334960938,792.1611938476562
1058,793.3699340820312,796.5933837890625,801.8314819335938,794.981689453125
1059,786.1171875,792.5640869140625,797.3992919921875,797.3992919921875
1060,783.6996459960938,785.7142944335938,795.7875366210938,791.7582397460938
1061,792.5640869140625,786.923095703125,794.981689453125,794.1758422851562
1062,794.5787353515625,790.952392578125,796.1904907226562,797.3992919921875
1063,793.3699340820312,787.3259887695312,796.996337890625,797.8021850585938
1064,794.5787353515625,784.1025390625,796.1904907226562,790.952392578125
1065,798.6080322265625,788.1318969726562,796.1904907226562,789.3406372070312
1066,799.010986328125,792.5640869140625,796.1904907226562,796.996337890625
1067,797.8021850585938,789.3406372070312,792.5640869140625,798.6080322265625
1068,799.010986328125,787.3259887695312,797.8021850585938,799.4139404296875
1069,803.040283203125,791.7582397460938,802.6373901367188,798.6080322265625
1070,802.6373901367188,789.7435913085938,795.7875366210938,800.2197875976562
1071,796.996337890625,786.5201416015625,792.1611938476562,803.4432373046875
1072,801.8314819335938,787.7289428710938,791.3552856445312,801.4285888671875
1073,803.4432373046875,790.5494384765625,792.1611938476562,801.4285888671875
1074,795.7875366210938,792.1611938476562,790.1465454101562,803.4432373046875
1075,799.4139404296875,789.7435913085938,791.7582397460938,807.87548828125
1076,804.6520385742188,794.981689453125,796.1904907226562,804.6520385742188
1077,805.8607788085938,795.3846435546875,796.5933837890625,798.2051391601562
1078,809.084228515625,796.5933837890625,796.5933837890625,799.8168334960938
1079,802.6373901367188,795.7875366210938,799.4139404296875,803.4432373046875
1080,792.5640869140625,792.967041015625,798.6080322265625,803.4432373046875
1081,795.3846435546875,789.7435913085938,796.1904907226562,803.8461303710938
1082,794.5787353515625,787.7289428710938,792.1611938476562,803.8461303710938
1083,786.1171875,794.1758422851562,788.1318969726562,800.2197875976562
1084,784.908447265625,795.7875366210938,792.1611938476562,794.981689453125
1085,786.923095703125,794.1758422851562,793.7728881835938,793.7728881835938
1086,789.7435913085938,791.7582397460938,790.952392578125,799.010986328125
1087,791.3552856445312,789.7435913085938,796.5933837890625,796.1904907226562
1088,796.996337890625,790.5494384765625,800.6226806640625,795.7875366210938
1089,803.040283203125,786.1171875,798.6080322265625,802.6373901367188
1090,798.2051391601562,785.7142944335938,795.3846435546875,803.040283203125
1091,797.8021850585938,791.7582397460938,793.7728881835938,800.2197875976562
1092,805.4578857421875,796.5933837890625,798.2051391601562,799.4139404296875
1093,809.89013671875,796.5933837890625,801.8314819335938,796.996337890625
1094,809.89013671875,792.967041015625,801.8314819335938,797.3992919921875
1095,805.4578857421875,792.967041015625,802.6373901367188,800.6226806640625
1096,806.2637329101562,793.3699340820312,802.6373901367188,802.2344360351562
1097,811.90478515625,787.3259887695312,800.2197875976562,804.6520385742188
1098,813.91943359375,787.7289428710938,797.3992919921875,810.2930297851562
1099,805.8607788085938,796.1904907226562,798.6080322265625,802.6373901367188
1100,801.4285888671875,799.4139404296875,801.8314819335938,800.2197875976562
1101,802.2344360351562,793.7728881835938,804.6520385742188,809.4871826171875
1102,801.025634765625,788.5347900390625,804.2490844726562,810.6959838867188
1103,806.6666870117188,792.967041015625,808.6813354492188,811.098876953125
1104,807.4725341796875,799.010986328125,806.2637329101562,805.054931640625
1105,800.6226806640625,794.5787353515625,798.6080322265625,801.025634765625
1106,802.2344360351562,791.3552856445312,800.6226806640625,803.4432373046875
1107,801.8314819335938,793.3699340820312,800.2197875976562,798.6080322265625
1108,801.4285888671875,790.1465454101562,796.996337890625,792.1611938476562
1109,803.4432373046875,782.893798828125,798.2051391601562,797.3992919921875
1110,795.3846435546875,783.6996459960938,796.5933837890625,792.5640869140625
1111,795.7875366210938,788.5347900390625,797.3992919921875,789.3406372070312
1112,796.5933837890625,788.937744140625,798.2051391601562,794.981689453125
1113,795.7875366210938,790.952392578125,795.7875366210938,797.8021850585938
1114,794.1758422851562,790.1465454101562,799.8168334960938,797.8021850585938
1115,791.7582397460938,789.7435913085938,800.6226806640625,798.6080322265625
1116,790.5494384765625,788.5347900390625,795.3846435546875,799.4139404296875
1117,788.1318969726562,787.7289428710938,794.1758422851562,798.6080322265625
1118,790.952392578125,793.3699340820312,803.040283203125,799.4139404296875
1119,788.937744140625,792.5640869140625,803.8461303710938,798.6080322265625
1120,782.893798828125,783.6996459960938,798.2051391601562,800.6226806640625
1121,785.3113403320312,788.1318969726562,800.2197875976562,805.4578857421875
1122,788.937744140625,795.3846435546875,802.6373901367188,800.6226806640625
1123,791.7582397460938,791.7582397460938,800.6226806640625,796.996337890625
1124,791.7582397460938,789.7435913085938,801.025634765625,798.6080322265625
1125,793.3699340820312,795.7875366210938,801.4285888671875,800.6226806640625
1126,794.981689453125,797.8021850585938,802.2344360351562,801.025634765625
1127,792.967041015625,791.7582397460938,800.2197875976562,792.1611938476562
1128,793.3699340820312,792.5640869140625,794.1758422851562,790.5494384765625
1129,800.6226806640625,792.967041015625,794.981689453125,793.3699340820312
1130,802.2344360351562,793.3699340820312,803.4432373046875,790.5494384765625
1131,799.010986328125,798.2051391601562,803.4432373046875,794.981689453125
1132,804.6520385742188,794.5787353515625,799.4139404296875,805.054931640625
1133,802.6373901367188,790.952392578125,799.010986328125,803.040283203125
1134,799.8168334960938,796.1904907226562,799.010986328125,790.5494384765625
1135,801.4285888671875,792.1611938476562,798.2051391601562,792.1611938476562
1136,799.8168334960938,788.937744140625,801.025634765625,792.1611938476562
1137,799.010986328125,794.5787353515625,803.8461303710938,791.3552856445312
1138,800.2197875976562,793.7728881835938,807.069580078125,802.2344360351562
1139,798.6080322265625,791.7582397460938,804.2490844726562,803.4432373046875
1140,794.5787353515625,791.7582397460938,799.8168334960938,803.040283203125
1141,790.1465454101562,790.1465454101562,801.025634765625,805.4578857421875
1142,784.5054931640625,790.952392578125,802.6373901367188,801.8314819335938
1143,788.5347900390625,787.3259887695312,801.8314819335938,798.6080322265625
1144,789.3406372070312,783.6996459960938,800.6226806640625,795.3846435546875
1145,780.0732421875,784.5054931640625,797.3992919921875,788.937744140625
1146,780.4761962890625,784.5054931640625,801.025634765625,790.5494384765625
1147,785.7142944335938,784.1025390625,805.8607788085938,801.025634765625
1148,784.5054931640625,788.937744140625,805.4578857421875,803.8461303710938
1149,784.908447265625,788.5347900390625,800.2197875976562,788.937744140625
1150,788.1318969726562,784.5054931640625,800.2197875976562,790.952392578125
1151,783.6996459960938,788.1318969726562,801.4285888671875,795.3846435546875
1152,786.1171875,790.952392578125,798.6080322265625,788.1318969726562
1153,794.5787353515625,795.7875366210938,799.8168334960938,797.8021850585938
1154,802.6373901367188,794.981689453125,800.2197875976562,808.2783813476562
1155,810.2930297851562,795.7875366210938,796.5933837890625,803.8461303710938
1156,809.4871826171875,799.4139404296875,796.996337890625,803.8461303710938
1157,807.4725341796875,797.3992919921875,797.3992919921875,803.040283203125
1158,813.113525390625,792.967041015625,796.996337890625,807.069580078125
1159,820.7692260742188,795.3846435546875,797.3992919921875,820.7692260742188
1160,816.7399291992188,797.8021850585938,797.8021850585938,811.098876953125
1161,811.90478515625,796.5933837890625,795.3846435546875,804.2490844726562
1162,803.8461303710938,792.5640869140625,792.1611938476562,804.6520385742188
1163,797.8021850585938,794.5787353515625,796.1904907226562,796.996337890625
1164,795.3846435546875,796.996337890625,797.3992919921875,793.3699340820312
1165,787.3259887695312,793.3699340820312,793.3699340820312,794.1758422851562
1166,783.6996459960938,788.937744140625,792.1611938476562,793.7728881835938
1167,783.2966918945312,788.5347900390625,797.3992919921875,797.3992919921875
1168,785.3113403320312,789.3406372070312,798.2051391601562,798.6080322265625
1169,785.7142944335938,787.7289428710938,794.5787353515625,795.7875366210938
1170,784.1025390625,780.0732421875,794.1758422851562,800.6226806640625
1171,788.937744140625,780.0732421875,796.1904907226562,807.4725341796875
1172,792.1611938476562,787.3259887695312,797.3992919921875,808.2783813476562
1173,793.3699340820312,784.908447265625,796.5933837890625,805.8607788085938
1174,797.8021850585938,784.1025390625,794.981689453125,801.8314819335938
1175,794.1758422851562,787.7289428710938,795.3846435546875,800.2197875976562
1176,785.3113403320312,785.7142944335938,794.981689453125,796.5933837890625
1177,784.1025390625,784.1025390625,795.3846435546875,796.5933837890625
1178,790.5494384765625,785.7142944335938,797.8021850585938,801.025634765625
1179,793.3699340820312,786.5201416015625,799.010986328125,794.981689453125
1180,796.5933837890625,786.923095703125,799.010986328125,790.952392578125
1181,796.1904907226562,788.937744140625,801.8314819335938,793.7728881835938
1182,796.1904907226562,786.1171875,795.3846435546875,800.2197875976562
1183,793.3699340820312,782.893798828125,789.7435913085938,790.952392578125
1184,799.010986328125,786.5201416015625,792.5640869140625,779.6703491210938
1185,805.8607788085938,791.7582397460938,791.3552856445312,786.1171875
1186,803.040283203125,792.5640869140625,788.5347900390625,792.5640869140625
1187,802.2344360351562,792.967041015625,793.3699340820312,794.981689453125
1188,801.025634765625,791.7582397460938,790.952392578125,790.5494384765625
1189,796.1904907226562,792.967041015625,789.3406372070312,785.7142944335938
1190,799.8168334960938,791.7582397460938,792.967041015625,789.3406372070312
1191,801.4285888671875,791.3552856445312,793.3699340820312,793.7728881835938
1192,792.967041015625,790.5494384765625,788.1318969726562,790.952392578125
1193,792.967041015625,790.5494384765625,787.3259887695312,790.1465454101562
1194,795.3846435546875,788.5347900390625,788.5347900390625,798.6080322265625
1195,790.5494384765625,787.3259887695312,790.952392578125,797.8021850585938
1196,796.5933837890625,790.952392578125,798.2051391601562,796.996337890625
1197,794.981689453125,786.5201416015625,797.8021850585938,796.996337890625
1198,783.2966918945312,784.1025390625,799.8168334960938,800.6226806640625
1199,784.5054931640625,783.6996459960938,800.6226806640625,802.2344360351562
1200,792.5640869140625,782.893798828125,795.7875366210938,804.6520385742188
1201,795.3846435546875,787.7289428710938,797.8021850585938,809.4871826171875
1202,792.1611938476562,791.3552856445312,797.8021850585938,800.6226806640625
1203,785.7142944335938,792.967041015625,797.8021850585938,792.5640869140625
1204,786.5201416015625,791.3552856445312,801.4285888671875,796.5933837890625
1205,799.8168334960938,790.5494384765625,801.4285888671875,808.6813354492188
1206,798.6080322265625,791.7582397460938,799.4139404296875,802.6373901367188
1207,788.5347900390625,788.1318969726562,799.4139404296875,787.7289428710938
1208,789.3406372070312,787.3259887695312,797.8021850585938,790.952392578125
1209,784.1025390625,790.1465454101562,793.7728881835938,790.5494384765625
1210,784.5054931640625,788.1318969726562,793.7728881835938,788.1318969726562
1211,790.952392578125,790.1465454101562,793.7728881835938,787.7289428710938
1212,789.7435913085938,789.3406372070312,790.952392578125,786.1171875
1213,785.3113403320312,782.4908447265625,790.1465454101562,785.3113403320312
1214,784.1025390625,784.908447265625,793.3699340820312,784.5054931640625
1215,791.3552856445312,788.5347900390625,797.8021850585938,787.3259887695312
1216,799.8168334960938,789.7435913085938,799.4139404296875,791.7582397460938
1217,800.6226806640625,789.7435913085938,796.5933837890625,800.6226806640625
1218,797.8021850585938,792.1611938476562,797.3992919921875,799.010986328125
1219,798.6080322265625,791.3552856445312,803.4432373046875,795.3846435546875
1220,805.8607788085938,789.7435913085938,803.040283203125,799.4139404296875
1221,809.4871826171875,791.3552856445312,799.4139404296875,808.2783813476562
1222,802.6373901367188,795.3846435546875,794.981689453125,809.084228515625
1223,800.6226806640625,796.5933837890625,795.3846435546875,805.4578857421875
1224,803.8461303710938,794.1758422851562,796.5933837890625,799.8168334960938
1225,804.6520385742188,792.967041015625,792.967041015625,793.3699340820312
1226,805.4578857421875,792.967041015625,795.3846435546875,787.7289428710938
1227,805.8607788085938,791.7582397460938,797.8021850585938,789.3406372070312
1228,804.2490844726562,788.1318969726562,799.010986328125,799.010986328125
1229,799.8168334960938,784.5054931640625,797.3992919921875,797.3992919921875
1230,797.8021850585938,781.2820434570312,798.2051391601562,790.5494384765625
1231,797.8021850585938,780.879150390625,797.3992919921875,794.5787353515625
1232,794.981689453125,786.5201416015625,792.1611938476562,801.8314819335938
1233,792.1611938476562,792.1611938476562,795.7875366210938,798.6080322265625
1234,785.3113403320312,790.5494384765625,796.1904907226562,793.7728881835938
1235,787.3259887695312,790.952392578125,789.7435913085938,792.5640869140625
1236,794.981689453125,794.981689453125,792.5640869140625,793.3699340820312
1237,801.8314819335938,797.8021850585938,796.996337890625,796.996337890625
1238,800.2197875976562,795.3846435546875,796.996337890625,796.1904907226562
1239,799.010986328125,791.3552856445312,799.4139404296875,795.7875366210938
1240,801.8314819335938,791.3552856445312,799.010986328125,793.7728881835938
1241,799.8168334960938,790.952392578125,794.981689453125,788.5347900390625
1242,806.2637329101562,792.5640869140625,792.5640869140625,795.7875366210938
1243,809.084228515625,788.937744140625,795.3846435546875,796.996337890625
1244,804.6520385742188,789.3406372070312,798.6080322265625,799.010986328125
1245,796.996337890625,790.5494384765625,799.4139404296875,799.4139404296875
1246,792.967041015625,788.5347900390625,798.2051391601562,796.5933837890625
1247,798.2051391601562,789.3406372070312,801.025634765625,796.5933837890625
1248,791.3552856445312,790.1465454101562,800.6226806640625,796.1904907226562
1249,782.4908447265625,789.7435913085938,796.996337890625,794.5787353515625
1250,788.937744140625,790.5494384765625,799.010986328125,792.1611938476562
1251,798.6080322265625,791.3552856445312,801.025634765625,795.7875366210938
1252,796.5933837890625,792.1611938476562,799.8168334960938,793.3699340820312
1253,788.937744140625,791.7582397460938,798.2051391601562,784.5054931640625
1254,790.952392578125,788.5347900390625,797.3992919921875,784.908447265625
1255,795.7875366210938,792.5640869140625,799.010986328125,795.7875366210938
1256,795.3846435546875,796.5933837890625,800.6226806640625,793.3699340820312
1257,797.8021850585938,793.7728881835938,799.010986328125,786.923095703125
1258,799.4139404296875,796.996337890625,803.4432373046875,792.5640869140625
1259,799.8168334960938,797.8021850585938,801.4285888671875,798.6080322265625
1260,798.2051391601562,800.2197875976562,797.3992919921875,793.3699340820312
1261,794.5787353515625,796.996337890625,794.5787353515625,786.923095703125
1262,795.7875366210938,791.3552856445312,793.7728881835938,789.7435913085938
1263,793.7728881835938,790.1465454101562,796.996337890625,789.7435913085938
1264,789.7435913085938,787.7289428710938,798.2051391601562,781.2820434570312
1265,791.3552856445312,793.3699340820312,797.3992919921875,780.4761962890625
1266,796.1904907226562,796.1904907226562,800.2197875976562,796.5933837890625
1267,795.7875366210938,791.7582397460938,800.6226806640625,807.4725341796875
1268,792.967041015625,789.3406372070312,801.4285888671875,803.4432373046875
1269,792.967041015625,793.7728881835938,805.054931640625,801.025634765625
1270,789.3406372070312,793.3699340820312,799.4139404296875,793.7728881835938
1271,790.1465454101562,788.5347900390625,800.2197875976562,785.7142944335938
1272,792.967041015625,791.3552856445312,805.054931640625,790.5494384765625
1273,794.1758422851562,790.1465454101562,800.2197875976562,794.5787353515625
1274,794.981689453125,787.7289428710938,801.025634765625,794.981689453125
1275,793.3699340820312,786.5201416015625,804.2490844726562,795.3846435546875
1276,788.937744140625,790.1465454101562,799.4139404296875,792.5640869140625
1277,789.3406372070312,793.7728881835938,798.2051391601562,792.5640869140625
1278,799.010986328125,794.1758422851562,798.6080322265625,800.6226806640625
1279,799.4139404296875,799.010986328125,798.2051391601562,798.6080322265625
1280,790.952392578125,798.2051391601562,799.4139404296875,792.5640869140625
1281,790.1465454101562,795.3846435546875,800.2197875976562,794.981689453125
1282,792.5640869140625,795.3846435546875,799.8168334960938,792.967041015625
1283,794.981689453125,798.2051391601562,801.4285888671875,786.5201416015625
1284,799.4139404296875,801.025634765625,800.6226806640625,785.7142944335938
1285,794.5787353515625,798.2051391601562,799.4139404296875,786.5201416015625
1286,791.7582397460938,796.996337890625,794.1758422851562,787.3259887695312
1287,801.4285888671875,795.7875366210938,794.1758422851562,793.3699340820312
1288,799.8168334960938,791.7582397460938,800.6226806640625,796.5933837890625
1289,790.5494384765625,792.967041015625,798.6080322265625,800.2197875976562
1290,801.4285888671875,795.7875366210938,796.5933837890625,809.4871826171875
1291,809.084228515625,800.2197875976562,801.4285888671875,801.8314819335938
1292,796.1904907226562,805.8607788085938,803.4432373046875,790.5494384765625
1293,785.3113403320312,803.8461303710938,799.4139404296875,784.908447265625
1294,790.1465454101562,800.6226806640625,801.025634765625,791.7582397460938
1295,794.5787353515625,798.2051391601562,799.4139404296875,794.5787353515625
1296,800.2197875976562,796.1904907226562,797.8021850585938,796.5933837890625
1297,807.87548828125,794.5787353515625,803.8461303710938,809.89013671875
1298,806.2637329101562,791.7582397460938,801.8314819335938,813.5164794921875
1299,803.040283203125,792.5640869140625,804.2490844726562,816.3369750976562
1300,802.2344360351562,797.3992919921875,807.87548828125,815.93408203125
1301,799.8168334960938,797.3992919921875,804.2490844726562,814.3223266601562
1302,799.8168334960938,796.5933837890625,805.8607788085938,811.90478515625
1303,796.996337890625,801.8314819335938,805.4578857421875,803.040283203125
1304,794.981689453125,801.8314819335938,801.4285888671875,803.8461303710938
1305,797.3992919921875,799.010986328125,803.4432373046875,806.6666870117188
1306,798.2051391601562,800.2197875976562,806.2637329101562,801.025634765625
1307,805.054931640625,796.996337890625,808.6813354492188,803.040283203125
1308,807.069580078125,790.5494384765625,812.7106323242188,810.2930297851562
1309,792.967041015625,790.5494384765625,816.7399291992188,805.054931640625
1310,791.7582397460938,792.1611938476562,815.1282348632812,803.4432373046875
1311,793.3699340820312,789.7435913085938,811.90478515625,807.87548828125
1312,784.908447265625,789.3406372070312,807.87548828125,803.040283203125
1313,786.1171875,794.981689453125,807.069580078125,801.4285888671875
1314,786.5201416015625,793.7728881835938,806.6666870117188,798.6080322265625
1315,782.893798828125,789.7435913085938,800.2197875976562,789.3406372070312
1316,791.3552856445312,797.3992919921875,802.6373901367188,799.010986328125
1317,789.3406372070312,792.967041015625,803.4432373046875,807.069580078125
1318,781.2820434570312,786.1171875,799.4139404296875,794.5787353515625
1319,784.1025390625,786.923095703125,803.8461303710938,794.5787353515625
1320,790.952392578125,786.1171875,801.025634765625,802.2344360351562
1321,794.1758422851562,786.923095703125,796.1904907226562,802.2344360351562
1322,787.3259887695312,789.3406372070312,795.7875366210938,798.6080322265625
1323,787.7289428710938,791.7582397460938,793.7728881835938,799.4139404296875
1324,794.981689453125,794.1758422851562,794.981689453125,801.8314819335938
1325,794.1758422851562,793.3699340820312,797.3992919921875,794.5787353515625
1326,793.7728881835938,792.967041015625,796.1904907226562,787.7289428710938
1327,788.937744140625,793.3699340820312,792.5640869140625,793.7728881835938
1328,791.7582397460938,790.1465454101562,790.952392578125,794.5787353515625
1329,799.8168334960938,789.3406372070312,792.5640869140625,791.7582397460938
1330,794.5787353515625,784.5054931640625,793.7728881835938,792.5640869140625
1331,794.981689453125,788.5347900390625,791.7582397460938,800.6226806640625
1332,795.7875366210938,791.7582397460938,790.1465454101562,803.8461303710938
1333,793.3699340820312,786.923095703125,793.3699340820312,795.3846435546875
1334,798.2051391601562,794.5787353515625,792.967041015625,794.5787353515625
1335,797.8021850585938,794.5787353515625,788.937744140625,794.981689453125
1336,793.7728881835938,791.3552856445312,790.1465454101562,794.1758422851562
1337,792.5640869140625,794.981689453125,789.7435913085938,792.1611938476562
1338,793.7728881835938,793.7728881835938,789.3406372070312,783.6996459960938
1339,797.8021850585938,787.3259887695312,794.1758422851562,787.7289428710938
1340,796.1904907226562,785.3113403320312,799.010986328125,787.3259887695312
1341,792.1611938476562,790.952392578125,800.2197875976562,782.4908447265625
1342,792.967041015625,789.7435913085938,801.4285888671875,782.893798828125
1343,792.1611938476562,784.5054931640625,799.010986328125,786.5201416015625
1344,795.3846435546875,790.1465454101562,799.4139404296875,788.5347900390625
1345,801.025634765625,794.981689453125,802.6373901367188,791.7582397460938
1346,794.981689453125,789.7435913085938,801.025634765625,790.5494384765625
1347,795.3846435546875,788.5347900390625,800.6226806640625,789.7435913085938
1348,800.6226806640625,787.7289428710938,799.010986328125,788.1318969726562
1349,798.2051391601562,790.5494384765625,799.010986328125,790.952392578125
1350,800.2197875976562,788.937744140625,798.6080322265625,794.1758422851562
1351,804.2490844726562,785.7142944335938,796.996337890625,803.8461303710938
1352,803.8461303710938,792.1611938476562,801.8314819335938,807.069580078125
1353,798.6080322265625,793.7728881835938,804.2490844726562,800.6226806640625
1354,793.7728881835938,793.7728881835938,801.4285888671875,797.8021850585938
1355,795.3846435546875,793.7728881835938,800.6226806640625,797.8021850585938
1356,796.1904907226562,792.967041015625,802.6373901367188,800.2197875976562
1357,792.1611938476562,791.3552856445312,799.010986328125,794.981689453125
1358,789.3406372070312,790.1465454101562,795.7875366210938,799.010986328125
1359,796.1904907226562,788.937744140625,797.3992919921875,807.4725341796875
1360,805.4578857421875,789.7435913085938,799.010986328125,801.8314819335938
1361,804.6520385742188,795.7875366210938,800.2197875976562,794.1758422851562
1362,800.2197875976562,794.981689453125,799.8168334960938,800.6226806640625
1363,801.4285888671875,796.1904907226562,799.010986328125,809.4871826171875
1364,794.5787353515625,803.040283203125,796.5933837890625,794.981689453125
1365,790.5494384765625,800.6226806640625,796.1904907226562,789.7435913085938
1366,795.7875366210938,795.7875366210938,797.8021850585938,800.2197875976562
1367,789.3406372070312,794.1758422851562,797.8021850585938,797.3992919921875
1368,790.5494384765625,797.8021850585938,795.3846435546875,796.1904907226562
1369,797.8021850585938,796.5933837890625,796.5933837890625,802.6373901367188
1370,799.4139404296875,786.923095703125,799.010986328125,803.4432373046875
1371,797.8021850585938,790.5494384765625,799.010986328125,798.2051391601562
1372,793.7728881835938,796.1904907226562,799.010986328125,790.952392578125
1373,788.1318969726562,789.3406372070312,801.8314819335938,788.1318969726562
1374,788.5347900390625,787.3259887695312,805.4578857421875,800.6226806640625
1375,789.3406372070312,791.3552856445312,805.4578857421875,801.025634765625
1376,787.7289428710938,794.981689453125,800.2197875976562,791.3552856445312
1377,792.1611938476562,798.2051391601562,805.054931640625,798.6080322265625
1378,795.3846435546875,799.4139404296875,807.069580078125,800.2197875976562
1379,791.7582397460938,792.967041015625,802.6373901367188,799.010986328125
1380,792.967041015625,794.981689453125,806.6666870117188,804.6520385742188
1381,796.996337890625,794.981689453125,807.069580078125,809.084228515625
1382,792.1611938476562,784.5054931640625,800.6226806640625,808.6813354492188
1383,789.7435913085938,784.908447265625,796.996337890625,803.8461303710938
1384,794.5787353515625,788.5347900390625,801.025634765625,799.4139404296875
1385,798.2051391601562,786.923095703125,804.2490844726562,806.6666870117188
1386,793.3699340820312,784.1025390625,798.2051391601562,809.4871826171875
1387,786.5201416015625,786.923095703125,795.7875366210938,797.3992919921875
1388,786.923095703125,792.1611938476562,796.996337890625,795.3846435546875
1389,787.7289428710938,793.7728881835938,796.5933837890625,799.010986328125
1390,788.1318969726562,790.1465454101562,798.2051391601562,795.7875366210938
1391,791.3552856445312,790.1465454101562,799.8168334960938,792.967041015625
1392,792.1611938476562,790.5494384765625,801.025634765625,793.7728881835938
1393,786.923095703125,787.7289428710938,799.4139404296875,794.1758422851562
1394,788.937744140625,790.1465454101562,798.2051391601562,801.025634765625
1395,796.5933837890625,791.7582397460938,798.6080322265625,804.6520385742188
1396,800.2197875976562,791.3552856445312,797.8021850585938,801.8314819335938
1397,796.5933837890625,790.5494384765625,797.3992919921875,805.4578857421875
1398,792.1611938476562,790.952392578125,797.3992919921875,801.4285888671875
1399,793.3699340820312,789.3406372070312,796.1904907226562,796.5933837890625
1400,800.6226806640625,785.3113403320312,792.5640869140625,798.6080322265625
1401,801.8314819335938,786.1171875,789.3406372070312,801.025634765625
1402,795.3846435546875,790.5494384765625,790.1465454101562,799.8168334960938
1403,794.5787353515625,791.3552856445312,794.1758422851562,796.5933837890625
1404,796.1904907226562,789.7435913085938,795.3846435546875,794.981689453125
1405,796.1904907226562,789.7435913085938,794.5787353515625,796.5933837890625
1406,797.8021850585938,788.937744140625,797.8021850585938,800.6226806640625
1407,799.4139404296875,785.7142944335938,793.7728881835938,799.4139404296875
1408,801.8314819335938,784.908447265625,788.1318969726562,801.8314819335938
1409,801.4285888671875,790.5494384765625,791.7582397460938,808.6813354492188
1410,796.5933837890625,792.1611938476562,797.3992919921875,797.3992919921875
1411,794.5787353515625,791.7582397460938,796.1904907226562,788.937744140625
1412,792.967041015625,790.952392578125,792.1611938476562,786.923095703125
1413,796.5933837890625,792.1611938476562,794.5787353515625,786.923095703125
1414,803.4432373046875,793.7728881835938,798.6080322265625,791.3552856445312
1415,808.2783813476562,794.981689453125,795.3846435546875,790.5494384765625
1416,809.4871826171875,793.3699340820312,797.3992919921875,794.5787353515625
1417,808.2783813476562,789.7435913085938,801.4285888671875,800.2197875976562
1418,810.2930297851562,791.3552856445312,800.2197875976562,801.025634765625
1419,804.6520385742188,791.3552856445312,796.996337890625,800.6226806640625
1420,796.996337890625,788.1318969726562,796.5933837890625,800.6226806640625
1421,796.5933837890625,793.3699340820312,798.2051391601562,801.025634765625
1422,793.7728881835938,793.7728881835938,799.010986328125,799.010986328125
1423,795.3846435546875,790.952392578125,800.2197875976562,799.4139404296875
1424,801.4285888671875,797.3992919921875,804.2490844726562,801.025634765625
1425,800.2197875976562,800.2197875976562,805.054931640625,796.5933837890625
1426,802.2344360351562,798.2051391601562,800.6226806640625,794.5787353515625
1427,802.6373901367188,793.3699340820312,801.8314819335938,799.010986328125
1428,799.4139404296875,791.3552856445312,801.8314819335938,801.8314819335938
1429,800.2197875976562,794.981689453125,800.2197875976562,796.996337890625
1430,800.2197875976562,798.6080322265625,796.996337890625,794.5787353515625
1431,798.2051391601562,801.8314819335938,797.8021850585938,803.8461303710938
1432,798.2051391601562,803.4432373046875,803.040283203125,809.4871826171875
1433,793.7728881835938,799.8168334960938,803.4432373046875,798.2051391601562
1434,791.7582397460938,793.7728881835938,798.2051391601562,789.7435913085938
1435,796.996337890625,796.996337890625,797.8021850585938,793.7728881835938
1436,796.996337890625,796.996337890625,802.2344360351562,798.2051391601562
1437,796.5933837890625,792.5640869140625,805.4578857421875,794.1758422851562
1438,796.1904907226562,792.967041015625,807.4725341796875,794.1758422851562
1439,792.967041015625,794.1758422851562,804.6520385742188,794.1758422851562
1440,792.967041015625,794.5787353515625,799.010986328125,796.996337890625
1441,796.996337890625,792.1611938476562,800.2197875976562,803.040283203125
1442,798.2051391601562,792.967041015625,800.6226806640625,799.8168334960938
1443,795.7875366210938,797.3992919921875,801.8314819335938,802.2344360351562
1444,790.1465454101562,795.7875366210938,799.010986328125,803.8461303710938
1445,790.1465454101562,794.5787353515625,796.5933837890625,795.7875366210938
1446,796.5933837890625,795.3846435546875,799.010986328125,801.025634765625
1447,804.2490844726562,793.7728881835938,800.6226806640625,814.3223266601562
1448,809.4871826171875,798.2051391601562,801.8314819335938,813.91943359375
1449,805.054931640625,801.4285888671875,797.3992919921875,799.8168334960938
1450,799.8168334960938,799.4139404296875,794.5787353515625,790.952392578125
1451,811.5018310546875,798.2051391601562,801.025634765625,795.7875366210938
1452,813.5164794921875,804.6520385742188,804.6520385742188,795.7875366210938
1453,803.040283203125,804.2490844726562,799.8168334960938,785.3113403320312
1454,796.5933837890625,793.7728881835938,798.2051391601562,785.7142944335938
1455,791.7582397460938,798.2051391601562,800.2197875976562,789.3406372070312
1456,789.3406372070312,799.8168334960938,796.5933837890625,783.6996459960938
1457,790.952392578125,794.981689453125,791.7582397460938,784.908447265625
1458,794.981689453125,795.7875366210938,791.3552856445312,792.1611938476562
1459,790.952392578125,791.7582397460938,791.7582397460938,790.1465454101562
1460,785.7142944335938,790.952392578125,794.5787353515625,784.908447265625
1461,789.3406372070312,789.3406372070312,795.7875366210938,788.5347900390625
1462,794.5787353515625,790.952392578125,798.2051391601562,791.7582397460938
1463,792.1611938476562,794.981689453125,796.996337890625,790.1465454101562
1464,785.7142944335938,795.7875366210938,800.6226806640625,790.952392578125
1465,784.1025390625,793.3699340820312,801.4285888671875,786.923095703125
1466,789.3406372070312,790.952392578125,797.8021850585938,795.7875366210938
1467,792.1611938476562,793.3699340820312,794.981689453125,801.8314819335938
1468,791.3552856445312,791.3552856445312,793.3699340820312,788.937744140625
1469,788.5347900390625,787.7289428710938,795.3846435546875,787.3259887695312
1470,792.1611938476562,792.967041015625,791.3552856445312,795.3846435546875
1471,802.6373901367188,793.3699340820312,799.4139404296875,798.6080322265625
1472,805.4578857421875,789.7435913085938,807.069580078125,797.8021850585938
1473,803.8461303710938,794.5787353515625,801.8314819335938,798.2051391601562
1474,800.6226806640625,792.5640869140625,803.040283203125,790.952392578125
1475,799.8168334960938,793.7728881835938,804.2490844726562,790.5494384765625
1476,801.8314819335938,797.8021850585938,798.6080322265625,794.981689453125
1477,800.2197875976562,794.5787353515625,794.1758422851562,787.3259887695312
1478,801.4285888671875,790.1465454101562,792.1611938476562,787.7289428710938
1479,796.996337890625,791.3552856445312,791.3552856445312,791.7582397460938
1480,790.1465454101562,792.1611938476562,789.7435913085938,785.7142944335938
1481,794.1758422851562,787.7289428710938,790.5494384765625,788.937744140625
1482,799.4139404296875,792.1611938476562,795.3846435546875,803.8461303710938
1483,792.5640869140625,797.8021850585938,796.996337890625,793.7728881835938
1484,790.5494384765625,790.5494384765625,794.1758422851562,786.923095703125
1485,793.7728881835938,784.908447265625,790.952392578125,795.3846435546875
1486,792.1611938476562,786.5201416015625,790.1465454101562,791.7582397460938
1487,790.5494384765625,790.952392578125,794.1758422851562,792.1611938476562
1488,794.981689453125,792.1611938476562,792.1611938476562,799.010986328125
1489,799.4139404296875,789.3406372070312,788.1318969726562,800.2197875976562
1490,801.4285888671875,787.7289428710938,792.5640869140625,797.3992919921875
1491,801.8314819335938,786.5201416015625,795.3846435546875,799.4139404296875
1492,799.8168334960938,788.5347900390625,794.1758422851562,801.025634765625
1493,799.8168334960938,790.5494384765625,797.8021850585938,805.4578857421875
1494,804.2490844726562,793.7728881835938,801.8314819335938,804.6520385742188
1495,801.8314819335938,793.7728881835938,805.8607788085938,802.2344360351562
1496,798.2051391601562,794.5787353515625,802.2344360351562,805.054931640625
1497,798.2051391601562,794.5787353515625,797.8021850585938,802.2344360351562
1498,799.010986328125,792.1611938476562,796.1904907226562,797.8021850585938
1499,801.8314819335938,790.1465454101562,790.5494384765625,796.5933837890625
1500,803.040283203125,785.3113403320312,784.908447265625,797.3992919921875
1501,794.5787353515625,782.893798828125,785.3113403320312,792.5640869140625
1502,789.7435913085938,787.7289428710938,788.1318969726562,790.952392578125
1503,794.5787353515625,789.3406372070312,790.5494384765625,792.1611938476562
1504,794.1758422851562,789.3406372070312,790.952392578125,792.967041015625
1505,791.3552856445312,787.3259887695312,792.5640869140625,800.6226806640625
1506,794.1758422851562,785.3113403320312,792.5640869140625,796.996337890625
1507,793.3699340820312,788.5347900390625,792.967041015625,792.1611938476562
1508,794.981689453125,791.3552856445312,795.3846435546875,792.5640869140625
1509,797.3992919921875,792.1611938476562,794.981689453125,792.1611938476562
1510,794.5787353515625,787.7289428710938,796.5933837890625,792.5640869140625
1511,792.967041015625,784.1025390625,796.5933837890625,792.5640869140625
1512,793.7728881835938,785.7142944335938,789.3406372070312,795.7875366210938
1513,797.3992919921875,788.937744140625,791.3552856445312,799.4139404296875
1514,796.1904907226562,790.952392578125,800.2197875976562,801.8314819335938
1515,793.7728881835938,794.1758422851562,798.6080322265625,798.2051391601562
1516,793.3699340820312,792.5640869140625,794.5787353515625,801.8314819335938
1517,790.5494384765625,791.7582397460938,792.967041015625,803.8461303710938
1518,792.1611938476562,794.1758422851562,794.1758422851562,797.8021850585938
1519,792.1611938476562,790.1465454101562,790.952392578125,793.3699340820312
1520,790.5494384765625,787.3259887695312,787.3259887695312,792.1611938476562
1521,792.5640869140625,788.1318969726562,788.937744140625,790.1465454101562
1522,798.2051391601562,790.1465454101562,794.981689453125,788.1318969726562
1523,802.2344360351562,796.5933837890625,796.996337890625,795.3846435546875
1524,796.5933837890625,799.4139404296875,793.3699340820312,796.5933837890625
1525,791.7582397460938,796.5933837890625,792.5640869140625,790.5494384765625
1526,792.1611938476562,796.5933837890625,793.7728881835938,792.5640869140625
1527,800.2197875976562,797.8021850585938,793.7728881835938,798.6080322265625
1528,805.8607788085938,796.996337890625,794.5787353515625,809.4871826171875
1529,797.8021850585938,799.010986328125,796.5933837890625,805.8607788085938
1530,794.5787353515625,797.8021850585938,792.5640869140625,799.4139404296875
1531,801.8314819335938,792.5640869140625,797.3992919921875,804.2490844726562
1532,795.3846435546875,792.5640869140625,805.054931640625,803.8461303710938
1533,788.1318969726562,789.7435913085938,799.8168334960938,795.3846435546875
1534,794.981689453125,788.1318969726562,796.996337890625,788.1318969726562
1535,798.2051391601562,788.1318969726562,794.1758422851562,789.7435913085938
1536,792.1611938476562,784.1025390625,795.3846435546875,791.7582397460938
1537,794.1758422851562,784.908447265625,798.6080322265625,795.7875366210938
1538,799.4139404296875,789.7435913085938,797.8021850585938,799.4139404296875
1539,796.1904907226562,787.3259887695312,800.2197875976562,798.6080322265625
1540,792.5640869140625,781.6849975585938,804.2490844726562,802.6373901367188
1541,790.5494384765625,784.5054931640625,801.8314819335938,799.010986328125
1542,791.3552856445312,790.5494384765625,800.6226806640625,796.5933837890625
1543,797.8021850585938,786.5201416015625,806.2637329101562,814.3223266601562
1544,796.1904907226562,784.5054931640625,806.6666870117188,813.5164794921875
1545,797.3992919921875,789.7435913085938,807.87548828125,805.054931640625
1546,794.1758422851562,792.967041015625,811.5018310546875,801.8314819335938
1547,788.1318969726562,790.952392578125,804.2490844726562,792.1611938476562
1548,786.1171875,785.7142944335938,798.6080322265625,786.1171875
1549,786.5201416015625,785.7142944335938,799.4139404296875,783.2966918945312
1550,788.937744140625,786.923095703125,799.4139404296875,786.5201416015625
1551,792.1611938476562,786.1171875,798.2051391601562,788.5347900390625
1552,796.1904907226562,785.7142944335938,798.2051391601562,789.7435913085938
1553,796.996337890625,790.5494384765625,800.2197875976562,792.5640869140625
1554,798.6080322265625,793.3699340820312,796.5933837890625,795.7875366210938
1555,804.6520385742188,798.2051391601562,792.1611938476562,805.054931640625
1556,803.4432373046875,802.6373901367188,795.7875366210938,795.3846435546875
1557,798.6080322265625,797.8021850585938,796.5933837890625,787.7289428710938
1558,799.4139404296875,797.8021850585938,793.3699340820312,792.5640869140625
1559,799.010986328125,797.3992919921875,792.967041015625,791.3552856445312
1560,798.2051391601562,794.981689453125,793.7728881835938,788.937744140625
1561,801.8314819335938,796.996337890625,791.7582397460938,790.5494384765625
1562,803.4432373046875,796.996337890625,793.3699340820312,793.7728881835938
1563,799.8168334960938,794.1758422851562,793.7728881835938,794.5787353515625
1564,796.996337890625,792.1611938476562,793.3699340820312,796.1904907226562
1565,801.025634765625,794.5787353515625,792.967041015625,794.1758422851562
1566,807.069580078125,793.7728881835938,797.3992919921875,801.4285888671875
1567,798.6080322265625,792.967041015625,803.040283203125,801.4285888671875
1568,788.937744140625,795.7875366210938,801.8314819335938,792.967041015625
1569,792.5640869140625,794.5787353515625,803.8461303710938,796.5933837890625
1570,790.952392578125,793.7728881835938,803.040283203125,796.1904907226562
1571,788.5347900390625,797.3992919921875,802.2344360351562,794.1758422851562
1572,791.3552856445312,796.5933837890625,807.069580078125,792.5640869140625
1573,789.7435913085938,793.3699340820312,808.2783813476562,799.4139404296875
1574,791.7582397460938,792.1611938476562,805.8607788085938,801.025634765625
