timestamp,RAW_TP9,RAW_AF7,RAW_AF8,RAW_TP10
1,824.3956298828125,818.7545776367188,774.4322509765625,804.6520385742188
2,815.1282348632812,817.5457763671875,774.8351440429688,808.2783813476562
3,816.7399291992188,807.87548828125,772.8204956054688,811.90478515625
4,819.1575317382812,811.098876953125,776.0439453125,810.6959838867188
5,817.1428833007812,820.7692260742188,776.8497924804688,805.4578857421875
6,815.93408203125,821.1721801757812,773.6264038085938,811.90478515625
7,814.3223266601562,812.3076782226562,771.6116943359375,806.2637329101562
8,815.93408203125,809.4871826171875,771.2088012695312,797.8021850585938
9,815.93408203125,811.098876953125,776.8497924804688,805.4578857421875
10,818.3516235351562,813.5164794921875,781.6849975585938,812.3076782226562
11,819.1575317382812,813.113525390625,783.2966918945312,809.89013671875
12,814.7252807617188,809.89013671875,781.6849975585938,803.4432373046875
13,815.93408203125,809.084228515625,781.6849975585938,806.2637329101562
14,815.93408203125,809.4871826171875,780.4761962890625,805.4578857421875
15,819.1575317382812,808.2783813476562,782.893798828125,802.6373901367188
16,819.5604248046875,808.2783813476562,785.3113403320312,804.6520385742188
17,815.5311279296875,801.4285888671875,786.923095703125,805.054931640625
18,811.5018310546875,798.6080322265625,785.7142944335938,803.4432373046875
19,810.6959838867188,805.054931640625,786.1171875,804.2490844726562
20,810.2930297851562,802.6373901367188,783.6996459960938,803.8461303710938
21,800.2197875976562,799.010986328125,779.2673950195312,796.1904907226562
22,800.6226806640625,803.8461303710938,778.8644409179688,794.981689453125
23,800.2197875976562,801.025634765625,779.2673950195312,796.1904907226562
24,794.1758422851562,798.2051391601562,779.2673950195312,793.3699340820312
25,796.5933837890625,799.010986328125,778.8644409179688,787.7289428710938
26,796.5933837890625,796.996337890625,781.6849975585938,784.1025390625
27,792.967041015625,794.1758422851562,782.087890625,787.7289428710938
28,791.7582397460938,794.5787353515625,780.0732421875,788.5347900390625
29,796.996337890625,794.1758422851562,782.893798828125,797.8021850585938
30,798.6080322265625,794.1758422851562,784.1025390625,807.87548828125
31,791.7582397460938,798.6080322265625,781.2820434570312,798.6080322265625
32,794.1758422851562,799.8168334960938,779.2673950195312,794.5787353515625
33,803.4432373046875,801.025634765625,784.908447265625,805.4578857421875
34,810.6959838867188,803.040283203125,794.5787353515625,805.8607788085938
35,807.87548828125,803.040283203125,792.967041015625,800.2197875976562
36,796.996337890625,797.8021850585938,786.5201416015625,796.996337890625
37,799.010986328125,797.8021850585938,788.937744140625,798.6080322265625
38,803.040283203125,802.2344360351562,791.3552856445312,807.069580078125
39,805.054931640625,802.6373901367188,790.1465454101562,803.4432373046875
40,803.040283203125,794.981689453125,792.967041015625,799.010986328125
41,791.7582397460938,788.1318969726562,794.5787353515625,796.996337890625
42,785.7142944335938,788.1318969726562,796.1904907226562,790.1465454101562
43,792.5640869140625,795.3846435546875,799.4139404296875,796.1904907226562
44,798.6080322265625,796.996337890625,799.010986328125,802.2344360351562
45,792.1611938476562,796.996337890625,794.5787353515625,798.6080322265625
46,790.5494384765625,799.010986328125,794.1758422851562,793.7728881835938
47,799.010986328125,794.5787353515625,794.5787353515625,796.996337890625
48,798.2051391601562,799.8168334960938,795.7875366210938,796.1904907226562
49,793.3699340820312,803.8461303710938,796.996337890625,792.967041015625
50,799.010986328125,797.8021850585938,794.981689453125,796.1904907226562
51,799.8168334960938,804.2490844726562,794.981689453125,793.3699340820312
52,790.952392578125,805.4578857421875,796.996337890625,788.5347900390625
53,794.5787353515625,801.025634765625,794.1758422851562,791.3552856445312
54,801.025634765625,800.6226806640625,789.7435913085938,786.923095703125
55,794.981689453125,801.8314819335938,787.7289428710938,782.893798828125
56,798.6080322265625,800.2197875976562,797.8021850585938,797.8021850585938
57,802.2344360351562,799.4139404296875,796.5933837890625,798.2051391601562
58,794.5787353515625,797.3992919921875,789.3406372070312,786.923095703125
59,796.1904907226562,793.3699340820312,789.3406372070312,791.3552856445312
60,797.8021850585938,792.5640869140625,787.7289428710938,792.967041015625
61,796.5933837890625,796.5933837890625,788.5347900390625,796.996337890625
62,796.996337890625,799.010986328125,790.952392578125,800.6226806640625
63,802.6373901367188,800.6226806640625,788.1318969726562,796.1904907226562
64,802.2344360351562,803.8461303710938,791.7582397460938,796.5933837890625
65,794.981689453125,801.025634765625,792.1611938476562,790.952392578125
66,793.7728881835938,800.2197875976562,789.3406372070312,788.1318969726562
67,790.1465454101562,798.2051391601562,791.7582397460938,791.3552856445312
68,790.5494384765625,792.1611938476562,792.5640869140625,795.7875366210938
69,794.981689453125,793.7728881835938,792.1611938476562,791.3552856445312
70,791.7582397460938,794.981689453125,791.7582397460938,790.5494384765625
71,791.3552856445312,793.7728881835938,791.7582397460938,793.3699340820312
72,787.7289428710938,791.7582397460938,789.7435913085938,788.937744140625
73,784.5054931640625,793.3699340820312,788.937744140625,784.908447265625
74,790.1465454101562,792.967041015625,789.3406372070312,785.3113403320312
75,789.7435913085938,788.1318969726562,788.1318969726562,787.7289428710938
76,786.1171875,792.5640869140625,788.5347900390625,782.087890625
77,783.6996459960938,793.3699340820312,786.5201416015625,775.2380981445312
78,781.2820434570312,788.5347900390625,786.5201416015625,781.2820434570312
79,778.8644409179688,790.952392578125,791.7582397460938,792.1611938476562
80,784.1025390625,794.981689453125,793.3699340820312,793.7728881835938
81,785.7142944335938,788.937744140625,787.3259887695312,788.5347900390625
82,784.1025390625,787.7289428710938,779.6703491210938,780.4761962890625
83,787.3259887695312,790.952392578125,783.6996459960938,780.879150390625
84,791.7582397460938,788.5347900390625,784.1025390625,781.2820434570312
85,790.5494384765625,785.3113403320312,784.1025390625,783.6996459960938
86,779.6703491210938,784.908447265625,784.5054931640625,785.3113403320312
87,773.6264038085938,785.3113403320312,782.087890625,782.4908447265625
88,780.4761962890625,786.923095703125,783.6996459960938,781.2820434570312
89,780.4761962890625,792.5640869140625,788.1318969726562,788.937744140625
90,778.8644409179688,790.952392578125,785.7142944335938,788.1318969726562
91,786.1171875,794.5787353515625,785.3113403320312,790.952392578125
92,786.1171875,797.8021850585938,785.3113403320312,790.952392578125
93,780.879150390625,793.7728881835938,787.3259887695312,781.2820434570312
94,780.4761962890625,801.8314819335938,799.4139404296875,782.4908447265625
95,765.970703125,796.1904907226562,790.1465454101562,774.8351440429688
96,751.4652099609375,785.7142944335938,776.8497924804688,757.912109375
97,749.8534545898438,797.8021850585938,784.1025390625,754.2857055664062
98,743.8095092773438,809.4871826171875,784.5054931640625,751.8681030273438
99,732.5274658203125,817.94873046875,773.6264038085938,719.6337280273438
100,721.6483764648438,826.8131713867188,767.5823974609375,705.5311279296875
101,708.3516235351562,838.4981689453125,768.3883056640625,699.4871826171875
102,701.90478515625,844.5421142578125,767.9853515625,686.1904907226562
103,687.3992919921875,852.6007080078125,762.3442993164062,674.5054931640625
104,660.0,850.5860595703125,770.0,662.4176025390625
105,657.5823974609375,850.5860595703125,770.4029541015625,658.7911987304688
106,671.6849975585938,861.4652099609375,764.3589477539062,653.1502075195312
107,647.912109375,862.6740112304688,772.0146484375,634.2124633789062
108,626.5567626953125,859.4505615234375,779.2673950195312,634.6153564453125
109,646.3003540039062,857.8388061523438,776.0439453125,644.6886596679688
110,641.8681030273438,855.4212646484375,778.8644409179688,641.4652099609375
111,626.959716796875,854.2124633789062,786.1171875,630.1831665039062
112,653.5531005859375,853.003662109375,787.3259887695312,635.018310546875
113,681.3552856445312,849.3773193359375,782.893798828125,650.7326049804688
114,686.1904907226562,848.1685180664062,778.8644409179688,665.6410522460938
115,691.8314819335938,844.1392211914062,784.5054931640625,695.054931640625
116,696.2637329101562,839.7069702148438,787.3259887695312,698.6813354492188
117,712.7838745117188,830.8424682617188,788.5347900390625,706.3369750976562
118,717.6190185546875,826.4102783203125,787.7289428710938,730.10986328125
119,731.3186645507812,830.03662109375,787.7289428710938,734.1392211914062
120,751.4652099609375,827.2161254882812,791.3552856445312,740.1831665039062
121,754.6886596679688,820.7692260742188,794.1758422851562,761.5384521484375
122,759.9267578125,815.93408203125,793.3699340820312,770.4029541015625
123,780.0732421875,811.90478515625,788.937744140625,778.4615478515625
124,785.7142944335938,808.6813354492188,788.1318969726562,789.3406372070312
125,780.4761962890625,804.2490844726562,790.1465454101562,792.967041015625
126,787.7289428710938,795.7875366210938,792.1611938476562,806.6666870117188
127,808.2783813476562,786.5201416015625,793.7728881835938,807.069580078125
128,814.7252807617188,787.3259887695312,796.996337890625,815.5311279296875
129,814.3223266601562,794.1758422851562,797.3992919921875,842.5274658203125
130,826.00732421875,786.5201416015625,796.5933837890625,830.03662109375
131,834.06591796875,770.0,792.1611938476562,822.3809814453125
132,828.02197265625,766.7765502929688,788.937744140625,824.3956298828125
133,826.00732421875,763.5531005859375,793.3699340820312,833.6630249023438
134,825.2014770507812,763.1502075195312,794.981689453125,831.2454223632812
135,816.3369750976562,763.1502075195312,796.1904907226562,834.06591796875
136,827.6190185546875,760.3296508789062,798.2051391601562,852.1978149414062
137,840.915771484375,764.7619018554688,796.1904907226562,846.1538696289062
138,838.901123046875,766.7765502929688,792.967041015625,851.7948608398438
139,827.2161254882812,764.7619018554688,793.3699340820312,847.3626098632812
140,826.8131713867188,760.7326049804688,793.3699340820312,845.3479614257812
141,837.2893676757812,753.076904296875,793.3699340820312,851.7948608398438
142,839.7069702148438,753.4798583984375,797.8021850585938,841.3186645507812
143,837.2893676757812,760.7326049804688,800.2197875976562,849.3773193359375
144,816.7399291992188,761.1355590820312,803.4432373046875,856.2271118164062
145,829.6337280273438,760.3296508789062,799.4139404296875,848.5714111328125
146,848.1685180664062,762.3442993164062,799.4139404296875,852.6007080078125
147,847.3626098632812,762.7472534179688,803.4432373046875,844.1392211914062
148,852.1978149414062,763.9560546875,802.6373901367188,837.6923217773438
149,836.08056640625,762.3442993164062,804.6520385742188,851.7948608398438
150,837.2893676757812,760.3296508789062,802.6373901367188,845.7509155273438
151,862.6740112304688,763.1502075195312,795.7875366210938,830.4395751953125
152,848.1685180664062,766.7765502929688,792.5640869140625,831.2454223632812
153,833.2600708007812,771.2088012695312,796.5933837890625,840.5128173828125
154,839.3040161132812,773.6264038085938,792.5640869140625,829.2307739257812
155,833.6630249023438,771.6116943359375,791.3552856445312,824.3956298828125
156,834.4688720703125,770.0,798.6080322265625,828.4249267578125
157,838.4981689453125,770.0,801.8314819335938,838.09521484375
158,827.6190185546875,765.970703125,803.4432373046875,850.5860595703125
159,828.02197265625,773.2234497070312,800.6226806640625,836.886474609375
160,830.4395751953125,781.6849975585938,799.8168334960938,828.8278198242188
161,838.4981689453125,780.0732421875,803.8461303710938,835.6776733398438
162,844.5421142578125,780.4761962890625,801.8314819335938,840.10986328125
163,830.4395751953125,779.2673950195312,798.2051391601562,836.08056640625
164,809.89013671875,776.0439453125,799.4139404296875,825.6043701171875
165,807.069580078125,779.2673950195312,798.2051391601562,813.113525390625
166,833.6630249023438,786.923095703125,801.8314819335938,827.6190185546875
167,834.8717651367188,782.4908447265625,806.6666870117188,840.5128173828125
168,834.06591796875,781.2820434570312,806.2637329101562,828.02197265625
169,827.2161254882812,785.3113403320312,802.6373901367188,818.7545776367188
170,811.098876953125,787.7289428710938,800.2197875976562,811.5018310546875
171,811.5018310546875,786.923095703125,798.6080322265625,816.3369750976562
172,824.7985229492188,783.6996459960938,803.4432373046875,819.5604248046875
173,813.5164794921875,778.8644409179688,801.8314819335938,823.5897216796875
174,815.93408203125,781.2820434570312,793.3699340820312,811.90478515625
175,814.7252807617188,784.5054931640625,790.1465454101562,806.6666870117188
176,798.6080322265625,781.2820434570312,793.3699340820312,828.4249267578125
177,819.96337890625,781.6849975585938,797.8021850585938,826.00732421875
178,819.1575317382812,783.2966918945312,796.5933837890625,803.8461303710938
179,804.2490844726562,783.6996459960938,794.5787353515625,800.2197875976562
180,818.3516235351562,786.1171875,792.967041015625,797.8021850585938
181,813.91943359375,785.7142944335938,793.7728881835938,791.3552856445312
182,806.6666870117188,780.4761962890625,799.010986328125,801.8314819335938
183,817.5457763671875,785.7142944335938,803.8461303710938,814.7252807617188
184,823.99267578125,796.5933837890625,800.6226806640625,801.8314819335938
185,791.3552856445312,788.1318969726562,798.2051391601562,790.952392578125
186,778.05859375,784.908447265625,799.010986328125,793.7728881835938
187,814.7252807617188,790.5494384765625,800.6226806640625,801.025634765625
188,809.084228515625,790.1465454101562,802.6373901367188,791.7582397460938
189,790.1465454101562,786.5201416015625,809.084228515625,794.1758422851562
190,800.6226806640625,781.6849975585938,804.6520385742188,794.981689453125
191,792.1611938476562,784.908447265625,796.1904907226562,793.7728881835938
192,796.996337890625,791.3552856445312,803.040283203125,810.2930297851562
193,807.4725341796875,788.5347900390625,803.040283203125,804.2490844726562
194,799.4139404296875,787.3259887695312,798.6080322265625,784.1025390625
195,803.4432373046875,789.7435913085938,795.3846435546875,775.6410522460938
196,808.6813354492188,790.1465454101562,797.3992919921875,788.1318969726562
197,801.025634765625,791.3552856445312,798.6080322265625,789.7435913085938
198,796.996337890625,788.5347900390625,797.3992919921875,796.5933837890625
199,813.113525390625,789.7435913085938,797.8021850585938,798.6080322265625
200,815.1282348632812,792.967041015625,794.5787353515625,776.4468994140625
201,790.5494384765625,790.5494384765625,796.1904907226562,780.4761962890625
202,780.879150390625,786.923095703125,798.6080322265625,803.4432373046875
203,785.3113403320312,782.893798828125,799.8168334960938,804.2490844726562
204,789.3406372070312,783.6996459960938,792.5640869140625,777.2527465820312
205,800.6226806640625,783.2966918945312,791.3552856445312,776.4468994140625
206,794.1758422851562,782.893798828125,793.3699340820312,807.4725341796875
207,786.5201416015625,783.6996459960938,792.1611938476562,805.054931640625
208,792.1611938476562,785.3113403320312,792.1611938476562,796.1904907226562
209,808.2783813476562,791.3552856445312,788.1318969726562,793.3699340820312
210,801.8314819335938,791.3552856445312,788.1318969726562,784.908447265625
211,772.0146484375,782.087890625,794.981689453125,789.3406372070312
212,766.3735961914062,782.4908447265625,796.1904907226562,782.087890625
213,784.5054931640625,782.893798828125,791.7582397460938,782.4908447265625
214,810.6959838867188,788.1318969726562,789.7435913085938,791.7582397460938
215,794.1758422851562,785.7142944335938,793.3699340820312,787.3259887695312
216,776.8497924804688,778.8644409179688,792.967041015625,794.981689453125
217,788.1318969726562,776.8497924804688,795.3846435546875,801.025634765625
218,803.8461303710938,774.029296875,797.3992919921875,801.025634765625
219,807.4725341796875,779.2673950195312,794.1758422851562,795.3846435546875
220,803.040283203125,782.893798828125,796.996337890625,801.8314819335938
221,788.937744140625,781.6849975585938,796.996337890625,799.010986328125
222,784.908447265625,778.4615478515625,790.5494384765625,786.923095703125
223,802.2344360351562,780.0732421875,790.952392578125,790.952392578125
224,796.1904907226562,784.5054931640625,794.5787353515625,803.040283203125
225,789.3406372070312,783.6996459960938,794.1758422851562,805.054931640625
226,799.010986328125,783.6996459960938,796.5933837890625,790.1465454101562
227,800.2197875976562,780.4761962890625,796.996337890625,792.1611938476562
228,807.4725341796875,784.5054931640625,794.981689453125,804.6520385742188
229,798.6080322265625,788.1318969726562,796.996337890625,796.1904907226562
230,785.3113403320312,787.3259887695312,799.4139404296875,792.5640869140625
231,784.1025390625,788.5347900390625,800.2197875976562,797.8021850585938
232,787.3259887695312,784.5054931640625,795.3846435546875,796.5933837890625
233,793.3699340820312,783.2966918945312,792.967041015625,796.5933837890625
234,789.3406372070312,782.893798828125,793.3699340820312,791.3552856445312
235,780.4761962890625,781.6849975585938,790.5494384765625,786.1171875
236,801.025634765625,786.1171875,793.3699340820312,798.6080322265625
237,794.1758422851562,783.2966918945312,797.3992919921875,805.4578857421875
238,779.2673950195312,782.087890625,796.1904907226562,790.5494384765625
239,781.6849975585938,787.3259887695312,796.996337890625,792.1611938476562
240,784.908447265625,791.7582397460938,795.7875366210938,804.6520385742188
241,793.7728881835938,790.5494384765625,795.3846435546875,785.7142944335938
242,792.967041015625,786.5201416015625,798.2051391601562,782.893798828125
243,794.5787353515625,784.1025390625,796.5933837890625,796.5933837890625
244,791.3552856445312,787.3259887695312,792.5640869140625,789.3406372070312
245,776.8497924804688,784.1025390625,793.3699340820312,784.5054931640625
246,791.7582397460938,782.4908447265625,794.1758422851562,796.5933837890625
247,796.996337890625,783.6996459960938,796.996337890625,804.2490844726562
248,784.908447265625,783.6996459960938,796.5933837890625,791.3552856445312
249,794.981689453125,788.5347900390625,792.1611938476562,781.6849975585938
250,795.3846435546875,784.908447265625,795.7875366210938,795.7875366210938
251,788.5347900390625,786.5201416015625,790.952392578125,791.3552856445312
252,794.981689453125,789.7435913085938,789.7435913085938,784.908447265625
253,803.4432373046875,789.3406372070312,791.7582397460938,799.4139404296875
254,805.8607788085938,795.7875366210938,793.3699340820312,800.6226806640625
255,803.040283203125,797.8021850585938,796.5933837890625,803.4432373046875
256,794.981689453125,794.1758422851562,793.7728881835938,807.4725341796875
257,785.3113403320312,790.952392578125,792.1611938476562,799.010986328125
258,792.1611938476562,794.5787353515625,791.7582397460938,793.3699340820312
259,792.1611938476562,799.010986328125,795.3846435546875,799.8168334960938
260,782.087890625,795.3846435546875,796.5933837890625,792.5640869140625
261,791.3552856445312,794.981689453125,791.3552856445312,790.1465454101562
262,799.4139404296875,795.7875366210938,788.1318969726562,801.025634765625
263,789.7435913085938,794.1758422851562,788.5347900390625,796.996337890625
264,786.1171875,796.5933837890625,786.1171875,788.5347900390625
265,796.996337890625,795.7875366210938,789.3406372070312,786.923095703125
266,799.4139404296875,790.952392578125,791.3552856445312,783.2966918945312
267,788.5347900390625,796.5933837890625,787.7289428710938,776.8497924804688
268,787.7289428710938,800.6226806640625,787.7289428710938,781.6849975585938
269,796.5933837890625,802.2344360351562,789.3406372070312,787.7289428710938
270,796.1904907226562,801.8314819335938,790.952392578125,788.1318969726562
271,788.1318969726562,798.2051391601562,794.5787353515625,797.3992919921875
272,784.908447265625,799.4139404296875,791.7582397460938,789.7435913085938
273,784.908447265625,795.3846435546875,788.937744140625,784.908447265625
274,785.3113403320312,794.5787353515625,790.952392578125,785.7142944335938
275,797.8021850585938,795.3846435546875,790.5494384765625,780.0732421875
276,796.996337890625,793.3699340820312,789.3406372070312,785.7142944335938
277,793.7728881835938,793.3699340820312,791.3552856445312,793.3699340820312
278,798.2051391601562,788.937744140625,791.3552856445312,794.1758422851562
279,796.1904907226562,789.3406372070312,788.937744140625,794.981689453125
280,792.1611938476562,783.2966918945312,786.923095703125,786.923095703125
281,787.7289428710938,776.8497924804688,787.3259887695312,780.4761962890625
282,790.952392578125,785.7142944335938,791.7582397460938,786.1171875
283,792.967041015625,792.1611938476562,792.5640869140625,788.1318969726562
284,790.1465454101562,792.967041015625,791.3552856445312,793.3699340820312
285,787.7289428710938,791.3552856445312,790.5494384765625,795.3846435546875
286,783.6996459960938,791.3552856445312,790.1465454101562,791.7582397460938
287,784.5054931640625,792.1611938476562,790.5494384765625,790.1465454101562
288,791.7582397460938,794.1758422851562,793.3699340820312,782.4908447265625
289,801.4285888671875,795.3846435546875,794.5787353515625,785.7142944335938
290,796.1904907226562,796.1904907226562,792.5640869140625,790.5494384765625
291,786.5201416015625,797.8021850585938,792.967041015625,786.923095703125
292,787.7289428710938,799.010986328125,793.7728881835938,786.1171875
293,793.7728881835938,803.4432373046875,796.996337890625,787.7289428710938
294,791.3552856445312,800.2197875976562,794.981689453125,786.5201416015625
295,788.937744140625,792.5640869140625,790.1465454101562,782.893798828125
296,792.1611938476562,791.3552856445312,794.1758422851562,785.7142944335938
297,788.1318969726562,790.952392578125,799.010986328125,791.3552856445312
298,788.5347900390625,791.7582397460938,797.8021850585938,794.5787353515625
299,788.5347900390625,793.7728881835938,797.8021850585938,793.3699340820312
300,786.1171875,790.1465454101562,796.5933837890625,792.5640869140625
301,786.923095703125,788.5347900390625,791.7582397460938,788.5347900390625
302,780.4761962890625,792.1611938476562,790.1465454101562,782.893798828125
303,777.2527465820312,789.7435913085938,792.1611938476562,783.6996459960938
304,782.893798828125,790.5494384765625,794.1758422851562,784.908447265625
305,782.087890625,787.7289428710938,792.1611938476562,784.908447265625
306,783.2966918945312,787.3259887695312,792.1611938476562,788.5347900390625
307,785.7142944335938,789.7435913085938,796.996337890625,785.3113403320312
308,790.1465454101562,785.7142944335938,797.8021850585938,782.893798828125
309,791.3552856445312,786.923095703125,795.3846435546875,788.5347900390625
310,793.3699340820312,793.3699340820312,797.8021850585938,790.1465454101562
311,795.3846435546875,796.5933837890625,799.8168334960938,786.5201416015625
312,789.3406372070312,795.3846435546875,793.3699340820312,787.7289428710938
313,787.7289428710938,791.3552856445312,792.5640869140625,788.937744140625
314,790.5494384765625,788.937744140625,790.952392578125,786.1171875
315,792.5640869140625,785.3113403320312,783.6996459960938,787.3259887695312
316,793.3699340820312,785.7142944335938,787.7289428710938,789.3406372070312
317,795.7875366210938,789.7435913085938,798.2051391601562,799.4139404296875
318,789.7435913085938,794.5787353515625,799.010986328125,797.3992919921875
319,786.1171875,798.6080322265625,790.5494384765625,785.7142944335938
320,790.5494384765625,801.025634765625,792.967041015625,788.5347900390625
321,790.952392578125,796.996337890625,797.8021850585938,792.967041015625
322,788.1318969726562,788.5347900390625,798.6080322265625,794.5787353515625
323,789.7435913085938,790.952392578125,796.1904907226562,789.7435913085938
324,794.981689453125,796.1904907226562,792.5640869140625,788.937744140625
325,797.8021850585938,797.8021850585938,790.5494384765625,792.967041015625
326,796.996337890625,796.1904907226562,790.1465454101562,790.5494384765625
327,797.3992919921875,796.1904907226562,794.1758422851562,793.7728881835938
328,796.1904907226562,796.996337890625,794.1758422851562,796.1904907226562
329,791.3552856445312,788.937744140625,796.1904907226562,786.923095703125
330,794.981689453125,786.923095703125,797.3992919921875,786.5201416015625
331,795.3846435546875,788.1318969726562,793.3699340820312,787.3259887695312
332,790.1465454101562,780.879150390625,793.3699340820312,784.1025390625
333,789.7435913085938,782.4908447265625,794.5787353515625,790.1465454101562
334,786.923095703125,785.3113403320312,792.1611938476562,784.908447265625
335,786.923095703125,781.2820434570312,788.5347900390625,778.05859375
336,789.7435913085938,786.923095703125,791.3552856445312,780.4761962890625
337,792.1611938476562,794.981689453125,796.5933837890625,782.087890625
338,792.5640869140625,791.7582397460938,795.7875366210938,778.8644409179688
339,790.952392578125,787.3259887695312,790.952392578125,780.0732421875
340,792.5640869140625,789.7435913085938,795.7875366210938,782.087890625
341,785.7142944335938,790.5494384765625,803.040283203125,781.6849975585938
342,778.05859375,785.3113403320312,800.6226806640625,784.908447265625
343,776.8497924804688,782.893798828125,796.996337890625,787.7289428710938
344,780.4761962890625,788.1318969726562,797.8021850585938,800.6226806640625
345,784.1025390625,793.3699340820312,796.996337890625,798.2051391601562
346,783.2966918945312,792.1611938476562,795.7875366210938,785.3113403320312
347,784.908447265625,788.5347900390625,794.5787353515625,783.2966918945312
348,780.4761962890625,786.923095703125,790.952392578125,778.8644409179688
349,780.879150390625,782.4908447265625,790.5494384765625,786.923095703125
350,784.5054931640625,779.2673950195312,787.3259887695312,794.1758422851562
351,787.7289428710938,781.2820434570312,784.5054931640625,781.6849975585938
352,784.1025390625,785.7142944335938,785.3113403320312,769.5970458984375
353,781.2820434570312,790.1465454101562,784.908447265625,776.4468994140625
354,784.908447265625,798.2051391601562,784.908447265625,789.3406372070312
355,792.5640869140625,801.8314819335938,788.5347900390625,799.4139404296875
356,796.1904907226562,798.6080322265625,795.3846435546875,810.2930297851562
357,790.5494384765625,796.1904907226562,798.6080322265625,799.4139404296875
358,784.1025390625,787.3259887695312,795.7875366210938,787.7289428710938
359,782.087890625,785.7142944335938,792.1611938476562,789.3406372070312
360,786.5201416015625,792.967041015625,795.7875366210938,794.981689453125
361,792.1611938476562,794.981689453125,794.1758422851562,794.1758422851562
362,792.5640869140625,790.5494384765625,792.5640869140625,792.967041015625
363,792.967041015625,793.7728881835938,793.7728881835938,791.3552856445312
364,792.967041015625,793.3699340820312,792.967041015625,788.5347900390625
365,795.3846435546875,793.7728881835938,798.2051391601562,793.3699340820312
366,804.2490844726562,796.1904907226562,799.4139404296875,798.2051391601562
367,801.8314819335938,790.952392578125,790.952392578125,794.1758422851562
368,791.7582397460938,794.981689453125,789.7435913085938,789.3406372070312
369,790.952392578125,799.4139404296875,795.7875366210938,793.7728881835938
370,794.5787353515625,789.7435913085938,796.1904907226562,795.7875366210938
371,795.7875366210938,792.1611938476562,795.3846435546875,796.5933837890625
372,794.981689453125,791.7582397460938,794.5787353515625,799.8168334960938
373,795.3846435546875,794.981689453125,801.8314819335938,798.6080322265625
374,793.7728881835938,799.4139404296875,804.2490844726562,790.5494384765625
375,796.5933837890625,795.3846435546875,799.8168334960938,789.7435913085938
376,799.4139404296875,792.967041015625,800.6226806640625,787.7289428710938
377,801.025634765625,793.3699340820312,797.8021850585938,787.7289428710938
378,797.3992919921875,790.5494384765625,796.1904907226562,794.981689453125
379,793.3699340820312,792.5640869140625,796.996337890625,788.5347900390625
380,796.996337890625,794.981689453125,798.6080322265625,782.087890625
381,803.4432373046875,794.1758422851562,794.981689453125,783.2966918945312
382,801.8314819335938,796.996337890625,793.7728881835938,786.1171875
383,796.996337890625,794.981689453125,799.010986328125,793.7728881835938
384,794.5787353515625,790.952392578125,804.2490844726562,788.1318969726562
385,794.1758422851562,795.7875366210938,805.8607788085938,786.5201416015625
386,795.7875366210938,796.5933837890625,806.6666870117188,794.981689453125
387,797.8021850585938,792.5640869140625,803.8461303710938,792.5640869140625
388,793.7728881835938,791.7582397460938,796.1904907226562,784.1025390625
389,790.5494384765625,788.1318969726562,793.3699340820312,784.1025390625
390,792.967041015625,786.5201416015625,790.952392578125,786.5201416015625
391,794.981689453125,784.5054931640625,791.3552856445312,789.7435913085938
392,792.5640869140625,791.3552856445312,791.3552856445312,793.7728881835938
393,794.1758422851562,801.4285888671875,791.3552856445312,792.1611938476562
394,792.5640869140625,798.6080322265625,795.7875366210938,796.5933837890625
395,791.7582397460938,792.5640869140625,799.010986328125,798.2051391601562
396,796.5933837890625,797.3992919921875,799.4139404296875,795.7875366210938
397,796.5933837890625,792.967041015625,798.2051391601562,796.1904907226562
398,790.952392578125,786.5201416015625,798.6080322265625,793.7728881835938
399,786.5201416015625,791.7582397460938,796.1904907226562,788.1318969726562
400,790.5494384765625,792.967041015625,792.5640869140625,790.1465454101562
401,792.967041015625,791.3552856445312,792.1611938476562,787.7289428710938
402,790.1465454101562,791.3552856445312,790.5494384765625,784.1025390625
403,787.7289428710938,789.3406372070312,790.1465454101562,784.908447265625
404,784.5054931640625,789.7435913085938,793.7728881835938,779.2673950195312
405,787.3259887695312,790.952392578125,791.3552856445312,781.2820434570312
406,787.7289428710938,792.967041015625,790.5494384765625,787.3259887695312
407,786.5201416015625,795.3846435546875,794.5787353515625,780.879150390625
408,785.7142944335938,793.7728881835938,796.5933837890625,777.6557006835938
409,782.893798828125,792.1611938476562,796.996337890625,778.05859375
410,783.6996459960938,794.1758422851562,796.5933837890625,772.4176025390625
411,784.908447265625,792.967041015625,796.996337890625,767.5823974609375
412,779.6703491210938,790.5494384765625,798.6080322265625,770.0
413,775.6410522460938,788.1318969726562,793.7728881835938,776.0439453125
414,773.6264038085938,784.908447265625,790.1465454101562,774.8351440429688
415,770.0,785.7142944335938,787.3259887695312,766.7765502929688
416,770.0,789.3406372070312,782.087890625,765.1648559570312
417,775.2380981445312,789.7435913085938,782.087890625,769.5970458984375
418,778.05859375,788.937744140625,786.5201416015625,778.05859375
419,780.879150390625,796.5933837890625,785.3113403320312,783.6996459960938
420,784.5054931640625,798.2051391601562,780.879150390625,776.0439453125
421,791.3552856445312,792.5640869140625,782.087890625,782.4908447265625
422,795.3846435546875,791.3552856445312,790.1465454101562,793.7728881835938
423,795.7875366210938,795.3846435546875,794.1758422851562,794.981689453125
424,787.7289428710938,793.7728881835938,790.1465454101562,791.3552856445312
425,784.1025390625,796.1904907226562,785.3113403320312,791.7582397460938
426,787.3259887695312,795.7875366210938,787.3259887695312,792.5640869140625
427,793.7728881835938,787.3259887695312,792.1611938476562,786.923095703125
428,798.2051391601562,783.2966918945312,790.1465454101562,787.3259887695312
429,794.981689453125,788.1318969726562,790.5494384765625,794.1758422851562
430,791.3552856445312,790.952392578125,789.7435913085938,789.3406372070312
431,795.3846435546875,791.7582397460938,786.5201416015625,787.7289428710938
432,793.7728881835938,786.1171875,788.5347900390625,791.3552856445312
433,795.7875366210938,787.3259887695312,792.967041015625,791.3552856445312
434,792.967041015625,796.1904907226562,796.996337890625,786.923095703125
435,790.1465454101562,797.8021850585938,798.6080322265625,788.5347900390625
436,791.3552856445312,791.3552856445312,795.7875366210938,792.967041015625
437,790.952392578125,794.1758422851562,795.3846435546875,791.7582397460938
438,794.1758422851562,796.1904907226562,796.1904907226562,789.3406372070312
439,791.3552856445312,787.3259887695312,792.1611938476562,780.879150390625
440,786.5201416015625,789.3406372070312,786.5201416015625,784.5054931640625
441,787.7289428710938,795.3846435546875,793.7728881835938,793.7728881835938
442,788.937744140625,796.5933837890625,794.5787353515625,790.952392578125
443,791.3552856445312,792.1611938476562,791.7582397460938,791.7582397460938
444,793.3699340820312,788.1318969726562,794.981689453125,795.7875366210938
445,786.923095703125,780.0732421875,794.981689453125,782.893798828125
446,788.937744140625,781.6849975585938,798.2051391601562,779.2673950195312
447,794.981689453125,794.1758422851562,798.6080322265625,785.7142944335938
448,793.7728881835938,786.5201416015625,794.981689453125,781.6849975585938
449,790.5494384765625,788.1318969726562,794.981689453125,783.2966918945312
450,788.937744140625,793.3699340820312,794.1758422851562,788.5347900390625
451,790.952392578125,793.7728881835938,793.7728881835938,792.1611938476562
452,791.7582397460938,798.2051391601562,793.7728881835938,799.4139404296875
453,787.7289428710938,795.7875366210938,793.7728881835938,796.1904907226562
454,779.6703491210938,786.923095703125,792.5640869140625,784.908447265625
455,775.6410522460938,787.3259887695312,788.1318969726562,785.7142944335938
456,778.4615478515625,793.7728881835938,789.3406372070312,789.7435913085938
457,781.2820434570312,791.3552856445312,792.5640869140625,788.5347900390625
458,785.3113403320312,786.1171875,795.3846435546875,787.7289428710938
459,786.5201416015625,794.1758422851562,793.7728881835938,790.5494384765625
460,781.6849975585938,796.5933837890625,790.1465454101562,783.2966918945312
461,785.3113403320312,794.981689453125,794.1758422851562,783.2966918945312
462,795.3846435546875,792.1611938476562,794.5787353515625,787.7289428710938
463,793.3699340820312,784.908447265625,791.3552856445312,788.5347900390625
464,789.3406372070312,785.3113403320312,794.1758422851562,786.923095703125
465,790.952392578125,785.3113403320312,794.1758422851562,782.087890625
466,788.1318969726562,787.7289428710938,794.981689453125,782.893798828125
467,795.3846435546875,796.1904907226562,797.3992919921875,790.5494384765625
468,806.6666870117188,804.6520385742188,799.4139404296875,797.8021850585938
469,805.054931640625,807.4725341796875,799.4139404296875,797.3992919921875
470,804.6520385742188,805.8607788085938,799.4139404296875,799.8168334960938
471,803.8461303710938,797.3992919921875,801.025634765625,799.010986328125
472,800.2197875976562,794.981689453125,798.6080322265625,792.5640869140625
473,798.2051391601562,797.8021850585938,797.3992919921875,787.3259887695312
474,800.6226806640625,794.981689453125,795.3846435546875,795.7875366210938
475,791.7582397460938,794.1758422851562,795.3846435546875,802.2344360351562
476,774.029296875,794.5787353515625,792.967041015625,781.2820434570312
477,776.8497924804688,792.5640869140625,792.967041015625,779.2673950195312
478,783.6996459960938,791.7582397460938,793.7728881835938,787.3259887695312
479,781.2820434570312,790.5494384765625,791.3552856445312,785.3113403320312
480,782.4908447265625,792.1611938476562,789.7435913085938,786.1171875
481,780.4761962890625,787.3259887695312,790.952392578125,782.893798828125
482,782.4908447265625,789.7435913085938,794.981689453125,784.908447265625
483,784.908447265625,799.8168334960938,798.6080322265625,787.3259887695312
484,788.1318969726562,799.8168334960938,796.996337890625,790.1465454101562
485,791.7582397460938,794.981689453125,796.1904907226562,793.3699340820312
486,795.3846435546875,795.3846435546875,798.2051391601562,792.1611938476562
487,799.4139404296875,796.5933837890625,796.5933837890625,791.7582397460938
488,801.4285888671875,799.4139404296875,798.6080322265625,792.5640869140625
489,802.2344360351562,798.6080322265625,797.3992919921875,791.3552856445312
490,804.6520385742188,800.2197875976562,793.3699340820312,798.2051391601562
491,804.6520385742188,809.084228515625,801.4285888671875,801.8314819335938
492,800.6226806640625,809.084228515625,801.8314819335938,795.7875366210938
493,802.2344360351562,807.069580078125,796.1904907226562,795.7875366210938
494,811.098876953125,806.2637329101562,796.5933837890625,796.996337890625
495,805.4578857421875,801.8314819335938,797.3992919921875,797.3992919921875
496,799.8168334960938,801.4285888671875,796.1904907226562,799.010986328125
497,801.025634765625,804.6520385742188,801.025634765625,798.6080322265625
498,795.7875366210938,805.4578857421875,805.4578857421875,801.8314819335938
499,792.5640869140625,804.6520385742188,800.6226806640625,802.6373901367188
500,786.5201416015625,794.5787353515625,797.8021850585938,790.952392578125
501,783.2966918945312,787.3259887695312,795.3846435546875,787.7289428710938
502,787.7289428710938,789.7435913085938,793.3699340820312,797.8021850585938
503,784.1025390625,788.937744140625,791.7582397460938,796.1904907226562
504,782.4908447265625,789.3406372070312,789.7435913085938,786.1171875
505,784.5054931640625,789.3406372070312,794.981689453125,782.893798828125
506,782.4908447265625,789.7435913085938,798.2051391601562,784.908447265625
507,781.2820434570312,790.5494384765625,799.010986328125,782.893798828125
508,784.5054931640625,790.1465454101562,799.4139404296875,785.3113403320312
509,789.7435913085938,790.1465454101562,796.996337890625,788.937744140625
510,785.7142944335938,791.7582397460938,800.2197875976562,786.1171875
511,783.2966918945312,791.3552856445312,801.4285888671875,780.4761962890625
512,783.6996459960938,788.1318969726562,794.981689453125,782.893798828125
513,783.6996459960938,789.7435913085938,795.3846435546875,796.5933837890625
514,787.3259887695312,794.5787353515625,800.6226806640625,800.6226806640625
515,790.5494384765625,794.1758422851562,800.2197875976562,794.981689453125
516,794.1758422851562,795.3846435546875,799.4139404296875,797.3992919921875
517,792.5640869140625,795.7875366210938,799.4139404296875,801.025634765625
518,795.3846435546875,790.5494384765625,794.1758422851562,798.2051391601562
519,800.2197875976562,790.1465454101562,794.5787353515625,792.5640869140625
520,802.2344360351562,795.7875366210938,796.1904907226562,788.5347900390625
521,804.6520385742188,798.6080322265625,795.7875366210938,791.3552856445312
522,797.8021850585938,799.4139404296875,790.1465454101562,791.7582397460938
523,794.5787353515625,804.2490844726562,788.937744140625,788.5347900390625
524,796.5933837890625,801.8314819335938,793.7728881835938,790.952392578125
525,793.7728881835938,796.996337890625,796.996337890625,793.3699340820312
526,788.937744140625,799.4139404296875,796.996337890625,783.2966918945312
527,788.937744140625,796.996337890625,793.3699340820312,777.6557006835938
528,791.7582397460938,795.3846435546875,791.7582397460938,782.087890625
529,788.5347900390625,794.1758422851562,791.7582397460938,782.893798828125
530,784.5054931640625,790.5494384765625,790.5494384765625,786.5201416015625
531,782.087890625,792.5640869140625,788.5347900390625,792.1611938476562
532,780.879150390625,797.8021850585938,789.7435913085938,790.1465454101562
533,785.3113403320312,797.8021850585938,792.5640869140625,782.4908447265625
534,784.908447265625,796.996337890625,791.3552856445312,780.4761962890625
535,783.6996459960938,793.7728881835938,793.7728881835938,786.923095703125
536,784.1025390625,790.1465454101562,792.967041015625,794.981689453125
537,782.4908447265625,792.5640869140625,794.981689453125,792.1611938476562
538,790.5494384765625,800.6226806640625,803.8461303710938,788.5347900390625
539,786.923095703125,802.2344360351562,801.025634765625,785.7142944335938
540,779.2673950195312,795.7875366210938,794.981689453125,782.087890625
541,776.0439453125,795.7875366210938,792.967041015625,779.2673950195312
542,768.3883056640625,806.6666870117188,790.952392578125,768.7911987304688
543,764.3589477539062,809.4871826171875,790.1465454101562,757.5091552734375
544,756.7033081054688,805.4578857421875,786.923095703125,754.6886596679688
545,740.5860595703125,807.87548828125,774.8351440429688,740.989013671875
546,746.6300659179688,820.3662719726562,775.2380981445312,742.1978149414062
547,746.2271118164062,829.6337280273438,775.2380981445312,743.003662109375
548,718.02197265625,827.2161254882812,769.5970458984375,716.4102783203125
549,698.2783813476562,829.6337280273438,770.8058471679688,695.054931640625
550,699.4871826171875,849.7802124023438,776.0439453125,690.6226806640625
551,684.5787353515625,855.8241577148438,780.0732421875,672.4908447265625
552,666.4468994140625,844.5421142578125,775.6410522460938,661.6116943359375
553,650.3296508789062,848.1685180664062,780.879150390625,649.5238037109375
554,631.7948608398438,854.2124633789062,792.967041015625,632.6007080078125
555,614.4688720703125,855.8241577148438,794.5787353515625,614.4688720703125
556,595.93408203125,842.5274658203125,791.3552856445312,594.3223266601562
557,606.4102783203125,845.3479614257812,790.952392578125,600.3662719726562
558,617.2893676757812,857.4359130859375,794.1758422851562,609.6337280273438
559,613.2600708007812,845.7509155273438,796.5933837890625,615.2747192382812
560,610.8424682617188,836.08056640625,799.010986328125,612.4542236328125
561,617.2893676757812,844.945068359375,806.2637329101562,603.99267578125
562,626.5567626953125,848.5714111328125,809.4871826171875,613.2600708007812
563,625.7509155273438,845.7509155273438,807.4725341796875,626.959716796875
564,628.1685180664062,844.5421142578125,811.098876953125,636.6300659179688
565,632.1978149414062,838.09521484375,811.90478515625,636.2271118164062
566,632.6007080078125,839.3040161132812,809.4871826171875,633.4066162109375
567,642.6740112304688,839.3040161132812,815.5311279296875,642.6740112304688
568,653.9560546875,832.8571166992188,811.5018310546875,651.1355590820312
569,665.6410522460938,831.2454223632812,807.87548828125,665.6410522460938
570,672.4908447265625,826.4102783203125,811.90478515625,676.923095703125
571,678.937744140625,826.4102783203125,807.4725341796875,678.937744140625
572,696.2637329101562,824.7985229492188,805.8607788085938,700.2930297851562
573,698.6813354492188,821.5750732421875,802.6373901367188,702.7106323242188
574,696.6666870117188,821.97802734375,802.6373901367188,698.2783813476562
575,718.02197265625,819.1575317382812,806.6666870117188,729.3040161132812
576,735.3479614257812,825.2014770507812,809.084228515625,746.2271118164062
577,747.4359130859375,826.4102783203125,814.7252807617188,747.032958984375
578,764.3589477539062,822.3809814453125,809.084228515625,758.7179565429688
579,767.9853515625,825.6043701171875,801.4285888671875,757.5091552734375
580,769.5970458984375,819.5604248046875,804.2490844726562,758.3150024414062
581,776.0439453125,814.7252807617188,794.5787353515625,769.1941528320312
582,785.3113403320312,807.4725341796875,794.5787353515625,783.2966918945312
583,796.5933837890625,811.098876953125,801.025634765625,792.5640869140625
584,797.8021850585938,805.054931640625,794.5787353515625,797.3992919921875
585,811.5018310546875,789.7435913085938,785.3113403320312,809.4871826171875
586,832.4542236328125,789.7435913085938,781.2820434570312,828.4249267578125
587,836.08056640625,790.1465454101562,786.923095703125,838.901123046875
588,843.3333129882812,784.908447265625,789.3406372070312,848.1685180664062
589,853.4066162109375,779.2673950195312,783.6996459960938,854.6153564453125
590,862.2710571289062,779.6703491210938,786.923095703125,857.032958984375
591,868.7179565429688,777.2527465820312,787.3259887695312,862.2710571289062
592,870.3296508789062,767.9853515625,782.4908447265625,862.6740112304688
593,873.9560546875,770.8058471679688,780.879150390625,868.7179565429688
594,877.5823974609375,771.2088012695312,776.0439453125,877.9853515625
595,880.4029541015625,765.5677490234375,776.4468994140625,882.0146484375
596,885.2380981445312,769.1941528320312,781.6849975585938,888.8644409179688
597,888.4615478515625,770.4029541015625,781.6849975585938,890.879150390625
598,888.4615478515625,767.9853515625,780.0732421875,888.8644409179688
599,893.2966918945312,762.7472534179688,782.4908447265625,890.879150390625
600,898.1318969726562,760.7326049804688,784.1025390625,897.3259887695312
601,898.937744140625,759.120849609375,786.923095703125,898.1318969726562
602,898.1318969726562,759.120849609375,791.7582397460938,892.893798828125
603,883.2234497070312,758.3150024414062,789.3406372070312,886.0439453125
604,878.7911987304688,753.8828125,783.6996459960938,884.029296875
605,880.8058471679688,752.6740112304688,785.3113403320312,889.6703491210938
606,878.7911987304688,752.2710571289062,784.5054931640625,892.087890625
607,875.5677490234375,753.4798583984375,786.1171875,881.6116943359375
608,870.7326049804688,751.062255859375,786.1171875,873.1502075195312
609,868.3150024414062,748.6447143554688,787.3259887695312,879.5970458984375
610,865.4945068359375,761.5384521484375,792.967041015625,879.5970458984375
611,865.4945068359375,770.4029541015625,789.7435913085938,877.1795043945312
612,872.7472534179688,767.5823974609375,784.908447265625,882.4176025390625
613,875.1648559570312,763.1502075195312,784.908447265625,879.5970458984375
614,866.3003540039062,763.5531005859375,786.923095703125,869.5238037109375
615,859.4505615234375,757.912109375,784.1025390625,866.7033081054688
616,859.4505615234375,757.912109375,785.3113403320312,863.076904296875
617,863.8828125,765.5677490234375,790.952392578125,862.6740112304688
618,865.4945068359375,767.5823974609375,786.1171875,860.2564086914062
619,866.3003540039062,766.7765502929688,782.893798828125,861.4652099609375
620,869.5238037109375,767.1795043945312,783.2966918945312,867.106201171875
621,873.1502075195312,772.4176025390625,787.7289428710938,869.9267578125
622,873.1502075195312,777.6557006835938,792.1611938476562,864.6886596679688
623,868.3150024414062,778.05859375,792.5640869140625,855.8241577148438
624,867.912109375,773.6264038085938,794.981689453125,859.4505615234375
625,860.6593627929688,773.2234497070312,793.3699340820312,859.047607421875
626,852.1978149414062,777.2527465820312,790.952392578125,854.6153564453125
627,851.3919677734375,780.4761962890625,795.7875366210938,854.6153564453125
628,845.7509155273438,777.2527465820312,794.5787353515625,855.018310546875
629,840.5128173828125,777.2527465820312,791.3552856445312,849.3773193359375
630,834.4688720703125,780.0732421875,788.5347900390625,841.3186645507812
631,833.2600708007812,778.4615478515625,790.5494384765625,839.3040161132812
632,836.886474609375,774.8351440429688,790.5494384765625,844.1392211914062
633,831.6483764648438,773.6264038085938,787.3259887695312,838.09521484375
634,822.7838745117188,766.7765502929688,790.1465454101562,823.99267578125
635,817.94873046875,770.8058471679688,788.5347900390625,819.1575317382812
636,824.7985229492188,780.0732421875,790.1465454101562,821.5750732421875
637,830.03662109375,780.4761962890625,791.7582397460938,826.00732421875
638,820.3662719726562,774.8351440429688,791.3552856445312,828.02197265625
639,816.3369750976562,776.4468994140625,790.5494384765625,826.4102783203125
640,819.96337890625,780.879150390625,792.1611938476562,826.00732421875
641,817.94873046875,779.2673950195312,794.1758422851562,826.00732421875
642,821.5750732421875,778.8644409179688,796.1904907226562,821.5750732421875
643,827.2161254882812,779.2673950195312,795.3846435546875,822.7838745117188
644,820.7692260742188,781.2820434570312,796.5933837890625,827.6190185546875
645,816.7399291992188,784.908447265625,799.8168334960938,826.00732421875
646,820.3662719726562,783.2966918945312,797.3992919921875,822.7838745117188
647,823.99267578125,780.879150390625,798.6080322265625,826.8131713867188
648,821.5750732421875,786.5201416015625,800.6226806640625,826.4102783203125
649,820.3662719726562,793.7728881835938,801.4285888671875,816.3369750976562
650,823.5897216796875,795.3846435546875,802.2344360351562,816.7399291992188
651,821.1721801757812,795.7875366210938,801.4285888671875,817.1428833007812
652,817.5457763671875,792.1611938476562,803.8461303710938,811.098876953125
653,817.5457763671875,788.1318969726562,800.2197875976562,805.4578857421875
654,817.94873046875,791.7582397460938,798.6080322265625,798.2051391601562
655,814.3223266601562,786.5201416015625,803.8461303710938,804.2490844726562
656,809.084228515625,785.3113403320312,799.4139404296875,801.8314819335938
657,803.040283203125,793.7728881835938,794.5787353515625,787.7289428710938
658,807.069580078125,797.8021850585938,797.3992919921875,792.1611938476562
659,809.084228515625,794.5787353515625,797.3992919921875,799.010986328125
660,799.010986328125,786.5201416015625,794.5787353515625,796.5933837890625
661,788.5347900390625,784.908447265625,791.3552856445312,794.1758422851562
662,792.1611938476562,788.1318969726562,794.1758422851562,801.8314819335938
663,799.010986328125,788.937744140625,799.010986328125,808.6813354492188
664,801.025634765625,788.937744140625,796.1904907226562,804.2490844726562
665,801.8314819335938,789.7435913085938,794.981689453125,803.4432373046875
666,802.6373901367188,786.1171875,792.5640869140625,803.4432373046875
667,801.8314819335938,787.7289428710938,788.1318969726562,799.4139404296875
668,805.4578857421875,795.3846435546875,794.1758422851562,802.2344360351562
669,807.069580078125,790.952392578125,796.5933837890625,803.4432373046875
670,801.8314819335938,780.879150390625,792.967041015625,804.6520385742188
671,799.4139404296875,786.923095703125,790.952392578125,807.87548828125
672,803.8461303710938,789.3406372070312,794.1758422851562,802.6373901367188
673,809.084228515625,789.7435913085938,796.1904907226562,805.8607788085938
674,805.4578857421875,792.5640869140625,792.967041015625,807.4725341796875
675,805.4578857421875,790.952392578125,795.3846435546875,808.2783813476562
676,804.2490844726562,788.1318969726562,795.3846435546875,807.069580078125
677,801.025634765625,792.967041015625,792.5640869140625,804.6520385742188
678,808.2783813476562,796.1904907226562,793.7728881835938,803.040283203125
679,807.069580078125,792.5640869140625,794.5787353515625,796.996337890625
680,802.2344360351562,795.3846435546875,796.1904907226562,791.7582397460938
681,804.6520385742188,791.7582397460938,795.7875366210938,794.1758422851562
682,806.6666870117188,788.1318969726562,792.1611938476562,803.8461303710938
683,806.2637329101562,790.952392578125,790.952392578125,806.2637329101562
684,804.2490844726562,791.3552856445312,790.5494384765625,801.4285888671875
685,803.8461303710938,791.7582397460938,792.1611938476562,803.4432373046875
686,799.4139404296875,788.937744140625,795.3846435546875,804.6520385742188
687,793.3699340820312,788.5347900390625,794.5787353515625,801.4285888671875
688,794.981689453125,788.937744140625,792.1611938476562,798.2051391601562
689,794.1758422851562,785.7142944335938,790.5494384765625,792.5640869140625
690,793.3699340820312,786.1171875,793.7728881835938,789.7435913085938
691,797.8021850585938,788.937744140625,794.981689453125,792.5640869140625
692,799.4139404296875,794.5787353515625,794.5787353515625,792.1611938476562
693,802.6373901367188,797.8021850585938,794.5787353515625,793.3699340820312
694,803.040283203125,794.981689453125,790.952392578125,799.4139404296875
695,802.6373901367188,790.952392578125,790.1465454101562,796.996337890625
696,800.2197875976562,791.3552856445312,790.952392578125,792.967041015625
697,795.3846435546875,794.1758422851562,788.937744140625,786.1171875
698,791.3552856445312,791.7582397460938,786.1171875,786.5201416015625
699,795.3846435546875,795.3846435546875,788.5347900390625,792.1611938476562
700,793.3699340820312,799.4139404296875,792.1611938476562,787.3259887695312
701,787.7289428710938,793.7728881835938,792.5640869140625,788.5347900390625
702,787.7289428710938,791.7582397460938,789.3406372070312,789.7435913085938
703,794.5787353515625,792.5640869140625,786.5201416015625,790.952392578125
704,797.8021850585938,792.5640869140625,791.3552856445312,797.8021850585938
705,797.8021850585938,791.7582397460938,792.5640869140625,803.8461303710938
706,800.2197875976562,788.937744140625,795.7875366210938,803.8461303710938
707,794.5787353515625,787.7289428710938,796.996337890625,796.1904907226562
708,793.7728881835938,790.1465454101562,790.5494384765625,796.996337890625
709,798.2051391601562,795.3846435546875,792.1611938476562,799.8168334960938
710,799.4139404296875,798.6080322265625,792.967041015625,799.4139404296875
711,797.3992919921875,804.6520385742188,791.3552856445312,798.2051391601562
712,789.7435913085938,806.2637329101562,794.981689453125,792.967041015625
713,791.7582397460938,796.5933837890625,795.7875366210938,796.1904907226562
714,799.4139404296875,796.996337890625,792.5640869140625,801.025634765625
715,796.5933837890625,804.6520385742188,791.3552856445312,798.6080322265625
716,796.5933837890625,805.4578857421875,794.5787353515625,800.6226806640625
717,792.967041015625,803.8461303710938,790.952392578125,800.2197875976562
718,790.1465454101562,801.8314819335938,790.1465454101562,791.7582397460938
719,795.3846435546875,801.025634765625,794.1758422851562,796.5933837890625
720,787.7289428710938,800.6226806640625,788.1318969726562,794.981689453125
721,779.2673950195312,799.4139404296875,783.2966918945312,787.3259887695312
722,786.1171875,802.2344360351562,789.7435913085938,790.952392578125
723,794.1758422851562,802.2344360351562,791.3552856445312,789.7435913085938
724,797.8021850585938,799.010986328125,790.1465454101562,790.5494384765625
725,797.3992919921875,790.1465454101562,793.3699340820312,792.5640869140625
726,786.1171875,786.923095703125,792.967041015625,785.7142944335938
727,781.6849975585938,790.952392578125,792.1611938476562,783.2966918945312
728,787.7289428710938,789.7435913085938,790.5494384765625,789.3406372070312
729,790.952392578125,786.5201416015625,792.967041015625,788.5347900390625
730,790.1465454101562,787.7289428710938,791.7582397460938,783.6996459960938
731,781.6849975585938,786.923095703125,792.5640869140625,778.4615478515625
732,781.2820434570312,785.3113403320312,797.3992919921875,781.6849975585938
733,781.2820434570312,781.6849975585938,792.967041015625,782.087890625
734,789.3406372070312,784.1025390625,796.996337890625,781.2820434570312
735,794.1758422851562,788.5347900390625,799.010986328125,781.2820434570312
736,786.923095703125,788.5347900390625,793.7728881835938,780.4761962890625
737,784.1025390625,782.4908447265625,792.967041015625,780.879150390625
738,787.7289428710938,782.4908447265625,792.5640869140625,780.4761962890625
739,795.7875366210938,790.5494384765625,794.5787353515625,785.7142944335938
740,796.996337890625,792.967041015625,795.7875366210938,790.5494384765625
741,789.7435913085938,793.3699340820312,796.1904907226562,784.908447265625
742,789.7435913085938,792.967041015625,792.1611938476562,786.5201416015625
743,794.5787353515625,789.3406372070312,790.5494384765625,790.952392578125
744,796.5933837890625,788.937744140625,791.7582397460938,790.1465454101562
745,801.4285888671875,788.937744140625,790.952392578125,791.7582397460938
746,798.2051391601562,786.923095703125,791.7582397460938,791.3552856445312
747,788.1318969726562,793.7728881835938,794.5787353515625,791.3552856445312
748,790.1465454101562,802.2344360351562,796.5933837890625,797.8021850585938
749,793.7728881835938,801.025634765625,795.3846435546875,803.040283203125
750,793.3699340820312,797.3992919921875,794.981689453125,800.6226806640625
751,790.952392578125,797.8021850585938,795.7875366210938,798.2051391601562
752,790.952392578125,802.2344360351562,795.3846435546875,796.1904907226562
753,797.8021850585938,805.054931640625,797.8021850585938,796.996337890625
754,798.2051391601562,796.5933837890625,794.1758422851562,800.2197875976562
755,795.7875366210938,789.3406372070312,786.923095703125,796.996337890625
756,791.7582397460938,796.1904907226562,784.1025390625,788.937744140625
757,790.1465454101562,797.3992919921875,781.6849975585938,786.1171875
758,791.3552856445312,793.7728881835938,784.908447265625,789.3406372070312
759,792.967041015625,788.937744140625,790.1465454101562,796.1904907226562
760,792.967041015625,793.3699340820312,794.5787353515625,796.1904907226562
761,791.3552856445312,803.4432373046875,797.3992919921875,792.5640869140625
762,794.1758422851562,799.8168334960938,792.967041015625,792.1611938476562
763,794.981689453125,798.6080322265625,791.3552856445312,790.952392578125
764,803.8461303710938,801.4285888671875,789.3406372070312,789.7435913085938
765,805.054931640625,800.6226806640625,789.3406372070312,787.3259887695312
766,797.8021850585938,801.4285888671875,792.967041015625,786.5201416015625
767,794.1758422851562,797.8021850585938,794.981689453125,786.1171875
768,789.7435913085938,790.5494384765625,793.7728881835938,787.3259887695312
769,787.7289428710938,789.3406372070312,794.981689453125,790.1465454101562
770,793.7728881835938,794.981689453125,795.7875366210938,791.7582397460938
771,795.7875366210938,800.2197875976562,797.8021850585938,796.996337890625
772,792.967041015625,801.025634765625,795.3846435546875,795.7875366210938
773,792.1611938476562,797.8021850585938,791.7582397460938,784.5054931640625
774,796.5933837890625,795.7875366210938,791.7582397460938,787.7289428710938
775,799.8168334960938,793.3699340820312,789.7435913085938,793.3699340820312
776,795.7875366210938,794.5787353515625,790.1465454101562,789.3406372070312
777,791.3552856445312,794.1758422851562,794.5787353515625,790.1465454101562
778,788.5347900390625,794.981689453125,794.1758422851562,792.5640869140625
779,792.1611938476562,797.3992919921875,796.996337890625,794.5787353515625
780,796.996337890625,798.6080322265625,801.025634765625,794.1758422851562
781,797.3992919921875,793.7728881835938,792.967041015625,788.1318969726562
782,797.3992919921875,792.5640869140625,793.3699340820312,787.7289428710938
783,793.7728881835938,794.981689453125,798.2051391601562,786.1171875
784,793.3699340820312,794.981689453125,791.3552856445312,776.4468994140625
785,796.996337890625,789.7435913085938,790.952392578125,774.8351440429688
786,794.981689453125,790.952392578125,790.5494384765625,779.6703491210938
787,789.3406372070312,797.8021850585938,787.7289428710938,776.8497924804688
788,792.1611938476562,799.8168334960938,792.5640869140625,780.0732421875
789,794.5787353515625,801.8314819335938,799.010986328125,791.7582397460938
790,797.3992919921875,797.8021850585938,801.8314819335938,802.2344360351562
791,801.8314819335938,795.7875366210938,801.025634765625,798.6080322265625
792,799.8168334960938,798.6080322265625,799.4139404296875,793.7728881835938
793,803.4432373046875,803.8461303710938,799.4139404296875,799.8168334960938
794,804.6520385742188,803.040283203125,801.025634765625,799.4139404296875
795,800.2197875976562,799.010986328125,794.1758422851562,792.967041015625
796,803.040283203125,800.2197875976562,793.3699340820312,793.7728881835938
797,800.6226806640625,801.025634765625,801.025634765625,793.7728881835938
798,786.1171875,797.3992919921875,800.6226806640625,786.923095703125
799,784.5054931640625,788.937744140625,796.996337890625,790.5494384765625
800,792.1611938476562,785.7142944335938,794.1758422851562,796.996337890625
801,792.5640869140625,789.3406372070312,794.981689453125,797.3992919921875
802,790.1465454101562,793.7728881835938,799.010986328125,792.967041015625
803,792.1611938476562,801.4285888671875,799.010986328125,793.7728881835938
804,799.010986328125,803.8461303710938,800.6226806640625,798.6080322265625
805,805.4578857421875,797.3992919921875,802.2344360351562,799.8168334960938
806,807.4725341796875,798.6080322265625,797.8021850585938,802.6373901367188
807,804.2490844726562,801.4285888671875,796.1904907226562,800.2197875976562
808,799.8168334960938,797.3992919921875,795.7875366210938,791.7582397460938
809,796.1904907226562,796.996337890625,791.3552856445312,796.5933837890625
810,793.3699340820312,802.2344360351562,795.7875366210938,796.5933837890625
811,791.3552856445312,802.6373901367188,796.1904907226562,787.7289428710938
812,787.3259887695312,792.967041015625,795.3846435546875,785.7142944335938
813,786.5201416015625,789.7435913085938,795.3846435546875,791.7582397460938
814,787.3259887695312,790.5494384765625,792.1611938476562,787.7289428710938
815,786.923095703125,788.5347900390625,792.967041015625,785.3113403320312
816,793.3699340820312,790.952392578125,792.1611938476562,786.5201416015625
817,794.1758422851562,792.967041015625,791.7582397460938,788.1318969726562
818,790.1465454101562,787.3259887695312,791.3552856445312,787.7289428710938
819,790.5494384765625,784.908447265625,789.7435913085938,780.0732421875
820,791.3552856445312,787.3259887695312,792.5640869140625,784.5054931640625
821,791.7582397460938,787.7289428710938,794.1758422851562,791.3552856445312
822,792.1611938476562,787.3259887695312,793.7728881835938,792.967041015625
823,793.7728881835938,792.1611938476562,796.5933837890625,792.967041015625
824,791.3552856445312,791.7582397460938,799.4139404296875,794.5787353515625
825,787.3259887695312,790.1465454101562,796.996337890625,789.3406372070312
826,792.5640869140625,787.3259887695312,796.5933837890625,785.3113403320312
827,800.6226806640625,786.1171875,796.1904907226562,786.1171875
828,799.4139404296875,781.6849975585938,793.7728881835938,786.1171875
829,795.7875366210938,785.3113403320312,795.3846435546875,784.1025390625
830,796.1904907226562,792.1611938476562,794.5787353515625,786.5201416015625
831,798.2051391601562,789.7435913085938,792.5640869140625,792.967041015625
832,794.5787353515625,785.3113403320312,789.3406372070312,789.7435913085938
833,787.7289428710938,782.893798828125,786.1171875,782.893798828125
834,786.923095703125,784.908447265625,786.1171875,782.087890625
835,781.6849975585938,787.7289428710938,789.7435913085938,785.3113403320312
836,780.4761962890625,791.7582397460938,789.3406372070312,795.3846435546875
837,787.3259887695312,793.7728881835938,790.952392578125,796.5933837890625
838,790.5494384765625,792.967041015625,796.1904907226562,794.981689453125
839,794.1758422851562,791.7582397460938,794.981689453125,798.6080322265625
840,795.3846435546875,793.7728881835938,795.3846435546875,795.3846435546875
841,789.3406372070312,799.4139404296875,794.5787353515625,784.5054931640625
842,791.7582397460938,801.4285888671875,793.7728881835938,786.1171875
843,803.4432373046875,799.8168334960938,796.1904907226562,795.7875366210938
844,807.069580078125,801.025634765625,793.3699340820312,800.6226806640625
845,808.2783813476562,802.6373901367188,794.1758422851562,797.8021850585938
846,813.91943359375,797.8021850585938,795.7875366210938,795.7875366210938
847,817.94873046875,793.7728881835938,792.5640869140625,806.2637329101562
848,814.3223266601562,794.5787353515625,799.010986328125,807.4725341796875
849,803.8461303710938,794.981689453125,800.6226806640625,799.4139404296875
850,793.3699340820312,790.5494384765625,791.3552856445312,794.981689453125
851,795.7875366210938,790.5494384765625,789.7435913085938,797.3992919921875
852,801.8314819335938,800.6226806640625,790.1465454101562,801.8314819335938
853,798.6080322265625,800.2197875976562,792.5640869140625,799.4139404296875
854,792.1611938476562,793.7728881835938,792.967041015625,799.4139404296875
855,786.923095703125,794.981689453125,791.7582397460938,800.6226806640625
856,783.2966918945312,794.5787353515625,790.1465454101562,794.981689453125
857,788.1318969726562,789.3406372070312,788.5347900390625,791.7582397460938
858,794.981689453125,785.7142944335938,790.5494384765625,791.3552856445312
859,795.7875366210938,789.7435913085938,791.7582397460938,795.7875366210938
860,793.3699340820312,790.1465454101562,791.3552856445312,794.981689453125
861,787.7289428710938,784.1025390625,788.1318969726562,792.1611938476562
862,784.1025390625,791.3552856445312,792.5640869140625,794.981689453125
863,787.3259887695312,796.1904907226562,792.967041015625,793.3699340820312
864,788.937744140625,789.3406372070312,789.3406372070312,788.1318969726562
865,789.7435913085938,786.1171875,788.1318969726562,792.1611938476562
866,792.967041015625,784.5054931640625,788.1318969726562,797.3992919921875
867,788.5347900390625,781.6849975585938,788.937744140625,790.5494384765625
868,783.6996459960938,786.923095703125,786.1171875,785.3113403320312
869,787.3259887695312,791.7582397460938,788.5347900390625,786.5201416015625
870,789.3406372070312,790.1465454101562,791.3552856445312,789.3406372070312
871,788.1318969726562,789.3406372070312,788.937744140625,784.5054931640625
872,794.1758422851562,791.3552856445312,788.937744140625,781.2820434570312
873,794.981689453125,793.3699340820312,790.1465454101562,783.2966918945312
874,792.967041015625,792.1611938476562,792.967041015625,784.1025390625
875,795.3846435546875,792.967041015625,796.996337890625,783.6996459960938
876,791.3552856445312,794.5787353515625,796.1904907226562,783.6996459960938
877,794.1758422851562,794.981689453125,794.981689453125,791.3552856445312
878,799.010986328125,792.967041015625,799.8168334960938,791.3552856445312
879,792.967041015625,794.981689453125,803.4432373046875,785.3113403320312
880,786.923095703125,794.981689453125,804.2490844726562,788.5347900390625
881,786.1171875,791.3552856445312,807.069580078125,791.7582397460938
882,786.1171875,790.1465454101562,802.6373901367188,786.923095703125
883,789.3406372070312,787.3259887695312,796.996337890625,779.6703491210938
884,790.1465454101562,786.923095703125,796.5933837890625,778.05859375
885,784.1025390625,788.5347900390625,794.981689453125,782.087890625
886,784.908447265625,790.1465454101562,795.3846435546875,790.5494384765625
887,782.087890625,788.1318969726562,792.967041015625,784.1025390625
888,784.1025390625,789.7435913085938,792.5640869140625,783.2966918945312
889,794.1758422851562,794.5787353515625,795.3846435546875,790.1465454101562
890,794.981689453125,796.5933837890625,794.5787353515625,787.3259887695312
891,792.1611938476562,792.1611938476562,792.1611938476562,784.1025390625
892,794.981689453125,782.4908447265625,790.1465454101562,787.3259887695312
893,799.8168334960938,782.893798828125,791.3552856445312,791.7582397460938
894,795.3846435546875,796.996337890625,794.1758422851562,788.937744140625
895,786.5201416015625,796.5933837890625,791.3552856445312,783.6996459960938
896,786.923095703125,783.2966918945312,789.7435913085938,782.4908447265625
897,787.7289428710938,785.7142944335938,789.3406372070312,782.087890625
898,792.5640869140625,792.967041015625,791.3552856445312,788.937744140625
899,795.3846435546875,796.5933837890625,794.981689453125,792.967041015625
900,782.4908447265625,796.1904907226562,796.1904907226562,790.1465454101562
901,780.0732421875,794.1758422851562,790.5494384765625,797.3992919921875
902,782.087890625,792.1611938476562,784.1025390625,793.3699340820312
903,781.2820434570312,786.1171875,788.5347900390625,782.4908447265625
904,785.3113403320312,784.5054931640625,797.3992919921875,788.1318969726562
905,784.5054931640625,788.5347900390625,797.3992919921875,788.5347900390625
906,782.4908447265625,795.7875366210938,794.981689453125,782.893798828125
907,790.1465454101562,797.3992919921875,790.952392578125,778.05859375
908,794.1758422851562,790.1465454101562,785.7142944335938,778.05859375
909,794.981689453125,788.1318969726562,786.5201416015625,788.1318969726562
910,792.967041015625,793.7728881835938,793.3699340820312,788.937744140625
911,787.3259887695312,790.952392578125,792.5640869140625,785.3113403320312
912,786.1171875,787.7289428710938,790.5494384765625,792.5640869140625
913,792.5640869140625,795.3846435546875,796.5933837890625,801.025634765625
914,792.1611938476562,794.981689453125,794.981689453125,800.2197875976562
915,789.7435913085938,790.1465454101562,794.1758422851562,796.5933837890625
916,790.5494384765625,786.923095703125,789.3406372070312,786.923095703125
917,792.967041015625,786.1171875,783.2966918945312,782.4908447265625
918,797.8021850585938,788.937744140625,784.5054931640625,786.1171875
919,801.8314819335938,787.7289428710938,789.7435913085938,789.3406372070312
920,797.8021850585938,787.7289428710938,792.967041015625,790.1465454101562
921,794.5787353515625,791.3552856445312,793.3699340820312,788.5347900390625
922,795.7875366210938,791.3552856445312,792.5640869140625,788.5347900390625
923,795.3846435546875,789.7435913085938,788.1318969726562,790.952392578125
924,798.2051391601562,791.7582397460938,789.3406372070312,788.937744140625
925,794.5787353515625,792.967041015625,790.952392578125,785.7142944335938
926,788.5347900390625,787.7289428710938,787.7289428710938,788.937744140625
927,786.923095703125,791.7582397460938,787.3259887695312,794.1758422851562
928,780.4761962890625,792.5640869140625,788.5347900390625,790.5494384765625
929,780.0732421875,785.7142944335938,786.5201416015625,787.7289428710938
930,780.4761962890625,783.6996459960938,783.6996459960938,786.923095703125
931,786.1171875,787.3259887695312,784.1025390625,783.6996459960938
932,792.1611938476562,789.3406372070312,786.5201416015625,785.7142944335938
933,788.937744140625,786.1171875,784.5054931640625,781.2820434570312
934,791.3552856445312,790.952392578125,784.908447265625,784.5054931640625
935,795.7875366210938,796.5933837890625,792.5640869140625,790.1465454101562
936,797.8021850585938,792.5640869140625,796.1904907226562,792.967041015625
937,790.1465454101562,786.5201416015625,794.1758422851562,791.7582397460938
938,789.3406372070312,791.7582397460938,793.3699340820312,792.5640869140625
939,792.967041015625,797.3992919921875,793.7728881835938,788.1318969726562
940,791.7582397460938,801.4285888671875,790.1465454101562,782.087890625
941,792.5640869140625,799.8168334960938,790.5494384765625,778.05859375
942,796.5933837890625,799.8168334960938,794.1758422851562,784.5054931640625
943,792.1611938476562,800.2197875976562,798.6080322265625,788.5347900390625
944,788.5347900390625,793.7728881835938,800.2197875976562,784.5054931640625
945,793.3699340820312,793.7728881835938,797.3992919921875,786.1171875
946,794.981689453125,797.3992919921875,794.981689453125,786.5201416015625
947,788.1318969726562,791.3552856445312,794.1758422851562,780.879150390625
948,784.908447265625,788.937744140625,795.7875366210938,783.6996459960938
949,790.952392578125,792.1611938476562,793.3699340820312,790.952392578125
950,787.7289428710938,789.7435913085938,788.937744140625,786.5201416015625
951,786.923095703125,794.1758422851562,795.3846435546875,793.7728881835938
952,783.2966918945312,798.2051391601562,795.3846435546875,792.967041015625
953,779.6703491210938,795.7875366210938,792.5640869140625,781.2820434570312
954,786.1171875,794.5787353515625,798.2051391601562,790.952392578125
955,781.6849975585938,786.923095703125,799.4139404296875,797.8021850585938
956,774.4322509765625,788.937744140625,794.5787353515625,787.7289428710938
957,784.5054931640625,799.8168334960938,796.1904907226562,788.937744140625
958,791.3552856445312,805.4578857421875,798.6080322265625,796.5933837890625
959,790.952392578125,801.4285888671875,799.010986328125,796.1904907226562
960,798.2051391601562,796.1904907226562,798.2051391601562,790.5494384765625
961,806.2637329101562,793.7728881835938,793.7728881835938,792.967041015625
962,815.5311279296875,798.6080322265625,790.5494384765625,809.89013671875
963,814.3223266601562,803.4432373046875,792.5640869140625,809.89013671875
964,797.8021850585938,794.5787353515625,801.025634765625,796.1904907226562
965,780.879150390625,790.952392578125,805.4578857421875,788.937744140625
966,778.8644409179688,799.010986328125,801.4285888671875,787.7289428710938
967,786.923095703125,798.6080322265625,800.6226806640625,788.5347900390625
968,787.7289428710938,795.7875366210938,796.996337890625,779.6703491210938
969,790.5494384765625,796.1904907226562,792.967041015625,781.6849975585938
970,797.3992919921875,796.5933837890625,793.7728881835938,794.981689453125
971,799.010986328125,794.5787353515625,792.5640869140625,790.1465454101562
972,799.4139404296875,791.7582397460938,790.5494384765625,781.2820434570312
973,796.5933837890625,795.3846435546875,792.967041015625,784.908447265625
974,786.5201416015625,795.3846435546875,795.7875366210938,782.893798828125
975,788.5347900390625,788.1318969726562,795.3846435546875,784.5054931640625
976,789.7435913085938,786.923095703125,796.1904907226562,784.5054931640625
977,786.5201416015625,784.908447265625,793.7728881835938,783.6996459960938
978,786.923095703125,784.1025390625,788.1318969726562,784.908447265625
979,785.7142944335938,791.3552856445312,790.5494384765625,785.3113403320312
980,786.923095703125,792.1611938476562,796.5933837890625,790.1465454101562
981,792.5640869140625,784.1025390625,802.2344360351562,792.967041015625
982,793.3699340820312,784.1025390625,805.054931640625,794.1758422851562
983,787.7289428710938,796.1904907226562,798.2051391601562,791.7582397460938
984,792.1611938476562,798.6080322265625,796.1904907226562,791.3552856445312
985,790.5494384765625,791.7582397460938,798.2051391601562,787.7289428710938
986,788.1318969726562,788.5347900390625,791.7582397460938,782.893798828125
987,793.3699340820312,786.923095703125,789.7435913085938,785.3113403320312
988,788.5347900390625,790.952392578125,794.5787353515625,784.5054931640625
989,788.1318969726562,791.3552856445312,794.5787353515625,789.7435913085938
990,789.7435913085938,788.1318969726562,795.7875366210938,796.996337890625
991,785.3113403320312,788.1318969726562,795.3846435546875,790.952392578125
992,786.5201416015625,787.3259887695312,793.7728881835938,788.1318969726562
993,787.3259887695312,786.1171875,790.1465454101562,788.5347900390625
994,787.3259887695312,782.087890625,788.1318969726562,783.2966918945312
995,789.3406372070312,782.087890625,792.967041015625,780.4761962890625
996,785.7142944335938,782.893798828125,790.5494384765625,781.6849975585938
997,790.1465454101562,783.2966918945312,785.7142944335938,790.5494384765625
998,797.3992919921875,791.7582397460938,788.937744140625,787.3259887695312
999,798.6080322265625,795.3846435546875,796.1904907226562,784.1025390625
1000,801.025634765625,794.5787353515625,795.3846435546875,791.7582397460938
1001,800.6226806640625,801.8314819335938,795.3846435546875,792.967041015625
1002,799.8168334960938,801.025634765625,799.4139404296875,793.7728881835938
1003,794.1758422851562,799.8168334960938,796.5933837890625,791.7582397460938
1004,789.7435913085938,800.6226806640625,797.3992919921875,792.967041015625
1005,794.5787353515625,794.1758422851562,797.3992919921875,803.8461303710938
1006,790.5494384765625,789.7435913085938,792.967041015625,788.5347900390625
1007,788.5347900390625,788.1318969726562,793.7728881835938,784.1025390625
1008,794.5787353515625,788.937744140625,794.5787353515625,790.5494384765625
1009,793.3699340820312,792.967041015625,792.1611938476562,782.4908447265625
1010,796.1904907226562,791.3552856445312,795.3846435546875,786.923095703125
1011,800.6226806640625,788.5347900390625,793.7728881835938,787.7289428710938
1012,805.054931640625,792.5640869140625,789.7435913085938,788.1318969726562
1013,801.4285888671875,799.010986328125,793.3699340820312,792.967041015625
1014,795.7875366210938,797.3992919921875,793.3699340820312,793.7728881835938
1015,794.1758422851562,794.1758422851562,794.5787353515625,794.981689453125
1016,793.3699340820312,794.981689453125,798.6080322265625,796.1904907226562
1017,788.1318969726562,795.3846435546875,801.8314819335938,794.1758422851562
1018,784.1025390625,796.5933837890625,804.2490844726562,788.5347900390625
1019,791.3552856445312,794.5787353515625,800.6226806640625,792.5640869140625
1020,791.7582397460938,793.3699340820312,798.2051391601562,799.8168334960938
1021,789.3406372070312,795.7875366210938,803.8461303710938,800.2197875976562
1022,797.3992919921875,799.010986328125,803.4432373046875,799.8168334960938
1023,796.5933837890625,794.981689453125,797.3992919921875,797.3992919921875
1024,795.7875366210938,792.967041015625,799.8168334960938,792.5640869140625
1025,806.2637329101562,795.7875366210938,800.6226806640625,794.1758422851562
1026,804.6520385742188,791.7582397460938,793.3699340820312,792.5640869140625
1027,796.5933837890625,786.5201416015625,794.1758422851562,792.967041015625
1028,799.4139404296875,797.8021850585938,794.5787353515625,801.4285888671875
1029,798.6080322265625,802.2344360351562,795.7875366210938,795.3846435546875
1030,798.6080322265625,790.5494384765625,795.7875366210938,786.1171875
1031,801.025634765625,784.1025390625,794.981689453125,788.1318969726562
1032,800.2197875976562,787.7289428710938,799.4139404296875,791.3552856445312
1033,796.1904907226562,797.3992919921875,791.7582397460938,788.5347900390625
1034,787.7289428710938,794.981689453125,786.1171875,782.087890625
1035,784.1025390625,789.3406372070312,788.937744140625,784.908447265625
1036,792.5640869140625,793.3699340820312,789.3406372070312,786.923095703125
1037,795.3846435546875,796.5933837890625,788.937744140625,782.087890625
1038,788.1318969726562,794.1758422851562,788.1318969726562,778.8644409179688
1039,784.1025390625,788.937744140625,788.5347900390625,784.1025390625
1040,782.893798828125,788.5347900390625,789.7435913085938,788.1318969726562
1041,785.7142944335938,786.923095703125,784.5054931640625,782.087890625
1042,789.7435913085938,783.6996459960938,785.3113403320312,781.2820434570312
1043,793.3699340820312,788.5347900390625,793.3699340820312,790.5494384765625
1044,795.3846435546875,791.3552856445312,793.3699340820312,790.952392578125
1045,799.4139404296875,796.5933837890625,793.7728881835938,794.981689453125
1046,799.4139404296875,795.7875366210938,792.1611938476562,799.010986328125
1047,799.010986328125,788.5347900390625,792.967041015625,796.1904907226562
1048,796.1904907226562,786.923095703125,790.952392578125,792.967041015625
1049,793.3699340820312,790.5494384765625,792.5640869140625,791.3552856445312
1050,796.996337890625,787.7289428710938,793.7728881835938,788.937744140625
1051,797.3992919921875,783.6996459960938,794.981689453125,790.1465454101562
1052,788.937744140625,786.923095703125,798.2051391601562,791.7582397460938
1053,784.5054931640625,788.1318969726562,794.981689453125,784.5054931640625
1054,786.923095703125,790.5494384765625,789.3406372070312,783.6996459960938
1055,790.1465454101562,794.5787353515625,789.7435913085938,794.1758422851562
1056,786.923095703125,793.7728881835938,794.981689453125,791.3552856445312
1057,791.7582397460938,793.3699340820312,799.010986328125,790.5494384765625
1058,790.1465454101562,794.1758422851562,794.981689453125,791.7582397460938
1059,784.908447265625,792.5640869140625,794.1758422851562,789.3406372070312
1060,788.1318969726562,788.937744140625,794.1758422851562,793.7728881835938
1061,791.7582397460938,789.3406372070312,792.967041015625,801.4285888671875
1062,790.5494384765625,792.967041015625,792.1611938476562,801.025634765625
1063,786.923095703125,796.996337890625,791.7582397460938,798.2051391601562
1064,786.923095703125,792.5640869140625,792.967041015625,790.952392578125
1065,786.923095703125,791.3552856445312,792.5640869140625,787.7289428710938
1066,786.923095703125,795.3846435546875,789.7435913085938,798.2051391601562
1067,787.3259887695312,795.3846435546875,792.5640869140625,804.6520385742188
1068,784.1025390625,795.3846435546875,793.3699340820312,799.8168334960938
1069,784.1025390625,792.1611938476562,792.1611938476562,805.054931640625
1070,787.7289428710938,791.7582397460938,792.967041015625,810.2930297851562
1071,788.1318969726562,793.3699340820312,794.1758422851562,804.2490844726562
1072,794.5787353515625,790.1465454101562,793.7728881835938,805.8607788085938
1073,801.4285888671875,790.5494384765625,790.1465454101562,803.8461303710938
1074,796.5933837890625,796.5933837890625,792.5640869140625,798.6080322265625
1075,792.5640869140625,794.1758422851562,795.3846435546875,799.4139404296875
1076,792.5640869140625,794.5787353515625,794.1758422851562,800.2197875976562
1077,796.996337890625,801.025634765625,793.7728881835938,803.040283203125
1078,793.3699340820312,796.1904907226562,792.5640869140625,799.010986328125
1079,790.952392578125,795.3846435546875,789.7435913085938,790.1465454101562
1080,798.2051391601562,792.5640869140625,794.1758422851562,791.7582397460938
1081,797.3992919921875,792.1611938476562,791.3552856445312,794.1758422851562
1082,796.5933837890625,790.5494384765625,787.3259887695312,794.1758422851562
1083,797.3992919921875,788.937744140625,786.923095703125,792.967041015625
1084,798.2051391601562,794.981689453125,784.908447265625,793.3699340820312
1085,799.010986328125,793.3699340820312,784.908447265625,793.3699340820312
1086,797.8021850585938,793.3699340820312,784.5054931640625,797.3992919921875
1087,799.8168334960938,795.7875366210938,785.3113403320312,801.4285888671875
1088,803.8461303710938,792.967041015625,790.5494384765625,799.010986328125
1089,806.6666870117188,796.5933837890625,793.7728881835938,801.8314819335938
1090,801.4285888671875,790.952392578125,791.7582397460938,799.010986328125
1091,794.1758422851562,786.5201416015625,792.5640869140625,794.1758422851562
1092,796.996337890625,789.3406372070312,793.7728881835938,790.1465454101562
1093,799.010986328125,788.937744140625,791.7582397460938,785.3113403320312
1094,790.5494384765625,790.5494384765625,788.1318969726562,790.1465454101562
1095,784.908447265625,786.5201416015625,790.1465454101562,789.7435913085938
1096,784.5054931640625,786.1171875,793.3699340820312,786.5201416015625
1097,785.7142944335938,788.5347900390625,793.3699340820312,792.967041015625
1098,788.1318969726562,783.2966918945312,797.3992919921875,792.1611938476562
1099,787.7289428710938,784.5054931640625,798.2051391601562,787.7289428710938
1100,788.5347900390625,790.1465454101562,794.1758422851562,786.923095703125
1101,792.1611938476562,789.3406372070312,797.8021850585938,793.7728881835938
1102,791.7582397460938,788.5347900390625,802.6373901367188,791.3552856445312
1103,797.3992919921875,788.937744140625,800.6226806640625,790.5494384765625
1104,801.4285888671875,792.967041015625,799.010986328125,799.4139404296875
1105,803.040283203125,796.996337890625,802.2344360351562,799.8168334960938
1106,805.054931640625,802.2344360351562,804.2490844726562,799.010986328125
1107,804.6520385742188,802.6373901367188,802.2344360351562,799.8168334960938
1108,808.6813354492188,796.996337890625,802.6373901367188,804.2490844726562
1109,811.098876953125,802.2344360351562,803.4432373046875,807.87548828125
1110,808.2783813476562,804.2490844726562,803.4432373046875,807.4725341796875
1111,811.90478515625,801.025634765625,805.8607788085938,811.5018310546875
1112,819.1575317382812,801.025634765625,809.89013671875,816.3369750976562
1113,815.93408203125,804.2490844726562,805.054931640625,813.5164794921875
1114,804.2490844726562,801.4285888671875,798.6080322265625,800.6226806640625
1115,802.2344360351562,796.5933837890625,801.025634765625,794.1758422851562
1116,799.010986328125,794.981689453125,801.025634765625,795.3846435546875
1117,796.1904907226562,796.1904907226562,801.025634765625,801.025634765625
1118,802.2344360351562,796.996337890625,808.2783813476562,805.4578857421875
1119,796.1904907226562,791.3552856445312,810.6959838867188,803.4432373046875
1120,789.3406372070312,790.1465454101562,808.2783813476562,803.040283203125
1121,788.5347900390625,789.3406372070312,807.069580078125,796.5933837890625
1122,786.1171875,787.7289428710938,806.6666870117188,795.7875366210938
1123,789.3406372070312,793.3699340820312,808.6813354492188,805.4578857421875
1124,781.2820434570312,794.5787353515625,805.8607788085938,805.8607788085938
1125,770.8058471679688,793.3699340820312,799.8168334960938,792.1611938476562
1126,773.2234497070312,795.7875366210938,802.6373901367188,788.937744140625
1127,778.05859375,796.5933837890625,805.4578857421875,791.3552856445312
1128,780.0732421875,794.5787353515625,805.054931640625,788.937744140625
1129,781.6849975585938,795.7875366210938,804.2490844726562,795.3846435546875
1130,786.5201416015625,794.981689453125,801.025634765625,794.1758422851562
1131,792.5640869140625,794.5787353515625,798.2051391601562,786.1171875
1132,798.2051391601562,801.025634765625,795.7875366210938,790.5494384765625
1133,805.4578857421875,796.996337890625,792.967041015625,788.5347900390625
1134,806.6666870117188,788.1318969726562,792.1611938476562,782.087890625
1135,801.025634765625,795.3846435546875,792.967041015625,791.3552856445312
1136,803.040283203125,803.8461303710938,795.3846435546875,798.2051391601562
1137,802.6373901367188,807.4725341796875,796.996337890625,784.908447265625
1138,801.4285888671875,809.084228515625,797.8021850585938,781.2820434570312
1139,809.4871826171875,805.8607788085938,796.5933837890625,787.3259887695312
1140,808.6813354492188,802.2344360351562,798.6080322265625,784.908447265625
1141,809.084228515625,805.4578857421875,805.8607788085938,794.1758422851562
1142,810.2930297851562,805.4578857421875,808.6813354492188,801.4285888671875
1143,805.8607788085938,796.996337890625,804.2490844726562,802.6373901367188
1144,799.4139404296875,797.3992919921875,801.8314819335938,803.040283203125
1145,796.5933837890625,793.7728881835938,801.025634765625,801.4285888671875
1146,788.937744140625,786.923095703125,805.8607788085938,800.2197875976562
1147,774.4322509765625,785.7142944335938,806.2637329101562,790.952392578125
1148,772.8204956054688,788.5347900390625,796.1904907226562,782.4908447265625
1149,781.2820434570312,788.937744140625,794.981689453125,787.3259887695312
1150,782.4908447265625,786.923095703125,796.1904907226562,783.6996459960938
1151,781.6849975585938,793.3699340820312,794.5787353515625,780.879150390625
1152,782.893798828125,797.8021850585938,794.5787353515625,783.6996459960938
1153,788.937744140625,800.6226806640625,790.952392578125,781.6849975585938
1154,792.5640869140625,799.010986328125,788.5347900390625,780.4761962890625
1155,792.1611938476562,798.6080322265625,790.952392578125,780.4761962890625
1156,790.952392578125,803.4432373046875,794.981689453125,779.6703491210938
1157,792.967041015625,806.2637329101562,796.996337890625,778.05859375
1158,796.1904907226562,799.8168334960938,797.8021850585938,780.0732421875
1159,790.1465454101562,795.7875366210938,792.1611938476562,786.923095703125
1160,783.6996459960938,790.5494384765625,784.1025390625,788.5347900390625
1161,788.937744140625,786.1171875,785.3113403320312,784.5054931640625
1162,789.7435913085938,788.5347900390625,785.7142944335938,789.7435913085938
1163,786.1171875,788.5347900390625,784.1025390625,792.5640869140625
1164,789.7435913085938,789.3406372070312,784.5054931640625,789.3406372070312
1165,795.7875366210938,790.1465454101562,788.1318969726562,792.5640869140625
1166,798.6080322265625,796.5933837890625,792.1611938476562,795.7875366210938
1167,792.967041015625,801.8314819335938,797.8021850585938,796.1904907226562
1168,792.1611938476562,799.4139404296875,796.5933837890625,796.1904907226562
1169,794.5787353515625,796.1904907226562,795.7875366210938,796.5933837890625
1170,793.3699340820312,796.996337890625,799.010986328125,799.010986328125
1171,789.7435913085938,796.1904907226562,795.3846435546875,798.6080322265625
1172,782.087890625,787.3259887695312,791.7582397460938,786.923095703125
1173,781.2820434570312,785.7142944335938,785.7142944335938,779.2673950195312
1174,788.5347900390625,794.5787353515625,784.1025390625,789.7435913085938
1175,787.7289428710938,797.8021850585938,786.1171875,790.5494384765625
1176,784.1025390625,792.1611938476562,783.6996459960938,784.5054931640625
1177,778.8644409179688,789.7435913085938,785.7142944335938,783.2966918945312
1178,779.2673950195312,792.967041015625,788.937744140625,784.1025390625
1179,788.1318969726562,795.3846435546875,790.952392578125,788.5347900390625
1180,788.1318969726562,791.3552856445312,788.5347900390625,787.3259887695312
1181,786.5201416015625,791.3552856445312,788.1318969726562,784.908447265625
1182,786.5201416015625,792.1611938476562,791.7582397460938,783.2966918945312
1183,787.7289428710938,792.967041015625,786.923095703125,782.087890625
1184,792.1611938476562,788.937744140625,781.2820434570312,781.2820434570312
1185,787.7289428710938,791.7582397460938,783.6996459960938,783.2966918945312
1186,781.2820434570312,799.4139404296875,784.1025390625,785.7142944335938
1187,782.4908447265625,797.8021850585938,784.1025390625,783.6996459960938
1188,788.5347900390625,790.952392578125,786.1171875,785.3113403320312
1189,791.7582397460938,787.7289428710938,789.7435913085938,790.5494384765625
1190,796.5933837890625,796.1904907226562,797.8021850585938,799.010986328125
1191,797.3992919921875,802.2344360351562,799.010986328125,798.6080322265625
1192,796.1904907226562,801.4285888671875,798.2051391601562,798.2051391601562
1193,797.8021850585938,797.3992919921875,800.2197875976562,799.010986328125
1194,798.2051391601562,793.3699340820312,795.7875366210938,793.7728881835938
1195,795.7875366210938,792.1611938476562,794.5787353515625,790.5494384765625
1196,788.5347900390625,787.3259887695312,796.1904907226562,787.3259887695312
1197,786.923095703125,786.923095703125,794.1758422851562,790.952392578125
1198,786.5201416015625,791.7582397460938,795.7875366210938,786.5201416015625
1199,781.6849975585938,792.1611938476562,796.5933837890625,784.5054931640625
1200,784.908447265625,788.937744140625,794.5787353515625,785.3113403320312
1201,788.5347900390625,788.1318969726562,795.3846435546875,779.2673950195312
1202,789.3406372070312,794.1758422851562,794.1758422851562,778.4615478515625
1203,788.1318969726562,794.5787353515625,790.952392578125,782.4908447265625
1204,786.5201416015625,789.7435913085938,789.3406372070312,782.893798828125
1205,791.7582397460938,788.937744140625,790.952392578125,783.2966918945312
1206,792.967041015625,794.1758422851562,792.5640869140625,781.6849975585938
1207,790.5494384765625,797.3992919921875,790.952392578125,780.0732421875
1208,789.7435913085938,799.8168334960938,794.1758422851562,787.3259887695312
1209,794.1758422851562,801.8314819335938,797.3992919921875,789.3406372070312
1210,798.2051391601562,791.7582397460938,795.3846435546875,784.5054931640625
1211,793.7728881835938,788.5347900390625,794.5787353515625,788.5347900390625
1212,792.5640869140625,792.5640869140625,796.996337890625,792.5640869140625
1213,797.3992919921875,798.2051391601562,798.2051391601562,795.3846435546875
1214,802.2344360351562,798.6080322265625,798.2051391601562,797.3992919921875
1215,803.040283203125,790.5494384765625,796.996337890625,790.952392578125
1216,797.8021850585938,793.7728881835938,796.1904907226562,787.7289428710938
1217,792.5640869140625,799.010986328125,797.8021850585938,786.923095703125
1218,788.1318969726562,801.025634765625,795.7875366210938,783.2966918945312
1219,788.5347900390625,802.2344360351562,795.3846435546875,784.1025390625
1220,783.6996459960938,796.5933837890625,796.1904907226562,787.3259887695312
1221,781.2820434570312,792.967041015625,793.3699340820312,784.1025390625
1222,784.908447265625,794.981689453125,794.1758422851562,783.2966918945312
1223,789.3406372070312,798.6080322265625,796.996337890625,781.2820434570312
1224,796.5933837890625,801.025634765625,797.8021850585938,781.2820434570312
1225,798.6080322265625,794.981689453125,797.8021850585938,783.6996459960938
1226,798.2051391601562,793.7728881835938,797.3992919921875,785.7142944335938
1227,794.5787353515625,799.4139404296875,797.8021850585938,788.5347900390625
1228,788.5347900390625,799.4139404296875,796.1904907226562,778.4615478515625
1229,787.3259887695312,799.8168334960938,796.5933837890625,777.6557006835938
1230,788.5347900390625,802.6373901367188,799.4139404296875,790.952392578125
1231,790.952392578125,803.040283203125,796.1904907226562,800.2197875976562
1232,791.3552856445312,802.6373901367188,795.7875366210938,796.5933837890625
1233,790.1465454101562,800.2197875976562,796.996337890625,784.5054931640625
1234,800.6226806640625,798.2051391601562,795.7875366210938,787.7289428710938
1235,806.6666870117188,801.4285888671875,796.5933837890625,789.7435913085938
1236,801.8314819335938,799.010986328125,791.3552856445312,786.923095703125
1237,795.3846435546875,794.981689453125,792.5640869140625,783.2966918945312
1238,792.967041015625,792.1611938476562,794.981689453125,782.087890625
1239,797.8021850585938,793.7728881835938,793.7728881835938,791.3552856445312
1240,808.2783813476562,801.4285888671875,793.3699340820312,796.1904907226562
1241,807.4725341796875,804.2490844726562,798.6080322265625,799.8168334960938
1242,794.5787353515625,797.3992919921875,798.6080322265625,794.1758422851562
1243,784.1025390625,790.952392578125,794.981689453125,787.3259887695312
1244,787.7289428710938,791.3552856445312,794.5787353515625,790.1465454101562
1245,790.1465454101562,791.7582397460938,790.1465454101562,786.1171875
1246,792.5640869140625,792.5640869140625,788.937744140625,791.7582397460938
1247,790.952392578125,790.1465454101562,788.937744140625,795.7875366210938
1248,788.5347900390625,790.1465454101562,790.952392578125,793.3699340820312
1249,788.1318969726562,789.3406372070312,790.1465454101562,791.3552856445312
1250,785.7142944335938,788.1318969726562,790.5494384765625,788.937744140625
1251,794.5787353515625,793.3699340820312,792.1611938476562,788.5347900390625
1252,799.010986328125,792.5640869140625,790.5494384765625,789.3406372070312
1253,794.5787353515625,790.1465454101562,788.5347900390625,786.1171875
1254,792.967041015625,790.1465454101562,784.5054931640625,790.1465454101562
1255,796.996337890625,791.7582397460938,783.6996459960938,792.5640869140625
1256,793.7728881835938,792.1611938476562,788.937744140625,787.7289428710938
1257,796.5933837890625,793.3699340820312,789.3406372070312,791.7582397460938
1258,803.8461303710938,797.3992919921875,793.7728881835938,801.4285888671875
1259,797.3992919921875,796.996337890625,798.2051391601562,803.8461303710938
1260,792.967041015625,787.7289428710938,795.3846435546875,799.010986328125
1261,793.3699340820312,790.5494384765625,793.3699340820312,794.5787353515625
1262,795.3846435546875,792.967041015625,792.967041015625,792.5640869140625
1263,794.981689453125,786.923095703125,790.952392578125,787.7289428710938
1264,788.1318969726562,784.908447265625,789.3406372070312,783.2966918945312
1265,790.1465454101562,785.7142944335938,789.3406372070312,786.1171875
1266,798.2051391601562,789.3406372070312,785.3113403320312,790.1465454101562
1267,796.1904907226562,793.7728881835938,782.893798828125,794.1758422851562
1268,794.981689453125,791.3552856445312,790.5494384765625,792.967041015625
1269,794.1758422851562,789.7435913085938,792.5640869140625,796.5933837890625
1270,792.967041015625,793.7728881835938,787.7289428710938,805.054931640625
1271,795.3846435546875,797.3992919921875,786.923095703125,799.4139404296875
1272,799.010986328125,799.8168334960938,791.7582397460938,793.3699340820312
1273,791.3552856445312,797.8021850585938,792.1611938476562,788.937744140625
1274,782.087890625,795.7875366210938,793.3699340820312,786.923095703125
1275,786.1171875,799.8168334960938,794.981689453125,794.5787353515625
1276,786.923095703125,798.6080322265625,795.7875366210938,792.1611938476562
1277,791.7582397460938,798.6080322265625,798.6080322265625,796.5933837890625
1278,793.7728881835938,803.040283203125,794.5787353515625,799.010986328125
1279,787.3259887695312,793.7728881835938,793.3699340820312,796.1904907226562
1280,788.1318969726562,788.5347900390625,792.967041015625,795.3846435546875
1281,796.1904907226562,794.5787353515625,793.3699340820312,796.5933837890625
1282,795.3846435546875,798.2051391601562,795.7875366210938,796.1904907226562
1283,795.7875366210938,803.040283203125,796.1904907226562,790.5494384765625
1284,799.010986328125,803.4432373046875,796.996337890625,791.3552856445312
1285,793.7728881835938,801.8314819335938,797.8021850585938,791.3552856445312
1286,793.7728881835938,801.4285888671875,800.2197875976562,794.981689453125
1287,799.8168334960938,798.6080322265625,798.2051391601562,798.2051391601562
1288,801.025634765625,795.7875366210938,792.967041015625,795.3846435546875
1289,795.3846435546875,791.3552856445312,793.7728881835938,797.8021850585938
1290,794.5787353515625,789.7435913085938,799.8168334960938,798.2051391601562
1291,797.8021850585938,791.7582397460938,803.4432373046875,796.5933837890625
1292,797.3992919921875,792.1611938476562,797.8021850585938,801.8314819335938
1293,794.5787353515625,794.1758422851562,796.1904907226562,805.8607788085938
1294,789.3406372070312,796.5933837890625,801.4285888671875,797.3992919921875
1295,790.952392578125,799.4139404296875,803.8461303710938,796.5933837890625
1296,794.981689453125,800.2197875976562,805.4578857421875,796.1904907226562
1297,796.5933837890625,801.8314819335938,803.8461303710938,798.6080322265625
1298,792.967041015625,794.981689453125,801.4285888671875,798.2051391601562
1299,793.3699340820312,783.6996459960938,799.010986328125,793.3699340820312
1300,800.2197875976562,784.5054931640625,798.2051391601562,793.7728881835938
1301,794.981689453125,792.1611938476562,795.3846435546875,790.952392578125
1302,792.967041015625,792.1611938476562,793.3699340820312,790.952392578125
1303,801.025634765625,791.3552856445312,792.5640869140625,794.1758422851562
1304,797.3992919921875,789.7435913085938,792.1611938476562,792.967041015625
1305,790.5494384765625,788.1318969726562,796.5933837890625,793.3699340820312
1306,789.3406372070312,788.5347900390625,795.7875366210938,792.1611938476562
1307,794.981689453125,788.5347900390625,790.952392578125,794.981689453125
1308,796.996337890625,787.7289428710938,793.7728881835938,796.996337890625
1309,792.967041015625,783.2966918945312,796.996337890625,795.3846435546875
1310,798.2051391601562,793.3699340820312,796.996337890625,794.981689453125
1311,797.8021850585938,792.967041015625,791.7582397460938,791.3552856445312
1312,794.1758422851562,790.952392578125,785.3113403320312,788.5347900390625
1313,796.1904907226562,795.7875366210938,783.2966918945312,790.952392578125
1314,792.1611938476562,792.5640869140625,784.1025390625,786.923095703125
1315,791.7582397460938,788.937744140625,787.7289428710938,784.5054931640625
1316,794.1758422851562,788.1318969726562,789.7435913085938,790.5494384765625
1317,792.5640869140625,785.3113403320312,790.5494384765625,784.5054931640625
1318,792.5640869140625,785.7142944335938,787.3259887695312,778.8644409179688
1319,799.010986328125,792.5640869140625,785.7142944335938,785.3113403320312
1320,800.6226806640625,795.7875366210938,786.5201416015625,784.908447265625
1321,794.5787353515625,796.5933837890625,791.3552856445312,783.2966918945312
1322,792.5640869140625,791.7582397460938,790.952392578125,785.7142944335938
1323,792.1611938476562,792.1611938476562,786.923095703125,787.7289428710938
1324,790.1465454101562,794.1758422851562,787.7289428710938,788.937744140625
1325,784.1025390625,795.3846435546875,785.7142944335938,783.2966918945312
1326,783.6996459960938,790.5494384765625,789.3406372070312,780.4761962890625
1327,787.7289428710938,788.1318969726562,792.1611938476562,793.3699340820312
1328,787.7289428710938,794.5787353515625,787.7289428710938,796.5933837890625
1329,789.3406372070312,800.2197875976562,789.3406372070312,794.5787353515625
1330,788.5347900390625,801.8314819335938,792.1611938476562,795.7875366210938
1331,796.1904907226562,801.025634765625,795.3846435546875,799.010986328125
1332,798.6080322265625,796.5933837890625,798.2051391601562,796.996337890625
1333,797.3992919921875,794.5787353515625,797.3992919921875,795.7875366210938
1334,800.2197875976562,797.8021850585938,790.5494384765625,795.3846435546875
1335,798.6080322265625,798.6080322265625,788.5347900390625,792.967041015625
1336,799.4139404296875,795.7875366210938,790.952392578125,796.996337890625
1337,794.5787353515625,790.952392578125,792.5640869140625,792.1611938476562
1338,792.1611938476562,793.7728881835938,795.7875366210938,792.5640869140625
1339,791.3552856445312,792.967041015625,793.3699340820312,792.5640869140625
1340,782.4908447265625,789.3406372070312,790.5494384765625,786.1171875
1341,783.2966918945312,788.937744140625,791.7582397460938,786.1171875
1342,787.7289428710938,783.2966918945312,793.7728881835938,786.1171875
1343,790.5494384765625,784.908447265625,786.923095703125,786.5201416015625
1344,790.5494384765625,792.1611938476562,780.879150390625,792.1611938476562
1345,790.1465454101562,790.5494384765625,787.7289428710938,790.1465454101562
1346,788.5347900390625,792.1611938476562,793.7728881835938,790.952392578125
1347,785.7142944335938,792.5640869140625,795.3846435546875,797.3992919921875
1348,787.3259887695312,788.937744140625,797.3992919921875,787.7289428710938
1349,785.3113403320312,787.3259887695312,795.7875366210938,782.087890625
1350,783.2966918945312,787.7289428710938,795.3846435546875,786.1171875
1351,779.6703491210938,788.1318969726562,796.1904907226562,781.6849975585938
1352,778.05859375,780.0732421875,792.5640869140625,776.4468994140625
1353,783.2966918945312,781.6849975585938,789.3406372070312,779.6703491210938
1354,789.3406372070312,786.923095703125,792.5640869140625,789.3406372070312
1355,791.7582397460938,782.4908447265625,790.952392578125,792.5640869140625
1356,789.7435913085938,783.2966918945312,789.3406372070312,789.7435913085938
1357,790.1465454101562,784.1025390625,794.5787353515625,786.5201416015625
1358,793.3699340820312,787.7289428710938,794.1758422851562,787.3259887695312
1359,790.5494384765625,789.7435913085938,792.1611938476562,786.5201416015625
1360,788.5347900390625,791.3552856445312,791.3552856445312,786.5201416015625
1361,792.1611938476562,802.6373901367188,794.1758422851562,789.7435913085938
1362,792.5640869140625,807.069580078125,798.2051391601562,789.7435913085938
1363,793.7728881835938,806.2637329101562,798.2051391601562,792.1611938476562
1364,794.981689453125,803.4432373046875,799.4139404296875,796.1904907226562
1365,793.3699340820312,797.3992919921875,796.996337890625,794.1758422851562
1366,790.952392578125,792.5640869140625,796.1904907226562,788.5347900390625
1367,791.3552856445312,793.7728881835938,796.996337890625,793.7728881835938
1368,794.1758422851562,794.5787353515625,795.3846435546875,801.4285888671875
1369,787.7289428710938,790.1465454101562,796.5933837890625,797.3992919921875
1370,783.2966918945312,790.952392578125,799.8168334960938,792.967041015625
1371,787.7289428710938,787.7289428710938,802.2344360351562,794.1758422851562
1372,785.3113403320312,784.1025390625,800.2197875976562,793.7728881835938
1373,784.5054931640625,790.1465454101562,799.010986328125,806.2637329101562
1374,790.1465454101562,794.1758422851562,801.4285888671875,810.6959838867188
1375,788.937744140625,793.3699340820312,804.2490844726562,799.4139404296875
1376,786.923095703125,794.981689453125,801.4285888671875,796.996337890625
1377,789.7435913085938,790.1465454101562,799.010986328125,799.010986328125
1378,793.7728881835938,786.923095703125,795.7875366210938,796.996337890625
1379,798.2051391601562,789.7435913085938,794.1758422851562,796.5933837890625
1380,796.1904907226562,794.1758422851562,799.4139404296875,805.8607788085938
1381,791.7582397460938,797.3992919921875,799.8168334960938,805.054931640625
1382,791.7582397460938,795.7875366210938,800.6226806640625,798.6080322265625
1383,796.996337890625,792.967041015625,806.6666870117188,800.6226806640625
1384,796.1904907226562,791.7582397460938,804.6520385742188,799.010986328125
1385,790.952392578125,796.1904907226562,800.6226806640625,798.6080322265625
1386,789.7435913085938,795.7875366210938,797.3992919921875,794.1758422851562
1387,789.7435913085938,794.5787353515625,794.1758422851562,783.2966918945312
1388,790.5494384765625,795.3846435546875,792.1611938476562,783.2966918945312
1389,788.5347900390625,792.967041015625,791.7582397460938,791.7582397460938
1390,788.937744140625,793.7728881835938,790.952392578125,793.7728881835938
1391,786.923095703125,794.5787353515625,790.5494384765625,788.937744140625
1392,786.1171875,792.967041015625,796.5933837890625,793.7728881835938
1393,785.3113403320312,795.7875366210938,795.7875366210938,796.5933837890625
1394,785.7142944335938,794.5787353515625,786.5201416015625,788.1318969726562
1395,784.5054931640625,786.1171875,790.1465454101562,786.5201416015625
1396,780.879150390625,785.3113403320312,797.3992919921875,790.5494384765625
1397,782.893798828125,793.3699340820312,798.2051391601562,788.1318969726562
1398,784.5054931640625,794.981689453125,796.5933837890625,785.3113403320312
1399,787.7289428710938,794.5787353515625,793.3699340820312,783.2966918945312
1400,796.996337890625,796.5933837890625,795.3846435546875,787.7289428710938
1401,792.1611938476562,795.7875366210938,796.996337890625,783.6996459960938
1402,782.893798828125,791.7582397460938,795.7875366210938,776.0439453125
1403,783.6996459960938,788.1318969726562,792.1611938476562,778.8644409179688
1404,781.2820434570312,788.1318969726562,787.7289428710938,774.8351440429688
1405,784.5054931640625,793.3699340820312,796.1904907226562,786.1171875
1406,794.981689453125,793.7728881835938,802.2344360351562,803.040283203125
1407,791.3552856445312,789.7435913085938,802.2344360351562,794.1758422851562
1408,782.087890625,790.952392578125,801.4285888671875,781.6849975585938
1409,788.5347900390625,800.2197875976562,798.2051391601562,790.5494384765625
1410,785.7142944335938,799.010986328125,797.3992919921875,793.7728881835938
1411,782.087890625,793.7728881835938,795.3846435546875,786.5201416015625
1412,791.7582397460938,795.3846435546875,791.7582397460938,796.1904907226562
1413,788.937744140625,795.7875366210938,790.1465454101562,790.952392578125
1414,792.5640869140625,799.010986328125,788.937744140625,782.893798828125
1415,801.025634765625,801.025634765625,786.923095703125,788.937744140625
1416,795.7875366210938,798.2051391601562,792.1611938476562,791.3552856445312
1417,793.7728881835938,796.1904907226562,799.010986328125,794.981689453125
1418,794.1758422851562,793.3699340820312,796.996337890625,793.3699340820312
1419,791.3552856445312,792.1611938476562,789.3406372070312,784.908447265625
1420,790.952392578125,791.3552856445312,786.5201416015625,784.908447265625
1421,792.967041015625,792.967041015625,790.1465454101562,791.3552856445312
1422,787.3259887695312,789.3406372070312,794.1758422851562,785.7142944335938
1423,787.3259887695312,790.5494384765625,793.7728881835938,792.5640869140625
1424,789.7435913085938,794.1758422851562,791.3552856445312,798.6080322265625
1425,791.3552856445312,793.7728881835938,796.5933837890625,787.3259887695312
1426,797.3992919921875,794.981689453125,799.010986328125,789.3406372070312
1427,798.6080322265625,795.3846435546875,799.010986328125,792.967041015625
1428,792.967041015625,797.8021850585938,797.8021850585938,790.1465454101562
1429,795.7875366210938,796.5933837890625,794.1758422851562,792.1611938476562
1430,798.2051391601562,794.1758422851562,795.7875366210938,794.5787353515625
1431,801.8314819335938,799.4139404296875,792.1611938476562,797.8021850585938
1432,799.4139404296875,804.2490844726562,794.1758422851562,790.1465454101562
1433,790.952392578125,803.040283203125,796.1904907226562,780.4761962890625
1434,802.2344360351562,793.7728881835938,788.937744140625,792.5640869140625
1435,805.8607788085938,793.3699340820312,789.3406372070312,796.996337890625
1436,798.2051391601562,798.2051391601562,792.967041015625,795.7875366210938
1437,797.3992919921875,799.8168334960938,792.967041015625,801.8314819335938
1438,791.7582397460938,796.1904907226562,792.1611938476562,795.3846435546875
1439,792.967041015625,795.3846435546875,792.1611938476562,794.981689453125
1440,794.981689453125,798.2051391601562,794.981689453125,792.1611938476562
1441,795.3846435546875,795.3846435546875,795.3846435546875,792.5640869140625
1442,794.981689453125,791.3552856445312,789.7435913085938,794.5787353515625
1443,791.3552856445312,787.3259887695312,790.5494384765625,794.1758422851562
1444,793.7728881835938,788.1318969726562,792.5640869140625,799.8168334960938
1445,800.2197875976562,788.5347900390625,792.5640869140625,802.2344360351562
1446,801.4285888671875,788.1318969726562,792.967041015625,798.2051391601562
1447,802.2344360351562,790.5494384765625,794.981689453125,792.1611938476562
1448,804.2490844726562,792.1611938476562,797.3992919921875,786.5201416015625
1449,797.8021850585938,788.5347900390625,795.7875366210938,783.2966918945312
1450,794.5787353515625,786.5201416015625,791.7582397460938,790.1465454101562
1451,796.996337890625,786.923095703125,791.7582397460938,796.5933837890625
1452,788.5347900390625,785.3113403320312,793.7728881835938,790.5494384765625
1453,784.1025390625,787.7289428710938,788.937744140625,790.952392578125
1454,788.1318969726562,794.5787353515625,786.1171875,796.996337890625
1455,791.3552856445312,796.5933837890625,789.7435913085938,798.6080322265625
1456,792.967041015625,792.5640869140625,792.5640869140625,796.1904907226562
1457,797.8021850585938,790.952392578125,792.5640869140625,794.981689453125
1458,796.996337890625,796.5933837890625,792.5640869140625,790.1465454101562
1459,796.996337890625,796.996337890625,796.1904907226562,785.3113403320312
1460,801.8314819335938,796.5933837890625,796.5933837890625,790.1465454101562
1461,802.6373901367188,799.010986328125,795.3846435546875,800.6226806640625
1462,799.4139404296875,801.025634765625,793.3699340820312,801.4285888671875
1463,795.3846435546875,802.2344360351562,797.8021850585938,795.3846435546875
1464,795.7875366210938,798.6080322265625,800.2197875976562,797.8021850585938
1465,795.3846435546875,799.4139404296875,796.1904907226562,800.2197875976562
1466,797.3992919921875,798.6080322265625,794.1758422851562,801.025634765625
1467,800.2197875976562,794.5787353515625,795.7875366210938,795.7875366210938
1468,805.054931640625,797.8021850585938,795.3846435546875,794.981689453125
1469,803.4432373046875,799.8168334960938,794.981689453125,801.4285888671875
1470,799.4139404296875,796.996337890625,793.7728881835938,799.4139404296875
1471,804.6520385742188,796.996337890625,794.981689453125,803.8461303710938
1472,806.2637329101562,799.8168334960938,801.8314819335938,808.2783813476562
1473,803.4432373046875,798.2051391601562,806.2637329101562,811.90478515625
1474,796.5933837890625,797.3992919921875,807.87548828125,811.5018310546875
1475,792.5640869140625,796.1904907226562,803.8461303710938,799.8168334960938
1476,796.5933837890625,795.7875366210938,805.4578857421875,798.6080322265625
1477,804.6520385742188,797.3992919921875,807.87548828125,802.6373901367188
1478,802.2344360351562,797.3992919921875,806.2637329101562,800.2197875976562
1479,796.5933837890625,796.5933837890625,803.8461303710938,792.967041015625
1480,800.2197875976562,791.7582397460938,800.2197875976562,794.5787353515625
1481,799.8168334960938,787.3259887695312,801.025634765625,796.996337890625
1482,795.7875366210938,789.3406372070312,796.996337890625,788.1318969726562
1483,795.3846435546875,792.1611938476562,796.5933837890625,786.1171875
1484,795.7875366210938,796.1904907226562,795.3846435546875,783.6996459960938
1485,793.3699340820312,797.3992919921875,798.2051391601562,787.7289428710938
1486,793.7728881835938,791.3552856445312,801.8314819335938,786.1171875
1487,793.7728881835938,788.5347900390625,797.3992919921875,778.8644409179688
1488,792.967041015625,788.937744140625,799.010986328125,778.8644409179688
1489,790.1465454101562,790.5494384765625,796.996337890625,781.6849975585938
1490,790.952392578125,790.1465454101562,789.7435913085938,781.6849975585938
1491,792.1611938476562,790.5494384765625,791.3552856445312,781.6849975585938
1492,790.5494384765625,790.952392578125,793.7728881835938,784.908447265625
1493,786.1171875,787.7289428710938,787.3259887695312,780.879150390625
1494,782.4908447265625,787.3259887695312,788.5347900390625,776.4468994140625
1495,787.3259887695312,786.923095703125,790.5494384765625,778.8644409179688
1496,788.937744140625,785.7142944335938,790.952392578125,790.1465454101562
1497,788.5347900390625,786.923095703125,796.996337890625,795.3846435546875
1498,787.3259887695312,787.7289428710938,798.6080322265625,788.5347900390625
1499,789.7435913085938,785.3113403320312,800.6226806640625,787.3259887695312
1500,792.1611938476562,784.1025390625,794.981689453125,784.908447265625
1501,788.5347900390625,783.2966918945312,792.1611938476562,782.893798828125
1502,791.3552856445312,792.1611938476562,798.2051391601562,785.7142944335938
1503,794.1758422851562,798.6080322265625,799.4139404296875,791.7582397460938
1504,787.7289428710938,794.981689453125,796.1904907226562,789.7435913085938
1505,780.879150390625,788.1318969726562,787.3259887695312,783.6996459960938
1506,781.2820434570312,782.893798828125,784.1025390625,784.5054931640625
1507,787.3259887695312,782.087890625,788.1318969726562,790.952392578125
1508,790.1465454101562,784.908447265625,786.923095703125,802.2344360351562
1509,788.5347900390625,789.7435913085938,786.1171875,799.4139404296875
1510,792.967041015625,792.967041015625,791.3552856445312,792.5640869140625
1511,796.996337890625,796.1904907226562,793.7728881835938,790.5494384765625
1512,794.981689453125,792.967041015625,792.1611938476562,789.3406372070312
1513,791.3552856445312,793.3699340820312,791.7582397460938,781.6849975585938
1514,790.5494384765625,798.2051391601562,792.5640869140625,778.05859375
1515,792.1611938476562,798.6080322265625,792.5640869140625,781.2820434570312
1516,792.1611938476562,799.4139404296875,799.010986328125,783.2966918945312
1517,791.3552856445312,795.7875366210938,797.8021850585938,786.923095703125
1518,792.5640869140625,784.908447265625,796.5933837890625,786.923095703125
1519,794.981689453125,787.7289428710938,803.040283203125,792.967041015625
1520,784.1025390625,795.3846435546875,802.2344360351562,791.3552856445312
1521,780.4761962890625,787.7289428710938,802.6373901367188,783.6996459960938
1522,787.7289428710938,786.5201416015625,805.4578857421875,788.5347900390625
1523,790.5494384765625,788.937744140625,804.2490844726562,796.5933837890625
1524,786.923095703125,788.5347900390625,803.8461303710938,791.3552856445312
1525,784.908447265625,792.1611938476562,800.2197875976562,791.3552856445312
1526,789.3406372070312,791.3552856445312,794.5787353515625,793.3699340820312
1527,793.7728881835938,788.1318969726562,799.8168334960938,795.3846435546875
1528,798.2051391601562,793.7728881835938,805.054931640625,794.1758422851562
1529,796.5933837890625,797.8021850585938,804.2490844726562,790.5494384765625
1530,794.1758422851562,797.8021850585938,803.040283203125,795.3846435546875
1531,794.981689453125,798.6080322265625,801.025634765625,797.8021850585938
1532,798.2051391601562,794.981689453125,800.2197875976562,791.3552856445312
1533,799.8168334960938,790.5494384765625,797.8021850585938,789.3406372070312
1534,796.5933837890625,791.3552856445312,791.3552856445312,790.5494384765625
1535,794.5787353515625,792.1611938476562,787.7289428710938,791.7582397460938
1536,792.1611938476562,794.1758422851562,788.937744140625,786.923095703125
1537,792.5640869140625,792.5640869140625,790.1465454101562,784.908447265625
1538,795.7875366210938,782.4908447265625,788.937744140625,790.5494384765625
1539,796.1904907226562,785.3113403320312,788.937744140625,790.1465454101562
1540,795.3846435546875,792.5640869140625,792.1611938476562,792.1611938476562
1541,797.3992919921875,795.3846435546875,795.7875366210938,794.981689453125
1542,801.4285888671875,796.996337890625,794.981689453125,791.7582397460938
1543,797.8021850585938,793.3699340820312,790.1465454101562,788.937744140625
1544,787.7289428710938,790.1465454101562,788.5347900390625,782.893798828125
1545,785.3113403320312,793.7728881835938,793.3699340820312,782.893798828125
1546,786.5201416015625,799.8168334960938,794.5787353515625,794.1758422851562
1547,788.937744140625,799.010986328125,794.981689453125,792.967041015625
1548,788.5347900390625,791.3552856445312,793.7728881835938,783.6996459960938
1549,788.937744140625,790.952392578125,790.5494384765625,784.908447265625
1550,790.5494384765625,795.7875366210938,788.5347900390625,786.1171875
1551,792.1611938476562,794.981689453125,790.1465454101562,786.1171875
1552,803.4432373046875,794.1758422851562,793.3699340820312,791.7582397460938
1553,809.084228515625,799.8168334960938,799.010986328125,798.2051391601562
1554,803.4432373046875,803.040283203125,801.025634765625,794.5787353515625
1555,800.2197875976562,800.2197875976562,801.025634765625,790.952392578125
1556,798.2051391601562,797.8021850585938,802.2344360351562,790.5494384765625
1557,795.3846435546875,796.5933837890625,798.2051391601562,791.3552856445312
1558,801.4285888671875,801.4285888671875,797.3992919921875,802.2344360351562
1559,802.2344360351562,805.054931640625,799.8168334960938,794.5787353515625
1560,796.1904907226562,798.6080322265625,796.996337890625,787.3259887695312
1561,789.3406372070312,794.5787353515625,793.3699340820312,789.3406372070312
1562,790.1465454101562,790.1465454101562,792.5640869140625,784.5054931640625
1563,801.025634765625,785.3113403320312,795.7875366210938,786.1171875
1564,803.8461303710938,792.1611938476562,798.6080322265625,788.5347900390625
1565,802.6373901367188,794.1758422851562,797.8021850585938,791.3552856445312
1566,796.5933837890625,790.5494384765625,794.981689453125,790.5494384765625
1567,794.1758422851562,793.7728881835938,794.1758422851562,792.5640869140625
1568,800.2197875976562,790.5494384765625,792.967041015625,803.040283203125
1569,799.8168334960938,790.5494384765625,790.5494384765625,800.2197875976562
1570,793.7728881835938,796.1904907226562,791.7582397460938,788.937744140625
1571,791.3552856445312,795.7875366210938,793.3699340820312,786.1171875
1572,791.7582397460938,792.1611938476562,791.7582397460938,791.7582397460938
1573,793.7728881835938,795.7875366210938,792.5640869140625,794.981689453125
1574,798.2051391601562,794.1758422851562,793.3699340820312,792.5640869140625
1575,798.2051391601562,794.5787353515625,794.1758422851562,792.5640869140625
1576,795.3846435546875,795.7875366210938,794.1758422851562,790.5494384765625
1577,797.8021850585938,795.3846435546875,794.5787353515625,792.5640869140625
1578,795.3846435546875,803.040283203125,795.7875366210938,799.4139404296875
1579,794.1758422851562,805.4578857421875,797.3992919921875,797.3992919921875
1580,793.3699340820312,796.1904907226562,797.8021850585938,791.7582397460938
1581,788.5347900390625,792.967041015625,798.6080322265625,794.1758422851562
1582,792.5640869140625,793.7728881835938,802.2344360351562,793.7728881835938
1583,796.5933837890625,787.3259887695312,801.4285888671875,797.3992919921875
1584,795.3846435546875,788.937744140625,800.6226806640625,803.040283203125
