timestamp,RAW_TP9,RAW_AF7,RAW_AF8,RAW_TP10
1,791.3552856445312,789.3406372070312,789.7435913085938,782.087890625
2,778.05859375,785.7142944335938,785.3113403320312,770.4029541015625
3,784.1025390625,790.1465454101562,785.7142944335938,786.923095703125
4,790.952392578125,795.3846435546875,792.5640869140625,791.3552856445312
5,792.967041015625,793.7728881835938,789.7435913085938,792.5640869140625
6,802.2344360351562,794.981689453125,789.7435913085938,809.89013671875
7,809.4871826171875,792.967041015625,795.3846435546875,818.7545776367188
8,807.4725341796875,788.937744140625,791.3552856445312,805.8607788085938
9,806.2637329101562,791.3552856445312,791.7582397460938,802.6373901367188
10,796.1904907226562,788.937744140625,792.967041015625,808.2783813476562
11,796.1904907226562,790.5494384765625,793.3699340820312,809.4871826171875
12,805.8607788085938,798.6080322265625,797.8021850585938,809.4871826171875
13,802.6373901367188,792.1611938476562,792.1611938476562,803.040283203125
14,798.2051391601562,788.937744140625,791.3552856445312,799.8168334960938
15,794.981689453125,794.981689453125,789.3406372070312,797.8021850585938
16,797.3992919921875,799.4139404296875,794.5787353515625,799.010986328125
17,799.010986328125,804.2490844726562,800.2197875976562,800.6226806640625
18,803.4432373046875,799.8168334960938,794.5787353515625,800.6226806640625
19,799.8168334960938,793.3699340820312,793.7728881835938,794.1758422851562
20,795.3846435546875,799.010986328125,796.5933837890625,793.3699340820312
21,797.3992919921875,800.2197875976562,795.3846435546875,798.6080322265625
22,798.2051391601562,796.5933837890625,789.7435913085938,803.040283203125
23,795.3846435546875,796.5933837890625,786.923095703125,793.7728881835938
24,785.7142944335938,790.5494384765625,785.7142944335938,780.4761962890625
25,778.05859375,784.908447265625,784.908447265625,781.6849975585938
26,782.087890625,789.7435913085938,787.3259887695312,788.5347900390625
27,789.7435913085938,794.5787353515625,789.3406372070312,790.952392578125
28,790.952392578125,797.3992919921875,790.952392578125,788.1318969726562
29,793.3699340820312,796.996337890625,794.1758422851562,790.5494384765625
30,799.4139404296875,792.5640869140625,790.1465454101562,795.7875366210938
31,801.4285888671875,795.7875366210938,789.7435913085938,792.5640869140625
32,800.2197875976562,803.040283203125,793.7728881835938,791.3552856445312
33,803.040283203125,802.2344360351562,790.5494384765625,786.1171875
34,800.2197875976562,799.8168334960938,788.1318969726562,782.087890625
35,790.1465454101562,794.981689453125,784.908447265625,781.2820434570312
36,790.952392578125,791.3552856445312,784.5054931640625,782.087890625
37,794.5787353515625,790.1465454101562,788.1318969726562,784.908447265625
38,793.3699340820312,791.7582397460938,787.7289428710938,783.6996459960938
39,793.3699340820312,794.1758422851562,789.7435913085938,780.0732421875
40,788.5347900390625,796.1904907226562,792.5640869140625,777.2527465820312
41,784.908447265625,793.3699340820312,794.5787353515625,773.2234497070312
42,787.3259887695312,791.7582397460938,793.3699340820312,773.6264038085938
43,791.7582397460938,799.8168334960938,796.996337890625,782.893798828125
44,789.7435913085938,797.8021850585938,797.3992919921875,785.3113403320312
45,787.3259887695312,790.1465454101562,792.1611938476562,780.0732421875
46,795.3846435546875,790.952392578125,798.2051391601562,786.1171875
47,797.3992919921875,786.5201416015625,801.025634765625,790.5494384765625
48,793.7728881835938,783.2966918945312,794.5787353515625,791.3552856445312
49,797.8021850585938,793.3699340820312,798.2051391601562,799.4139404296875
50,799.4139404296875,798.6080322265625,801.4285888671875,794.1758422851562
51,795.7875366210938,796.1904907226562,795.3846435546875,790.5494384765625
52,798.2051391601562,799.4139404296875,793.7728881835938,796.5933837890625
53,807.4725341796875,798.2051391601562,793.3699340820312,797.3992919921875
54,803.4432373046875,795.7875366210938,790.1465454101562,794.5787353515625
55,793.3699340820312,794.1758422851562,790.1465454101562,795.3846435546875
56,790.1465454101562,795.7875366210938,790.5494384765625,798.2051391601562
57,790.5494384765625,798.6080322265625,790.5494384765625,792.967041015625
58,792.1611938476562,789.3406372070312,786.923095703125,787.7289428710938
59,787.7289428710938,784.5054931640625,784.1025390625,781.6849975585938
60,777.6557006835938,788.1318969726562,780.4761962890625,780.4761962890625
61,772.4176025390625,792.5640869140625,777.2527465820312,783.6996459960938
62,777.6557006835938,795.3846435546875,780.0732421875,782.4908447265625
63,778.4615478515625,793.3699340820312,778.4615478515625,781.6849975585938
64,780.0732421875,788.5347900390625,779.6703491210938,785.7142944335938
65,787.7289428710938,794.1758422851562,786.923095703125,788.937744140625
66,788.5347900390625,798.6080322265625,793.3699340820312,789.7435913085938
67,781.2820434570312,799.010986328125,790.952392578125,794.5787353515625
68,779.6703491210938,802.6373901367188,787.7289428710938,797.8021850585938
69,788.1318969726562,795.3846435546875,786.5201416015625,789.3406372070312
70,787.3259887695312,790.1465454101562,790.1465454101562,780.879150390625
71,786.1171875,797.3992919921875,796.1904907226562,782.4908447265625
72,786.5201416015625,799.4139404296875,796.5933837890625,790.5494384765625
73,785.3113403320312,793.7728881835938,793.3699340820312,782.4908447265625
74,786.923095703125,786.923095703125,792.967041015625,780.0732421875
75,782.893798828125,788.1318969726562,789.7435913085938,785.7142944335938
76,778.8644409179688,788.1318969726562,789.3406372070312,778.8644409179688
77,784.5054931640625,789.7435913085938,792.1611938476562,774.8351440429688
78,793.7728881835938,794.981689453125,792.1611938476562,776.4468994140625
79,795.7875366210938,794.1758422851562,792.5640869140625,782.4908447265625
80,790.952392578125,792.1611938476562,790.1465454101562,788.1318969726562
81,784.5054931640625,792.967041015625,792.967041015625,786.5201416015625
82,776.0439453125,788.937744140625,793.7728881835938,783.2966918945312
83,771.2088012695312,788.937744140625,792.5640869140625,784.908447265625
84,768.7911987304688,788.1318969726562,793.7728881835938,781.2820434570312
85,776.0439453125,789.3406372070312,793.3699340820312,783.2966918945312
86,778.05859375,794.981689453125,791.3552856445312,783.6996459960938
87,773.6264038085938,790.5494384765625,793.3699340820312,782.893798828125
88,778.4615478515625,789.3406372070312,792.967041015625,791.3552856445312
89,782.4908447265625,787.7289428710938,793.3699340820312,791.3552856445312
90,787.7289428710938,782.893798828125,797.8021850585938,790.5494384765625
91,790.1465454101562,784.1025390625,796.1904907226562,789.3406372070312
92,786.923095703125,790.952392578125,794.981689453125,786.5201416015625
93,786.5201416015625,795.7875366210938,798.6080322265625,788.5347900390625
94,796.1904907226562,801.8314819335938,803.040283203125,794.981689453125
95,798.6080322265625,805.054931640625,800.6226806640625,796.996337890625
96,793.7728881835938,803.4432373046875,801.4285888671875,791.7582397460938
97,794.1758422851562,803.8461303710938,805.8607788085938,793.7728881835938
98,795.3846435546875,804.6520385742188,800.2197875976562,799.4139404296875
99,798.6080322265625,800.2197875976562,798.2051391601562,802.2344360351562
100,799.010986328125,798.2051391601562,796.996337890625,790.952392578125
101,794.5787353515625,799.4139404296875,790.952392578125,782.893798828125
102,788.5347900390625,800.2197875976562,789.7435913085938,784.908447265625
103,786.5201416015625,797.3992919921875,794.1758422851562,790.5494384765625
104,795.3846435546875,799.010986328125,789.3406372070312,787.7289428710938
105,798.6080322265625,798.6080322265625,783.6996459960938,778.8644409179688
106,789.7435913085938,794.5787353515625,786.5201416015625,783.6996459960938
107,779.6703491210938,794.1758422851562,785.7142944335938,785.3113403320312
108,776.0439453125,790.5494384765625,783.6996459960938,787.3259887695312
109,774.8351440429688,791.3552856445312,782.4908447265625,784.1025390625
110,777.6557006835938,791.7582397460938,781.6849975585938,783.6996459960938
111,780.879150390625,794.1758422851562,786.5201416015625,789.3406372070312
112,785.3113403320312,794.981689453125,789.7435913085938,786.5201416015625
113,793.3699340820312,792.1611938476562,791.7582397460938,793.3699340820312
114,794.5787353515625,792.967041015625,797.3992919921875,799.8168334960938
115,793.7728881835938,792.1611938476562,797.3992919921875,791.3552856445312
116,796.5933837890625,792.967041015625,793.3699340820312,789.3406372070312
117,792.967041015625,793.3699340820312,794.981689453125,798.2051391601562
118,788.5347900390625,792.1611938476562,797.3992919921875,796.996337890625
119,795.7875366210938,792.967041015625,797.3992919921875,796.1904907226562
120,801.025634765625,792.967041015625,796.996337890625,794.1758422851562
121,792.1611938476562,790.5494384765625,792.967041015625,788.1318969726562
122,783.6996459960938,792.1611938476562,794.5787353515625,785.3113403320312
123,783.6996459960938,795.7875366210938,795.7875366210938,779.2673950195312
124,788.5347900390625,795.3846435546875,793.3699340820312,778.8644409179688
125,792.1611938476562,794.5787353515625,794.1758422851562,785.7142944335938
126,791.3552856445312,793.3699340820312,794.5787353515625,791.3552856445312
127,790.1465454101562,789.3406372070312,794.981689453125,789.7435913085938
128,793.3699340820312,792.5640869140625,796.996337890625,786.923095703125
129,788.5347900390625,792.967041015625,794.5787353515625,782.893798828125
130,784.1025390625,786.1171875,790.5494384765625,778.8644409179688
131,784.908447265625,788.5347900390625,789.3406372070312,780.0732421875
132,785.3113403320312,790.1465454101562,786.923095703125,781.6849975585938
133,789.3406372070312,786.1171875,785.7142944335938,782.4908447265625
134,788.5347900390625,783.2966918945312,786.5201416015625,787.3259887695312
135,795.3846435546875,791.7582397460938,788.937744140625,789.3406372070312
136,805.4578857421875,793.7728881835938,797.3992919921875,789.7435913085938
137,802.6373901367188,790.1465454101562,799.010986328125,789.3406372070312
138,792.1611938476562,791.7582397460938,796.5933837890625,786.5201416015625
139,790.1465454101562,787.7289428710938,792.967041015625,788.937744140625
140,793.3699340820312,786.5201416015625,792.1611938476562,800.6226806640625
141,790.1465454101562,781.2820434570312,792.1611938476562,795.3846435546875
142,787.3259887695312,782.893798828125,788.5347900390625,780.879150390625
143,788.1318969726562,789.7435913085938,792.5640869140625,779.6703491210938
144,780.879150390625,791.3552856445312,798.2051391601562,786.923095703125
145,779.6703491210938,786.1171875,795.7875366210938,794.981689453125
146,784.1025390625,785.3113403320312,795.7875366210938,790.952392578125
147,784.5054931640625,789.7435913085938,793.7728881835938,783.2966918945312
148,788.1318969726562,788.5347900390625,791.3552856445312,781.6849975585938
149,787.3259887695312,792.1611938476562,792.967041015625,782.893798828125
150,789.3406372070312,795.7875366210938,794.1758422851562,784.1025390625
151,790.952392578125,794.5787353515625,798.6080322265625,785.3113403320312
152,788.1318969726562,799.010986328125,799.8168334960938,786.1171875
153,787.7289428710938,802.6373901367188,796.1904907226562,783.2966918945312
154,792.5640869140625,796.5933837890625,793.7728881835938,781.6849975585938
155,800.6226806640625,794.981689453125,795.7875366210938,787.7289428710938
156,801.4285888671875,793.7728881835938,798.2051391601562,795.3846435546875
157,795.3846435546875,790.1465454101562,798.2051391601562,801.025634765625
158,794.981689453125,792.967041015625,804.2490844726562,803.4432373046875
159,792.5640869140625,797.8021850585938,807.4725341796875,803.040283203125
160,796.1904907226562,801.025634765625,803.4432373046875,799.4139404296875
161,800.6226806640625,796.1904907226562,801.4285888671875,795.3846435546875
162,795.7875366210938,794.5787353515625,800.2197875976562,795.7875366210938
163,792.967041015625,795.3846435546875,798.6080322265625,797.8021850585938
164,795.3846435546875,794.5787353515625,795.7875366210938,794.1758422851562
165,799.8168334960938,793.3699340820312,793.7728881835938,792.1611938476562
166,797.8021850585938,791.3552856445312,792.967041015625,785.7142944335938
167,793.3699340820312,791.7582397460938,792.1611938476562,782.4908447265625
168,788.1318969726562,790.1465454101562,793.7728881835938,782.893798828125
169,786.1171875,797.3992919921875,799.010986328125,787.3259887695312
170,789.3406372070312,803.4432373046875,804.2490844726562,792.1611938476562
171,798.2051391601562,803.040283203125,801.025634765625,797.3992919921875
172,793.3699340820312,798.2051391601562,796.996337890625,796.1904907226562
173,781.6849975585938,793.7728881835938,796.1904907226562,790.1465454101562
174,784.5054931640625,792.1611938476562,794.981689453125,790.5494384765625
175,794.1758422851562,791.7582397460938,794.981689453125,790.5494384765625
176,796.1904907226562,796.1904907226562,796.1904907226562,794.5787353515625
177,790.952392578125,800.2197875976562,798.6080322265625,798.6080322265625
178,794.5787353515625,797.8021850585938,802.2344360351562,802.6373901367188
179,798.6080322265625,792.5640869140625,801.025634765625,803.8461303710938
180,798.6080322265625,796.996337890625,796.1904907226562,797.8021850585938
181,798.6080322265625,799.010986328125,796.996337890625,797.3992919921875
182,793.7728881835938,803.8461303710938,793.3699340820312,796.996337890625
183,791.7582397460938,802.6373901367188,788.1318969726562,794.981689453125
184,795.7875366210938,795.7875366210938,787.7289428710938,794.981689453125
185,796.996337890625,794.1758422851562,786.923095703125,791.3552856445312
186,804.2490844726562,792.1611938476562,790.5494384765625,790.1465454101562
187,801.4285888671875,790.1465454101562,786.923095703125,787.3259887695312
188,784.908447265625,794.1758422851562,779.6703491210938,782.893798828125
189,782.087890625,796.996337890625,779.6703491210938,776.4468994140625
190,786.923095703125,792.1611938476562,788.1318969726562,773.6264038085938
191,785.7142944335938,788.937744140625,790.952392578125,778.05859375
192,785.7142944335938,789.3406372070312,790.952392578125,777.6557006835938
193,789.3406372070312,795.7875366210938,791.7582397460938,769.1941528320312
194,785.3113403320312,793.7728881835938,791.7582397460938,768.7911987304688
195,779.2673950195312,790.5494384765625,790.952392578125,771.6116943359375
196,781.2820434570312,792.967041015625,795.3846435546875,777.2527465820312
197,779.6703491210938,792.1611938476562,797.3992919921875,781.2820434570312
198,777.6557006835938,788.1318969726562,795.3846435546875,782.087890625
199,780.4761962890625,788.1318969726562,793.7728881835938,778.05859375
200,778.8644409179688,790.1465454101562,799.010986328125,781.2820434570312
201,784.1025390625,791.3552856445312,803.4432373046875,788.1318969726562
202,794.5787353515625,790.1465454101562,802.6373901367188,788.937744140625
203,793.3699340820312,789.3406372070312,801.8314819335938,796.5933837890625
204,790.1465454101562,792.967041015625,801.8314819335938,794.981689453125
205,789.3406372070312,792.5640869140625,797.8021850585938,788.5347900390625
206,789.7435913085938,792.5640869140625,796.1904907226562,792.5640869140625
207,789.7435913085938,796.5933837890625,797.8021850585938,793.7728881835938
208,788.937744140625,799.010986328125,794.981689453125,790.952392578125
209,795.7875366210938,796.5933837890625,797.8021850585938,794.1758422851562
210,802.2344360351562,797.8021850585938,798.6080322265625,796.5933837890625
211,810.2930297851562,803.040283203125,791.7582397460938,796.5933837890625
212,813.113525390625,799.010986328125,787.7289428710938,796.996337890625
213,807.87548828125,791.3552856445312,786.5201416015625,794.981689453125
214,803.8461303710938,786.5201416015625,784.1025390625,792.5640869140625
215,792.1611938476562,786.923095703125,782.4908447265625,792.5640869140625
216,787.7289428710938,786.5201416015625,780.879150390625,792.967041015625
217,786.5201416015625,788.1318969726562,782.087890625,790.952392578125
218,780.879150390625,788.1318969726562,784.5054931640625,790.5494384765625
219,776.0439453125,785.3113403320312,787.3259887695312,785.7142944335938
220,772.8204956054688,782.893798828125,786.1171875,778.8644409179688
221,774.8351440429688,784.5054931640625,784.908447265625,782.087890625
222,778.8644409179688,788.1318969726562,786.923095703125,786.1171875
223,781.2820434570312,789.3406372070312,790.5494384765625,784.1025390625
224,780.879150390625,788.937744140625,795.7875366210938,783.6996459960938
225,780.0732421875,789.7435913085938,793.7728881835938,780.0732421875
226,785.7142944335938,792.5640869140625,790.952392578125,782.4908447265625
227,794.1758422851562,792.967041015625,796.5933837890625,792.1611938476562
228,798.6080322265625,794.981689453125,794.981689453125,792.1611938476562
229,797.8021850585938,794.1758422851562,792.1611938476562,792.5640869140625
230,794.5787353515625,792.5640869140625,792.5640869140625,794.981689453125
231,791.7582397460938,789.3406372070312,790.952392578125,788.1318969726562
232,797.3992919921875,788.1318969726562,793.3699340820312,788.937744140625
233,796.996337890625,793.7728881835938,795.7875366210938,787.3259887695312
234,793.7728881835938,791.3552856445312,790.1465454101562,782.893798828125
235,795.7875366210938,794.5787353515625,789.7435913085938,778.8644409179688
236,798.2051391601562,798.2051391601562,791.3552856445312,780.4761962890625
237,798.6080322265625,793.3699340820312,792.5640869140625,782.087890625
238,795.3846435546875,789.3406372070312,796.5933837890625,780.4761962890625
239,791.3552856445312,788.1318969726562,790.5494384765625,783.2966918945312
240,784.5054931640625,787.7289428710938,787.7289428710938,786.5201416015625
241,784.908447265625,785.7142944335938,792.1611938476562,799.010986328125
242,793.3699340820312,788.1318969726562,793.7728881835938,805.8607788085938
243,797.8021850585938,787.3259887695312,796.5933837890625,806.6666870117188
244,803.8461303710938,789.7435913085938,798.6080322265625,811.098876953125
245,805.4578857421875,793.3699340820312,799.4139404296875,806.2637329101562
246,798.6080322265625,791.7582397460938,800.6226806640625,804.2490844726562
247,802.6373901367188,793.3699340820312,800.6226806640625,805.054931640625
248,810.6959838867188,786.923095703125,799.8168334960938,804.6520385742188
249,808.6813354492188,784.1025390625,795.7875366210938,798.6080322265625
250,799.8168334960938,797.8021850585938,796.1904907226562,784.1025390625
251,797.3992919921875,801.025634765625,796.5933837890625,781.2820434570312
252,806.6666870117188,794.1758422851562,794.981689453125,787.3259887695312
253,807.4725341796875,795.3846435546875,790.1465454101562,786.923095703125
254,803.040283203125,795.7875366210938,787.3259887695312,777.6557006835938
255,797.3992919921875,795.7875366210938,792.5640869140625,777.2527465820312
256,791.7582397460938,795.3846435546875,787.3259887695312,776.4468994140625
257,790.952392578125,793.3699340820312,784.5054931640625,770.8058471679688
258,785.3113403320312,793.7728881835938,786.923095703125,768.3883056640625
259,782.4908447265625,792.967041015625,785.3113403320312,772.4176025390625
260,784.5054931640625,792.1611938476562,786.923095703125,779.2673950195312
261,785.7142944335938,795.7875366210938,787.3259887695312,782.4908447265625
262,789.3406372070312,794.5787353515625,786.923095703125,786.5201416015625
263,794.1758422851562,790.1465454101562,788.1318969726562,794.5787353515625
264,793.3699340820312,792.1611938476562,789.7435913085938,801.4285888671875
265,786.5201416015625,791.7582397460938,787.3259887695312,793.7728881835938
266,784.1025390625,789.7435913085938,785.7142944335938,789.7435913085938
267,782.4908447265625,782.893798828125,785.3113403320312,792.967041015625
268,787.3259887695312,783.2966918945312,789.3406372070312,801.4285888671875
269,788.937744140625,789.3406372070312,790.5494384765625,797.8021850585938
270,790.952392578125,787.7289428710938,790.1465454101562,794.1758422851562
271,794.1758422851562,788.1318969726562,792.1611938476562,788.1318969726562
272,792.967041015625,791.3552856445312,791.3552856445312,782.893798828125
273,798.6080322265625,792.5640869140625,791.3552856445312,788.1318969726562
274,800.2197875976562,792.967041015625,788.937744140625,788.5347900390625
275,800.6226806640625,791.7582397460938,787.3259887695312,788.937744140625
276,802.6373901367188,792.967041015625,790.5494384765625,787.7289428710938
277,803.4432373046875,797.8021850585938,791.3552856445312,783.6996459960938
278,800.6226806640625,797.3992919921875,790.952392578125,777.6557006835938
279,800.6226806640625,793.7728881835938,792.967041015625,783.2966918945312
280,796.996337890625,792.1611938476562,796.1904907226562,788.937744140625
281,792.1611938476562,794.1758422851562,799.010986328125,780.879150390625
282,788.937744140625,790.952392578125,796.1904907226562,780.0732421875
283,786.923095703125,793.7728881835938,789.3406372070312,787.7289428710938
284,793.3699340820312,800.2197875976562,790.5494384765625,789.3406372070312
285,794.1758422851562,792.1611938476562,792.967041015625,789.3406372070312
286,788.5347900390625,789.7435913085938,797.3992919921875,791.3552856445312
287,789.7435913085938,792.967041015625,796.996337890625,796.1904907226562
288,792.1611938476562,790.1465454101562,793.7728881835938,799.8168334960938
289,790.952392578125,786.5201416015625,798.6080322265625,796.996337890625
290,786.1171875,786.5201416015625,798.2051391601562,795.7875366210938
291,784.5054931640625,787.7289428710938,796.1904907226562,797.3992919921875
292,784.908447265625,787.7289428710938,797.8021850585938,794.5787353515625
293,789.7435913085938,788.937744140625,796.1904907226562,794.981689453125
294,797.8021850585938,792.5640869140625,796.1904907226562,794.5787353515625
295,795.7875366210938,796.5933837890625,795.7875366210938,793.7728881835938
296,792.967041015625,798.2051391601562,795.3846435546875,796.5933837890625
297,791.3552856445312,792.1611938476562,796.1904907226562,792.1611938476562
298,791.7582397460938,789.7435913085938,793.3699340820312,794.1758422851562
299,796.996337890625,796.5933837890625,791.3552856445312,801.025634765625
300,797.8021850585938,796.5933837890625,790.5494384765625,799.4139404296875
301,789.3406372070312,792.5640869140625,791.3552856445312,792.1611938476562
302,789.7435913085938,789.7435913085938,792.1611938476562,791.3552856445312
303,794.1758422851562,795.7875366210938,793.7728881835938,796.996337890625
304,785.7142944335938,799.4139404296875,792.967041015625,789.7435913085938
305,786.923095703125,798.2051391601562,794.1758422851562,785.3113403320312
306,784.5054931640625,796.996337890625,790.952392578125,778.8644409179688
307,778.05859375,792.5640869140625,786.923095703125,774.4322509765625
308,777.6557006835938,785.3113403320312,790.5494384765625,776.8497924804688
309,785.7142944335938,786.1171875,793.7728881835938,782.893798828125
310,786.1171875,791.7582397460938,791.3552856445312,787.3259887695312
311,779.2673950195312,791.3552856445312,793.3699340820312,790.1465454101562
312,785.7142944335938,792.5640869140625,797.8021850585938,790.952392578125
313,792.1611938476562,794.981689453125,798.6080322265625,792.1611938476562
314,790.1465454101562,793.3699340820312,793.7728881835938,793.7728881835938
315,786.923095703125,788.937744140625,787.3259887695312,786.923095703125
316,785.7142944335938,783.6996459960938,786.923095703125,784.1025390625
317,780.879150390625,782.4908447265625,787.3259887695312,783.2966918945312
318,781.6849975585938,786.5201416015625,785.3113403320312,784.908447265625
319,787.7289428710938,784.908447265625,789.3406372070312,787.3259887695312
320,785.3113403320312,781.6849975585938,788.937744140625,783.2966918945312
321,784.1025390625,784.908447265625,783.6996459960938,781.2820434570312
322,785.3113403320312,787.3259887695312,787.7289428710938,786.1171875
323,786.923095703125,793.3699340820312,790.952392578125,789.7435913085938
324,785.7142944335938,797.3992919921875,792.5640869140625,784.908447265625
325,783.6996459960938,792.967041015625,792.967041015625,786.5201416015625
326,784.908447265625,789.3406372070312,794.5787353515625,794.1758422851562
327,778.4615478515625,784.908447265625,793.3699340820312,784.1025390625
328,783.6996459960938,787.7289428710938,795.3846435546875,783.2966918945312
329,791.3552856445312,790.1465454101562,794.5787353515625,786.1171875
330,783.6996459960938,786.923095703125,789.3406372070312,782.087890625
331,781.6849975585938,789.3406372070312,791.3552856445312,783.6996459960938
332,782.087890625,782.4908447265625,789.3406372070312,781.2820434570312
333,782.4908447265625,780.879150390625,793.3699340820312,782.4908447265625
334,781.6849975585938,791.3552856445312,796.1904907226562,788.1318969726562
335,780.4761962890625,792.967041015625,793.3699340820312,791.7582397460938
336,783.6996459960938,793.3699340820312,792.1611938476562,790.1465454101562
337,788.5347900390625,794.5787353515625,797.8021850585938,795.3846435546875
338,795.3846435546875,800.2197875976562,799.4139404296875,798.6080322265625
339,794.1758422851562,796.5933837890625,796.996337890625,796.1904907226562
340,788.5347900390625,791.3552856445312,796.996337890625,792.967041015625
341,783.6996459960938,792.967041015625,791.3552856445312,783.2966918945312
342,778.8644409179688,794.1758422851562,786.5201416015625,776.8497924804688
343,780.4761962890625,797.8021850585938,790.5494384765625,778.8644409179688
344,786.1171875,797.8021850585938,794.1758422851562,784.5054931640625
345,785.3113403320312,794.1758422851562,790.952392578125,782.893798828125
346,785.3113403320312,791.3552856445312,785.7142944335938,785.7142944335938
347,790.5494384765625,791.3552856445312,784.5054931640625,784.5054931640625
348,784.1025390625,792.5640869140625,784.5054931640625,779.6703491210938
349,780.4761962890625,792.5640869140625,786.5201416015625,784.1025390625
350,782.893798828125,790.952392578125,784.908447265625,781.6849975585938
351,782.087890625,792.1611938476562,784.1025390625,778.05859375
352,774.029296875,786.5201416015625,785.3113403320312,774.029296875
353,768.7911987304688,786.923095703125,783.6996459960938,772.0146484375
354,772.8204956054688,792.5640869140625,787.3259887695312,778.4615478515625
355,778.4615478515625,790.5494384765625,789.3406372070312,787.7289428710938
356,775.2380981445312,783.6996459960938,788.5347900390625,786.1171875
357,772.4176025390625,780.0732421875,786.5201416015625,776.0439453125
358,778.05859375,780.879150390625,783.2966918945312,776.0439453125
359,785.3113403320312,782.4908447265625,789.3406372070312,784.5054931640625
360,788.5347900390625,784.5054931640625,790.5494384765625,787.3259887695312
361,784.908447265625,786.923095703125,790.952392578125,782.893798828125
362,788.937744140625,788.1318969726562,797.8021850585938,791.3552856445312
363,791.3552856445312,791.3552856445312,798.2051391601562,799.010986328125
364,785.7142944335938,784.1025390625,794.1758422851562,793.7728881835938
365,791.7582397460938,783.2966918945312,791.3552856445312,795.3846435546875
366,799.4139404296875,785.7142944335938,794.981689453125,799.4139404296875
367,800.2197875976562,783.6996459960938,798.2051391601562,798.6080322265625
368,802.6373901367188,786.923095703125,802.6373901367188,797.8021850585938
369,805.4578857421875,788.5347900390625,799.4139404296875,802.6373901367188
370,803.040283203125,787.3259887695312,792.5640869140625,799.8168334960938
371,798.2051391601562,789.3406372070312,790.952392578125,799.010986328125
372,791.3552856445312,792.5640869140625,788.5347900390625,795.7875366210938
373,784.1025390625,795.3846435546875,790.5494384765625,787.7289428710938
374,780.4761962890625,793.7728881835938,792.1611938476562,786.1171875
375,780.0732421875,793.7728881835938,790.5494384765625,788.937744140625
376,777.2527465820312,792.1611938476562,791.7582397460938,784.908447265625
377,772.8204956054688,788.5347900390625,789.7435913085938,775.6410522460938
378,774.4322509765625,792.1611938476562,787.3259887695312,775.2380981445312
379,777.2527465820312,791.3552856445312,788.1318969726562,775.6410522460938
380,779.2673950195312,792.5640869140625,789.7435913085938,777.2527465820312
381,772.8204956054688,792.5640869140625,790.1465454101562,774.4322509765625
382,773.2234497070312,789.7435913085938,786.5201416015625,776.4468994140625
383,775.6410522460938,789.3406372070312,790.5494384765625,788.5347900390625
384,776.0439453125,785.3113403320312,796.1904907226562,788.937744140625
385,786.1171875,789.3406372070312,796.1904907226562,790.952392578125
386,791.7582397460938,794.1758422851562,794.5787353515625,792.967041015625
387,792.1611938476562,790.1465454101562,791.3552856445312,792.5640869140625
388,793.3699340820312,790.5494384765625,792.1611938476562,792.1611938476562
389,793.7728881835938,793.3699340820312,795.3846435546875,792.1611938476562
390,798.6080322265625,790.952392578125,794.1758422851562,792.1611938476562
391,805.054931640625,790.1465454101562,791.3552856445312,794.5787353515625
392,808.6813354492188,796.996337890625,794.1758422851562,799.8168334960938
393,808.6813354492188,799.4139404296875,797.8021850585938,799.010986328125
394,805.8607788085938,789.7435913085938,797.3992919921875,799.4139404296875
395,806.6666870117188,790.952392578125,801.8314819335938,800.6226806640625
396,802.6373901367188,792.5640869140625,801.4285888671875,798.2051391601562
397,795.3846435546875,791.3552856445312,795.7875366210938,792.967041015625
398,797.3992919921875,796.996337890625,798.2051391601562,793.3699340820312
399,791.3552856445312,799.4139404296875,798.6080322265625,792.967041015625
400,784.908447265625,801.4285888671875,802.2344360351562,784.1025390625
401,790.1465454101562,799.010986328125,803.4432373046875,784.1025390625
402,790.952392578125,795.7875366210938,797.8021850585938,784.1025390625
403,789.7435913085938,794.5787353515625,800.2197875976562,778.4615478515625
404,791.3552856445312,795.3846435546875,804.2490844726562,780.0732421875
405,788.5347900390625,794.981689453125,801.4285888671875,781.6849975585938
406,788.937744140625,791.3552856445312,796.1904907226562,782.4908447265625
407,792.1611938476562,790.1465454101562,790.952392578125,782.893798828125
408,792.1611938476562,792.967041015625,792.967041015625,783.6996459960938
409,794.1758422851562,794.1758422851562,796.5933837890625,786.5201416015625
410,799.8168334960938,789.7435913085938,800.6226806640625,797.3992919921875
411,799.010986328125,790.1465454101562,802.2344360351562,798.2051391601562
412,798.2051391601562,789.7435913085938,798.6080322265625,794.981689453125
413,799.010986328125,788.1318969726562,797.8021850585938,797.8021850585938
414,794.5787353515625,785.7142944335938,802.2344360351562,797.3992919921875
415,789.3406372070312,786.923095703125,803.8461303710938,796.1904907226562
416,786.923095703125,784.5054931640625,801.8314819335938,792.1611938476562
417,789.7435913085938,785.3113403320312,796.996337890625,794.981689453125
418,789.7435913085938,788.937744140625,794.5787353515625,793.3699340820312
419,787.7289428710938,789.3406372070312,794.981689453125,787.3259887695312
420,789.3406372070312,793.3699340820312,797.3992919921875,787.7289428710938
421,789.7435913085938,794.1758422851562,796.996337890625,787.3259887695312
422,784.1025390625,789.7435913085938,791.7582397460938,777.2527465820312
423,782.4908447265625,786.5201416015625,788.1318969726562,767.1795043945312
424,786.1171875,789.3406372070312,791.7582397460938,768.7911987304688
425,786.5201416015625,786.923095703125,794.1758422851562,776.0439453125
426,789.7435913085938,788.1318969726562,794.1758422851562,780.879150390625
427,782.893798828125,784.5054931640625,794.5787353515625,775.2380981445312
428,773.6264038085938,783.2966918945312,790.5494384765625,777.2527465820312
429,772.8204956054688,786.923095703125,788.937744140625,782.4908447265625
430,775.6410522460938,782.893798828125,795.3846435546875,788.1318969726562
431,774.4322509765625,782.893798828125,799.010986328125,784.908447265625
432,776.0439453125,785.3113403320312,796.5933837890625,779.2673950195312
433,786.1171875,786.5201416015625,795.3846435546875,788.1318969726562
434,783.2966918945312,786.1171875,792.5640869140625,784.5054931640625
435,781.2820434570312,788.1318969726562,788.1318969726562,781.6849975585938
436,794.5787353515625,794.1758422851562,793.3699340820312,792.5640869140625
437,799.8168334960938,795.3846435546875,795.3846435546875,797.8021850585938
438,796.1904907226562,791.3552856445312,794.981689453125,790.952392578125
439,792.1611938476562,791.7582397460938,793.7728881835938,787.7289428710938
440,794.981689453125,795.3846435546875,796.1904907226562,794.1758422851562
441,803.040283203125,794.5787353515625,799.4139404296875,796.1904907226562
442,806.2637329101562,790.952392578125,797.8021850585938,792.967041015625
443,801.8314819335938,787.3259887695312,799.010986328125,794.1758422851562
444,800.6226806640625,784.5054931640625,796.5933837890625,802.6373901367188
445,796.5933837890625,786.923095703125,793.7728881835938,802.6373901367188
446,793.3699340820312,792.1611938476562,794.981689453125,796.1904907226562
447,799.8168334960938,792.967041015625,792.1611938476562,794.981689453125
448,805.054931640625,791.7582397460938,787.7289428710938,792.1611938476562
449,799.4139404296875,793.7728881835938,790.5494384765625,787.7289428710938
450,790.952392578125,793.7728881835938,788.937744140625,782.4908447265625
451,787.3259887695312,791.3552856445312,788.937744140625,785.7142944335938
452,790.5494384765625,795.7875366210938,792.5640869140625,787.7289428710938
453,794.1758422851562,796.996337890625,792.967041015625,785.3113403320312
454,789.3406372070312,792.967041015625,789.7435913085938,780.4761962890625
455,790.5494384765625,792.967041015625,786.5201416015625,776.4468994140625
456,795.7875366210938,792.967041015625,785.7142944335938,787.3259887695312
457,786.923095703125,788.1318969726562,783.6996459960938,788.1318969726562
458,783.2966918945312,787.3259887695312,785.7142944335938,776.8497924804688
459,792.5640869140625,790.952392578125,788.5347900390625,780.4761962890625
460,793.3699340820312,798.2051391601562,786.1171875,780.4761962890625
461,795.3846435546875,803.040283203125,782.893798828125,776.8497924804688
462,799.8168334960938,802.2344360351562,786.5201416015625,781.2820434570312
463,803.040283203125,802.6373901367188,788.937744140625,789.3406372070312
464,799.8168334960938,798.6080322265625,791.7582397460938,789.3406372070312
465,800.2197875976562,798.2051391601562,792.1611938476562,790.5494384765625
466,799.4139404296875,796.5933837890625,792.1611938476562,795.3846435546875
467,798.2051391601562,795.3846435546875,790.952392578125,803.040283203125
468,801.4285888671875,801.025634765625,788.937744140625,802.6373901367188
469,795.7875366210938,794.1758422851562,789.7435913085938,796.5933837890625
470,789.7435913085938,793.7728881835938,792.5640869140625,801.025634765625
471,790.952392578125,796.1904907226562,791.7582397460938,804.2490844726562
472,796.5933837890625,791.3552856445312,791.7582397460938,799.4139404296875
473,799.010986328125,791.3552856445312,794.1758422851562,792.5640869140625
474,796.5933837890625,794.1758422851562,796.5933837890625,795.7875366210938
475,793.7728881835938,795.7875366210938,796.5933837890625,791.7582397460938
476,794.981689453125,799.010986328125,796.5933837890625,784.908447265625
477,799.8168334960938,801.025634765625,799.8168334960938,784.5054931640625
478,796.1904907226562,795.3846435546875,797.3992919921875,786.1171875
479,789.7435913085938,788.937744140625,792.5640869140625,782.4908447265625
480,785.3113403320312,787.3259887695312,792.967041015625,775.2380981445312
481,786.5201416015625,791.3552856445312,795.3846435546875,774.029296875
482,793.7728881835938,791.3552856445312,796.5933837890625,780.0732421875
483,796.5933837890625,788.1318969726562,794.981689453125,788.937744140625
484,799.4139404296875,794.1758422851562,797.8021850585938,790.5494384765625
485,800.2197875976562,796.1904907226562,802.2344360351562,788.937744140625
486,795.7875366210938,794.1758422851562,801.8314819335938,793.3699340820312
487,792.967041015625,791.7582397460938,801.025634765625,794.5787353515625
488,788.937744140625,789.3406372070312,799.8168334960938,792.1611938476562
489,790.952392578125,792.1611938476562,797.8021850585938,795.3846435546875
490,794.5787353515625,796.1904907226562,796.996337890625,795.3846435546875
491,794.1758422851562,795.7875366210938,797.8021850585938,794.1758422851562
492,796.5933837890625,794.5787353515625,801.4285888671875,798.6080322265625
493,805.8607788085938,799.010986328125,803.040283203125,801.025634765625
494,803.4432373046875,796.1904907226562,799.4139404296875,804.6520385742188
495,796.996337890625,797.8021850585938,801.4285888671875,807.87548828125
496,793.7728881835938,801.025634765625,805.4578857421875,805.054931640625
497,786.923095703125,792.1611938476562,805.4578857421875,805.4578857421875
498,781.6849975585938,790.1465454101562,804.2490844726562,803.4432373046875
499,781.2820434570312,791.3552856445312,803.8461303710938,801.4285888671875
500,782.4908447265625,794.5787353515625,801.8314819335938,799.8168334960938
501,780.879150390625,792.5640869140625,804.2490844726562,801.025634765625
502,780.0732421875,782.4908447265625,803.040283203125,796.5933837890625
503,778.4615478515625,786.5201416015625,796.1904907226562,790.952392578125
504,780.0732421875,790.952392578125,796.1904907226562,785.7142944335938
505,782.4908447265625,791.3552856445312,795.3846435546875,779.2673950195312
506,783.2966918945312,796.5933837890625,795.7875366210938,781.6849975585938
507,784.5054931640625,800.6226806640625,799.4139404296875,781.2820434570312
508,786.923095703125,796.1904907226562,798.2051391601562,782.087890625
509,792.967041015625,790.5494384765625,798.6080322265625,786.1171875
510,790.952392578125,792.5640869140625,800.2197875976562,783.2966918945312
511,790.952392578125,791.7582397460938,797.8021850585938,784.908447265625
512,794.981689453125,790.952392578125,800.2197875976562,790.952392578125
513,799.8168334960938,786.923095703125,802.6373901367188,794.981689453125
514,797.8021850585938,782.893798828125,800.2197875976562,795.7875366210938
515,791.7582397460938,786.5201416015625,800.6226806640625,799.8168334960938
516,785.7142944335938,787.7289428710938,798.2051391601562,798.6080322265625
517,782.087890625,791.7582397460938,801.4285888671875,795.7875366210938
518,788.5347900390625,792.967041015625,803.4432373046875,796.996337890625
519,794.981689453125,789.3406372070312,794.981689453125,793.7728881835938
520,794.5787353515625,788.5347900390625,794.981689453125,795.3846435546875
521,791.3552856445312,794.1758422851562,796.996337890625,793.3699340820312
522,793.3699340820312,795.7875366210938,796.5933837890625,790.1465454101562
523,798.2051391601562,796.1904907226562,799.4139404296875,796.1904907226562
524,799.010986328125,796.996337890625,797.3992919921875,803.8461303710938
525,794.981689453125,800.6226806640625,796.1904907226562,798.6080322265625
526,789.7435913085938,801.4285888671875,794.981689453125,790.952392578125
527,788.937744140625,793.3699340820312,792.5640869140625,788.1318969726562
528,796.996337890625,800.6226806640625,791.7582397460938,791.3552856445312
529,800.6226806640625,805.054931640625,791.7582397460938,798.6080322265625
530,799.4139404296875,794.5787353515625,788.5347900390625,788.1318969726562
531,796.1904907226562,795.7875366210938,786.923095703125,776.8497924804688
532,798.2051391601562,801.025634765625,790.952392578125,780.4761962890625
533,800.6226806640625,801.025634765625,792.5640869140625,790.952392578125
534,792.967041015625,793.7728881835938,786.923095703125,786.5201416015625
535,790.1465454101562,789.7435913085938,786.923095703125,780.4761962890625
536,794.5787353515625,788.5347900390625,791.7582397460938,788.5347900390625
537,792.1611938476562,786.923095703125,791.7582397460938,787.7289428710938
538,782.893798828125,783.2966918945312,792.1611938476562,787.3259887695312
539,784.1025390625,780.879150390625,790.5494384765625,790.1465454101562
540,790.5494384765625,782.893798828125,788.5347900390625,792.967041015625
541,786.923095703125,782.4908447265625,786.923095703125,796.1904907226562
542,783.6996459960938,788.937744140625,783.6996459960938,790.952392578125
543,786.1171875,793.3699340820312,787.3259887695312,792.1611938476562
544,790.952392578125,791.7582397460938,795.7875366210938,793.3699340820312
545,792.1611938476562,792.967041015625,795.3846435546875,786.1171875
546,787.7289428710938,790.952392578125,794.1758422851562,783.2966918945312
547,784.5054931640625,793.7728881835938,794.981689453125,787.3259887695312
548,790.1465454101562,799.4139404296875,796.996337890625,789.3406372070312
549,793.3699340820312,796.996337890625,797.8021850585938,792.5640869140625
550,792.967041015625,795.7875366210938,798.2051391601562,792.967041015625
551,788.1318969726562,796.996337890625,793.3699340820312,788.5347900390625
552,783.6996459960938,791.3552856445312,792.967041015625,789.3406372070312
553,779.2673950195312,784.5054931640625,792.5640869140625,782.893798828125
554,781.6849975585938,786.5201416015625,789.7435913085938,780.0732421875
555,784.5054931640625,792.5640869140625,788.937744140625,787.7289428710938
556,783.6996459960938,792.1611938476562,785.3113403320312,796.996337890625
557,787.3259887695312,788.5347900390625,789.7435913085938,792.1611938476562
558,789.7435913085938,783.2966918945312,795.3846435546875,786.5201416015625
559,792.1611938476562,789.7435913085938,792.1611938476562,786.923095703125
560,796.5933837890625,797.3992919921875,790.952392578125,785.7142944335938
561,793.7728881835938,794.1758422851562,791.3552856445312,787.3259887695312
562,789.3406372070312,791.3552856445312,789.3406372070312,788.5347900390625
563,796.996337890625,791.7582397460938,790.952392578125,796.1904907226562
564,801.8314819335938,797.3992919921875,795.7875366210938,799.8168334960938
565,798.6080322265625,795.3846435546875,793.7728881835938,797.3992919921875
566,794.1758422851562,790.5494384765625,787.3259887695312,794.1758422851562
567,788.1318969726562,790.952392578125,784.908447265625,792.967041015625
568,789.7435913085938,792.967041015625,787.7289428710938,797.8021850585938
569,789.3406372070312,793.3699340820312,790.952392578125,794.1758422851562
570,793.3699340820312,790.5494384765625,792.5640869140625,794.1758422851562
571,793.3699340820312,794.5787353515625,792.967041015625,794.1758422851562
572,784.1025390625,790.5494384765625,794.1758422851562,786.5201416015625
573,782.893798828125,787.3259887695312,792.5640869140625,784.1025390625
574,784.1025390625,792.967041015625,788.5347900390625,786.5201416015625
575,786.923095703125,790.952392578125,785.7142944335938,787.3259887695312
576,788.937744140625,786.923095703125,786.1171875,781.2820434570312
577,785.7142944335938,792.1611938476562,788.1318969726562,781.2820434570312
578,776.0439453125,792.967041015625,786.1171875,783.2966918945312
579,777.2527465820312,790.1465454101562,794.1758422851562,794.1758422851562
580,787.3259887695312,794.981689453125,803.4432373046875,799.4139404296875
581,788.1318969726562,790.952392578125,799.010986328125,789.7435913085938
582,785.7142944335938,784.1025390625,791.3552856445312,783.6996459960938
583,777.6557006835938,790.1465454101562,791.3552856445312,788.1318969726562
584,779.2673950195312,796.996337890625,792.5640869140625,787.3259887695312
585,790.1465454101562,792.1611938476562,791.3552856445312,778.8644409179688
586,791.7582397460938,789.7435913085938,791.7582397460938,777.6557006835938
587,792.1611938476562,794.5787353515625,795.3846435546875,780.879150390625
588,788.1318969726562,794.1758422851562,793.3699340820312,780.879150390625
589,785.3113403320312,786.5201416015625,790.1465454101562,778.05859375
590,790.5494384765625,783.2966918945312,792.5640869140625,790.5494384765625
591,790.1465454101562,791.3552856445312,796.1904907226562,799.8168334960938
592,788.5347900390625,793.7728881835938,797.3992919921875,793.3699340820312
593,794.981689453125,790.1465454101562,800.2197875976562,791.7582397460938
594,791.3552856445312,788.937744140625,799.4139404296875,788.5347900390625
595,786.923095703125,790.5494384765625,796.1904907226562,785.3113403320312
596,789.3406372070312,792.1611938476562,796.1904907226562,788.1318969726562
597,789.3406372070312,791.7582397460938,796.1904907226562,790.5494384765625
598,790.1465454101562,794.5787353515625,795.7875366210938,794.5787353515625
599,786.5201416015625,793.3699340820312,792.967041015625,791.7582397460938
600,785.7142944335938,793.3699340820312,794.1758422851562,786.5201416015625
601,801.4285888671875,798.6080322265625,799.8168334960938,790.952392578125
602,803.040283203125,801.8314819335938,800.6226806640625,795.3846435546875
603,799.010986328125,800.6226806640625,803.4432373046875,794.5787353515625
604,798.6080322265625,793.3699340820312,797.3992919921875,789.3406372070312
605,795.7875366210938,789.7435913085938,790.952392578125,787.3259887695312
606,793.3699340820312,796.996337890625,792.967041015625,794.981689453125
607,790.5494384765625,801.025634765625,793.3699340820312,794.5787353515625
608,790.952392578125,798.2051391601562,795.3846435546875,786.5201416015625
609,781.6849975585938,792.1611938476562,797.8021850585938,788.937744140625
610,778.05859375,797.3992919921875,796.5933837890625,796.996337890625
611,781.6849975585938,802.2344360351562,797.3992919921875,793.3699340820312
612,778.8644409179688,792.5640869140625,796.1904907226562,785.3113403320312
613,778.05859375,788.5347900390625,793.3699340820312,784.5054931640625
614,773.6264038085938,789.7435913085938,793.3699340820312,786.1171875
615,776.4468994140625,788.1318969726562,793.7728881835938,788.1318969726562
616,778.05859375,789.7435913085938,792.967041015625,790.952392578125
617,780.4761962890625,794.981689453125,795.7875366210938,792.967041015625
618,789.7435913085938,797.8021850585938,798.2051391601562,798.6080322265625
619,794.5787353515625,796.5933837890625,801.4285888671875,800.6226806640625
620,797.3992919921875,792.5640869140625,802.2344360351562,798.2051391601562
621,804.2490844726562,791.3552856445312,803.4432373046875,801.4285888671875
622,803.4432373046875,788.937744140625,800.6226806640625,803.040283203125
623,796.1904907226562,786.923095703125,798.2051391601562,794.5787353515625
624,796.996337890625,792.967041015625,801.025634765625,795.3846435546875
625,800.2197875976562,794.981689453125,803.4432373046875,804.2490844726562
626,800.2197875976562,796.5933837890625,795.3846435546875,801.8314819335938
627,803.4432373046875,796.5933837890625,793.3699340820312,796.1904907226562
628,802.6373901367188,798.6080322265625,800.2197875976562,794.1758422851562
629,794.1758422851562,799.010986328125,799.8168334960938,792.967041015625
630,788.1318969726562,798.6080322265625,800.6226806640625,784.5054931640625
631,788.5347900390625,796.5933837890625,804.6520385742188,779.2673950195312
632,793.3699340820312,796.5933837890625,806.2637329101562,782.4908447265625
633,792.5640869140625,793.7728881835938,801.8314819335938,785.7142944335938
634,790.952392578125,790.1465454101562,797.3992919921875,780.879150390625
635,790.1465454101562,790.952392578125,798.2051391601562,780.879150390625
636,790.952392578125,792.1611938476562,799.010986328125,793.3699340820312
637,795.3846435546875,792.5640869140625,801.8314819335938,797.3992919921875
638,790.5494384765625,793.3699340820312,802.2344360351562,792.1611938476562
639,783.6996459960938,795.7875366210938,798.2051391601562,790.5494384765625
640,784.1025390625,794.981689453125,790.5494384765625,794.1758422851562
641,788.1318969726562,793.7728881835938,789.3406372070312,791.7582397460938
642,790.5494384765625,795.3846435546875,791.3552856445312,789.3406372070312
643,785.7142944335938,794.5787353515625,790.952392578125,787.3259887695312
644,786.1171875,790.952392578125,793.3699340820312,785.7142944335938
645,790.5494384765625,790.1465454101562,799.4139404296875,789.3406372070312
646,792.1611938476562,791.7582397460938,798.6080322265625,788.5347900390625
647,791.7582397460938,792.5640869140625,801.025634765625,795.7875366210938
648,791.7582397460938,790.952392578125,803.8461303710938,803.4432373046875
649,790.1465454101562,788.5347900390625,797.8021850585938,790.952392578125
650,782.087890625,788.937744140625,794.5787353515625,782.893798828125
651,777.6557006835938,786.5201416015625,793.7728881835938,781.6849975585938
652,778.05859375,788.937744140625,793.3699340820312,778.8644409179688
653,780.879150390625,793.3699340820312,791.3552856445312,778.8644409179688
654,780.4761962890625,790.952392578125,792.5640869140625,780.879150390625
655,784.1025390625,788.5347900390625,792.967041015625,780.879150390625
656,794.1758422851562,787.3259887695312,792.967041015625,781.2820434570312
657,793.7728881835938,786.5201416015625,787.3259887695312,780.4761962890625
658,794.5787353515625,782.893798828125,785.7142944335938,782.087890625
659,797.8021850585938,782.4908447265625,789.7435913085938,792.5640869140625
660,792.967041015625,791.3552856445312,790.952392578125,799.8168334960938
661,790.952392578125,795.7875366210938,793.3699340820312,800.6226806640625
662,793.7728881835938,794.1758422851562,793.3699340820312,794.5787353515625
663,804.2490844726562,789.7435913085938,795.7875366210938,801.025634765625
664,802.6373901367188,785.7142944335938,794.1758422851562,804.6520385742188
665,794.5787353515625,786.923095703125,792.5640869140625,798.6080322265625
666,799.8168334960938,789.3406372070312,797.3992919921875,806.2637329101562
667,799.010986328125,790.5494384765625,797.3992919921875,812.7106323242188
668,794.981689453125,789.7435913085938,796.1904907226562,809.89013671875
669,798.2051391601562,788.1318969726562,798.2051391601562,803.4432373046875
670,794.1758422851562,788.937744140625,797.8021850585938,797.3992919921875
671,792.967041015625,790.952392578125,797.3992919921875,799.8168334960938
672,801.8314819335938,796.996337890625,797.8021850585938,800.6226806640625
673,804.2490844726562,793.3699340820312,796.5933837890625,795.7875366210938
674,796.5933837890625,790.5494384765625,796.996337890625,792.1611938476562
675,786.1171875,786.923095703125,796.1904907226562,789.7435913085938
676,781.2820434570312,784.1025390625,793.7728881835938,779.6703491210938
677,784.908447265625,785.3113403320312,797.3992919921875,775.2380981445312
678,788.5347900390625,786.1171875,797.8021850585938,776.4468994140625
679,786.1171875,786.5201416015625,795.3846435546875,774.8351440429688
680,784.5054931640625,788.1318969726562,797.3992919921875,777.2527465820312
681,788.937744140625,791.3552856445312,798.2051391601562,778.4615478515625
682,798.6080322265625,790.5494384765625,797.8021850585938,782.087890625
683,804.2490844726562,791.7582397460938,793.3699340820312,785.7142944335938
684,801.8314819335938,793.3699340820312,788.937744140625,774.029296875
685,801.8314819335938,788.5347900390625,786.923095703125,776.4468994140625
686,800.6226806640625,787.7289428710938,782.4908447265625,788.937744140625
687,792.1611938476562,788.5347900390625,783.6996459960938,786.923095703125
688,791.3552856445312,789.3406372070312,788.5347900390625,782.4908447265625
689,794.1758422851562,797.3992919921875,792.1611938476562,790.1465454101562
690,799.4139404296875,799.8168334960938,790.1465454101562,790.5494384765625
691,798.6080322265625,794.981689453125,786.5201416015625,792.1611938476562
692,797.3992919921875,794.5787353515625,788.937744140625,798.2051391601562
693,802.2344360351562,791.3552856445312,794.981689453125,797.8021850585938
694,801.8314819335938,790.952392578125,795.3846435546875,800.6226806640625
695,797.8021850585938,792.1611938476562,792.1611938476562,798.6080322265625
696,799.010986328125,790.1465454101562,795.3846435546875,797.3992919921875
697,801.025634765625,789.3406372070312,798.6080322265625,801.8314819335938
698,799.010986328125,788.1318969726562,795.7875366210938,805.054931640625
699,791.3552856445312,785.7142944335938,799.010986328125,800.6226806640625
700,781.2820434570312,783.6996459960938,801.4285888671875,794.1758422851562
701,778.05859375,786.923095703125,799.010986328125,794.1758422851562
702,784.1025390625,792.5640869140625,799.4139404296875,791.7582397460938
703,786.5201416015625,793.7728881835938,803.040283203125,786.1171875
704,782.4908447265625,794.5787353515625,800.6226806640625,780.4761962890625
705,780.0732421875,795.3846435546875,794.1758422851562,776.0439453125
706,778.8644409179688,794.5787353515625,791.3552856445312,777.6557006835938
707,780.879150390625,794.981689453125,792.1611938476562,779.2673950195312
708,784.5054931640625,793.7728881835938,790.952392578125,774.029296875
709,791.3552856445312,788.937744140625,788.937744140625,780.4761962890625
710,789.3406372070312,789.7435913085938,790.952392578125,786.5201416015625
711,781.2820434570312,791.7582397460938,789.7435913085938,778.4615478515625
712,788.1318969726562,789.3406372070312,788.1318969726562,784.5054931640625
713,792.5640869140625,789.3406372070312,792.967041015625,788.937744140625
714,788.1318969726562,790.952392578125,798.6080322265625,785.7142944335938
715,786.5201416015625,791.3552856445312,797.8021850585938,788.5347900390625
716,785.7142944335938,796.5933837890625,791.3552856445312,783.2966918945312
717,792.1611938476562,799.8168334960938,791.3552856445312,784.908447265625
718,797.3992919921875,800.6226806640625,794.1758422851562,791.3552856445312
719,798.2051391601562,797.8021850585938,795.7875366210938,792.967041015625
720,801.4285888671875,796.5933837890625,792.967041015625,796.996337890625
721,801.4285888671875,800.2197875976562,797.3992919921875,802.6373901367188
722,796.1904907226562,802.2344360351562,798.2051391601562,799.010986328125
723,797.3992919921875,798.2051391601562,794.1758422851562,795.3846435546875
724,799.010986328125,794.981689453125,797.8021850585938,801.4285888671875
725,792.967041015625,792.967041015625,803.4432373046875,803.8461303710938
726,785.3113403320312,790.952392578125,806.6666870117188,796.5933837890625
727,783.2966918945312,793.3699340820312,805.054931640625,790.952392578125
728,790.1465454101562,791.7582397460938,803.8461303710938,795.3846435546875
729,794.1758422851562,791.7582397460938,804.2490844726562,796.1904907226562
730,792.5640869140625,792.967041015625,801.8314819335938,797.3992919921875
731,794.1758422851562,796.5933837890625,798.2051391601562,796.1904907226562
732,802.2344360351562,799.010986328125,796.996337890625,797.8021850585938
733,808.6813354492188,797.3992919921875,801.025634765625,799.010986328125
734,802.2344360351562,794.5787353515625,798.6080322265625,785.7142944335938
735,794.5787353515625,791.7582397460938,791.7582397460938,778.4615478515625
736,800.2197875976562,796.5933837890625,792.1611938476562,786.1171875
737,801.8314819335938,799.8168334960938,798.6080322265625,789.7435913085938
738,800.2197875976562,797.3992919921875,801.4285888671875,792.1611938476562
739,795.3846435546875,798.2051391601562,794.5787353515625,791.7582397460938
740,790.5494384765625,797.8021850585938,789.3406372070312,790.952392578125
741,788.937744140625,798.6080322265625,788.1318969726562,786.5201416015625
742,788.5347900390625,800.2197875976562,790.952392578125,780.879150390625
743,788.937744140625,796.996337890625,792.5640869140625,784.1025390625
744,790.1465454101562,792.5640869140625,791.3552856445312,788.5347900390625
745,786.5201416015625,790.5494384765625,788.1318969726562,778.8644409179688
746,786.1171875,791.3552856445312,792.5640869140625,777.6557006835938
747,785.7142944335938,790.1465454101562,795.7875366210938,779.6703491210938
748,780.879150390625,784.5054931640625,791.3552856445312,772.8204956054688
749,782.893798828125,784.908447265625,788.1318969726562,777.2527465820312
750,782.4908447265625,787.7289428710938,791.3552856445312,781.2820434570312
751,782.893798828125,786.923095703125,792.1611938476562,781.6849975585938
752,786.5201416015625,788.1318969726562,793.3699340820312,785.3113403320312
753,785.3113403320312,790.5494384765625,793.3699340820312,784.5054931640625
754,790.1465454101562,787.7289428710938,793.7728881835938,786.923095703125
755,795.3846435546875,786.5201416015625,790.5494384765625,786.923095703125
756,790.952392578125,787.3259887695312,788.5347900390625,784.5054931640625
757,788.937744140625,787.3259887695312,788.5347900390625,782.4908447265625
758,796.5933837890625,788.1318969726562,792.1611938476562,788.1318969726562
759,799.4139404296875,792.5640869140625,794.981689453125,791.3552856445312
760,792.1611938476562,793.3699340820312,793.7728881835938,783.2966918945312
761,788.1318969726562,783.2966918945312,788.5347900390625,776.0439453125
762,779.6703491210938,784.5054931640625,786.923095703125,772.8204956054688
763,778.4615478515625,793.7728881835938,789.7435913085938,772.8204956054688
764,791.3552856445312,796.996337890625,792.967041015625,778.05859375
765,800.6226806640625,800.2197875976562,792.1611938476562,778.4615478515625
766,799.8168334960938,798.2051391601562,788.937744140625,778.8644409179688
767,793.7728881835938,793.3699340820312,787.3259887695312,783.2966918945312
768,788.5347900390625,793.3699340820312,786.5201416015625,782.087890625
769,791.7582397460938,793.7728881835938,792.5640869140625,787.7289428710938
770,794.1758422851562,790.952392578125,795.3846435546875,795.7875366210938
771,788.1318969726562,791.7582397460938,795.7875366210938,794.981689453125
772,786.1171875,795.3846435546875,796.996337890625,788.5347900390625
773,786.923095703125,791.7582397460938,793.7728881835938,788.937744140625
774,791.3552856445312,792.967041015625,792.967041015625,792.1611938476562
775,796.5933837890625,797.8021850585938,795.3846435546875,796.1904907226562
776,796.1904907226562,797.8021850585938,794.5787353515625,793.7728881835938
777,795.3846435546875,796.996337890625,794.981689453125,788.937744140625
778,796.996337890625,788.5347900390625,791.7582397460938,787.3259887695312
779,799.8168334960938,789.3406372070312,790.1465454101562,789.3406372070312
780,802.6373901367188,797.3992919921875,790.5494384765625,796.5933837890625
781,799.010986328125,795.7875366210938,789.3406372070312,795.3846435546875
782,796.1904907226562,799.010986328125,792.1611938476562,790.952392578125
783,793.7728881835938,798.2051391601562,789.7435913085938,788.5347900390625
784,791.7582397460938,794.5787353515625,786.5201416015625,787.3259887695312
785,794.981689453125,797.3992919921875,787.7289428710938,786.5201416015625
786,796.5933837890625,795.3846435546875,789.7435913085938,780.879150390625
787,793.3699340820312,790.5494384765625,793.3699340820312,778.05859375
788,787.3259887695312,787.3259887695312,786.5201416015625,774.8351440429688
789,792.1611938476562,789.7435913085938,786.923095703125,780.879150390625
790,803.040283203125,796.5933837890625,791.7582397460938,802.6373901367188
791,803.8461303710938,798.6080322265625,787.7289428710938,809.89013671875
792,795.3846435546875,794.981689453125,784.5054931640625,791.7582397460938
793,788.5347900390625,796.5933837890625,785.3113403320312,788.5347900390625
794,784.5054931640625,796.1904907226562,793.3699340820312,795.7875366210938
795,789.7435913085938,796.5933837890625,799.010986328125,793.3699340820312
796,787.7289428710938,790.952392578125,794.5787353515625,791.7582397460938
797,787.7289428710938,786.923095703125,794.981689453125,786.923095703125
798,787.3259887695312,791.7582397460938,798.2051391601562,788.937744140625
799,784.1025390625,792.5640869140625,796.996337890625,796.996337890625
800,784.908447265625,790.1465454101562,795.3846435546875,792.967041015625
801,783.6996459960938,792.967041015625,793.3699340820312,787.3259887695312
802,780.0732421875,790.1465454101562,788.1318969726562,786.5201416015625
803,784.908447265625,786.923095703125,784.908447265625,787.3259887695312
804,788.937744140625,792.5640869140625,787.3259887695312,785.7142944335938
805,794.1758422851562,792.1611938476562,790.952392578125,790.1465454101562
806,796.996337890625,790.5494384765625,792.967041015625,799.010986328125
807,790.5494384765625,786.923095703125,788.937744140625,787.3259887695312
808,786.923095703125,782.893798828125,787.3259887695312,778.8644409179688
809,788.1318969726562,789.3406372070312,788.937744140625,786.5201416015625
810,792.5640869140625,792.967041015625,789.3406372070312,790.952392578125
811,794.1758422851562,789.3406372070312,791.7582397460938,793.3699340820312
812,790.952392578125,786.1171875,790.5494384765625,793.3699340820312
813,788.5347900390625,784.908447265625,791.7582397460938,791.7582397460938
814,782.4908447265625,784.5054931640625,792.5640869140625,786.923095703125
815,779.2673950195312,789.7435913085938,794.5787353515625,786.923095703125
816,784.1025390625,786.5201416015625,794.981689453125,792.5640869140625
817,789.7435913085938,778.05859375,796.1904907226562,795.7875366210938
818,789.3406372070312,785.3113403320312,802.6373901367188,788.937744140625
819,783.2966918945312,788.937744140625,800.6226806640625,782.893798828125
820,780.0732421875,784.5054931640625,792.1611938476562,783.2966918945312
821,777.2527465820312,788.5347900390625,786.1171875,782.4908447265625
822,778.8644409179688,791.7582397460938,789.7435913085938,787.3259887695312
823,777.6557006835938,782.4908447265625,794.5787353515625,788.1318969726562
824,773.2234497070312,780.879150390625,794.1758422851562,781.6849975585938
825,777.2527465820312,786.5201416015625,790.952392578125,780.879150390625
826,784.1025390625,787.3259887695312,790.952392578125,781.2820434570312
827,791.3552856445312,788.937744140625,792.5640869140625,777.6557006835938
828,790.1465454101562,794.5787353515625,794.981689453125,782.893798828125
829,791.7582397460938,796.996337890625,798.2051391601562,786.923095703125
830,799.4139404296875,794.1758422851562,799.010986328125,779.2673950195312
831,802.6373901367188,790.1465454101562,797.3992919921875,779.6703491210938
832,799.010986328125,788.937744140625,790.952392578125,782.4908447265625
833,795.7875366210938,789.7435913085938,784.908447265625,780.0732421875
834,792.5640869140625,789.7435913085938,786.1171875,781.6849975585938
835,790.952392578125,798.6080322265625,788.937744140625,790.1465454101562
836,799.8168334960938,805.8607788085938,795.3846435546875,802.2344360351562
837,796.1904907226562,800.6226806640625,799.010986328125,802.2344360351562
838,788.937744140625,792.967041015625,795.3846435546875,794.981689453125
839,792.967041015625,787.3259887695312,795.7875366210938,794.1758422851562
840,792.5640869140625,786.5201416015625,798.6080322265625,797.8021850585938
841,792.967041015625,787.3259887695312,794.981689453125,793.3699340820312
842,789.7435913085938,788.5347900390625,791.3552856445312,783.6996459960938
843,787.7289428710938,790.952392578125,791.3552856445312,786.923095703125
844,787.7289428710938,786.923095703125,790.1465454101562,791.7582397460938
845,784.5054931640625,783.2966918945312,790.1465454101562,786.5201416015625
846,788.1318969726562,785.7142944335938,791.3552856445312,792.1611938476562
847,788.1318969726562,788.937744140625,790.1465454101562,794.5787353515625
848,783.6996459960938,787.3259887695312,791.3552856445312,789.7435913085938
849,787.7289428710938,787.3259887695312,793.7728881835938,790.1465454101562
850,787.3259887695312,788.5347900390625,789.3406372070312,781.6849975585938
851,782.893798828125,790.5494384765625,788.1318969726562,783.2966918945312
852,780.0732421875,790.5494384765625,786.5201416015625,784.1025390625
853,782.087890625,791.7582397460938,787.3259887695312,775.6410522460938
854,784.5054931640625,792.5640869140625,789.3406372070312,780.4761962890625
855,783.2966918945312,794.1758422851562,786.5201416015625,784.1025390625
856,786.5201416015625,792.5640869140625,789.7435913085938,784.1025390625
857,791.3552856445312,787.3259887695312,790.5494384765625,782.4908447265625
858,788.1318969726562,791.3552856445312,786.1171875,782.4908447265625
859,785.3113403320312,790.952392578125,785.7142944335938,782.893798828125
860,790.5494384765625,788.5347900390625,788.1318969726562,782.087890625
861,792.1611938476562,788.5347900390625,790.1465454101562,786.5201416015625
862,793.7728881835938,788.1318969726562,790.952392578125,793.7728881835938
863,796.1904907226562,787.3259887695312,789.7435913085938,787.3259887695312
864,789.7435913085938,785.3113403320312,789.7435913085938,780.879150390625
865,788.1318969726562,788.1318969726562,787.3259887695312,786.5201416015625
866,786.1171875,789.3406372070312,786.923095703125,787.7289428710938
867,785.3113403320312,788.1318969726562,794.5787353515625,797.8021850585938
868,784.1025390625,790.952392578125,799.010986328125,794.5787353515625
869,780.0732421875,786.1171875,796.5933837890625,786.923095703125
870,784.5054931640625,783.6996459960938,794.981689453125,791.7582397460938
871,788.937744140625,790.1465454101562,801.025634765625,794.1758422851562
872,787.3259887695312,793.3699340820312,801.4285888671875,790.1465454101562
873,790.952392578125,799.010986328125,799.4139404296875,790.5494384765625
874,793.7728881835938,797.8021850585938,798.2051391601562,787.7289428710938
875,795.7875366210938,794.1758422851562,794.981689453125,787.3259887695312
876,801.8314819335938,793.7728881835938,795.7875366210938,793.7728881835938
877,803.8461303710938,794.5787353515625,795.7875366210938,791.7582397460938
878,804.2490844726562,789.7435913085938,792.1611938476562,792.5640869140625
879,797.3992919921875,783.2966918945312,793.3699340820312,799.010986328125
880,791.7582397460938,783.6996459960938,797.8021850585938,790.5494384765625
881,791.3552856445312,784.908447265625,794.1758422851562,786.1171875
882,781.6849975585938,786.1171875,785.7142944335938,785.7142944335938
883,784.5054931640625,785.7142944335938,787.3259887695312,782.893798828125
884,788.937744140625,786.923095703125,792.1611938476562,778.4615478515625
885,786.923095703125,790.952392578125,789.7435913085938,779.2673950195312
886,784.5054931640625,790.5494384765625,790.952392578125,785.7142944335938
887,785.3113403320312,791.3552856445312,796.5933837890625,788.937744140625
888,788.5347900390625,789.7435913085938,797.3992919921875,782.4908447265625
889,787.7289428710938,783.6996459960938,794.5787353515625,774.8351440429688
890,786.923095703125,786.923095703125,790.5494384765625,781.6849975585938
891,783.6996459960938,789.7435913085938,786.923095703125,780.879150390625
892,785.3113403320312,790.1465454101562,784.5054931640625,779.2673950195312
893,785.3113403320312,786.923095703125,780.0732421875,781.6849975585938
894,789.3406372070312,786.5201416015625,781.6849975585938,781.2820434570312
895,793.3699340820312,795.3846435546875,789.7435913085938,780.879150390625
896,790.5494384765625,796.5933837890625,794.5787353515625,784.908447265625
897,794.981689453125,793.3699340820312,792.5640869140625,785.7142944335938
898,792.5640869140625,791.3552856445312,789.7435913085938,782.087890625
899,790.1465454101562,788.937744140625,791.3552856445312,784.908447265625
900,783.6996459960938,785.7142944335938,790.5494384765625,789.3406372070312
901,787.7289428710938,787.3259887695312,788.5347900390625,794.5787353515625
902,794.981689453125,791.3552856445312,792.967041015625,795.3846435546875
903,791.3552856445312,790.1465454101562,792.5640869140625,791.3552856445312
904,786.923095703125,790.952392578125,789.7435913085938,792.5640869140625
905,786.5201416015625,792.967041015625,792.1611938476562,793.3699340820312
906,786.923095703125,792.5640869140625,788.937744140625,790.952392578125
907,788.937744140625,796.5933837890625,792.1611938476562,790.5494384765625
908,795.3846435546875,795.7875366210938,794.1758422851562,790.952392578125
909,788.5347900390625,787.3259887695312,792.5640869140625,790.952392578125
910,781.2820434570312,783.2966918945312,792.967041015625,787.3259887695312
911,786.1171875,788.1318969726562,794.5787353515625,786.5201416015625
912,788.1318969726562,790.1465454101562,795.7875366210938,783.6996459960938
913,795.3846435546875,792.1611938476562,797.8021850585938,795.3846435546875
914,790.5494384765625,793.7728881835938,796.5933837890625,799.4139404296875
915,784.1025390625,794.1758422851562,798.6080322265625,788.1318969726562
916,792.1611938476562,791.7582397460938,803.040283203125,790.952392578125
917,798.2051391601562,792.1611938476562,801.4285888671875,796.1904907226562
918,800.2197875976562,790.952392578125,801.025634765625,796.996337890625
919,797.8021850585938,789.7435913085938,803.8461303710938,798.2051391601562
920,796.1904907226562,790.5494384765625,805.8607788085938,797.3992919921875
921,801.025634765625,792.5640869140625,801.4285888671875,796.996337890625
922,807.069580078125,794.5787353515625,796.996337890625,796.996337890625
923,808.6813354492188,798.2051391601562,799.8168334960938,794.981689453125
924,803.4432373046875,799.4139404296875,801.8314819335938,802.6373901367188
925,796.996337890625,800.6226806640625,801.8314819335938,811.90478515625
926,792.967041015625,795.3846435546875,798.6080322265625,796.996337890625
927,793.7728881835938,790.952392578125,796.5933837890625,790.5494384765625
928,795.7875366210938,798.2051391601562,796.996337890625,794.5787353515625
929,791.3552856445312,799.4139404296875,793.3699340820312,791.3552856445312
930,790.5494384765625,797.3992919921875,790.5494384765625,789.3406372070312
931,790.5494384765625,796.1904907226562,788.5347900390625,790.1465454101562
932,795.3846435546875,794.1758422851562,788.937744140625,794.981689453125
933,796.996337890625,794.1758422851562,786.5201416015625,792.5640869140625
934,793.3699340820312,794.981689453125,784.5054931640625,786.923095703125
935,787.3259887695312,794.1758422851562,787.7289428710938,783.2966918945312
936,785.3113403320312,792.967041015625,790.1465454101562,778.8644409179688
937,792.967041015625,797.3992919921875,793.7728881835938,784.1025390625
938,788.5347900390625,792.967041015625,791.3552856445312,780.0732421875
939,786.1171875,788.1318969726562,785.7142944335938,772.4176025390625
940,784.1025390625,793.3699340820312,789.7435913085938,774.4322509765625
941,776.4468994140625,792.967041015625,789.3406372070312,772.0146484375
942,775.6410522460938,790.1465454101562,785.7142944335938,770.8058471679688
943,784.5054931640625,794.5787353515625,788.1318969726562,778.8644409179688
944,788.937744140625,797.8021850585938,785.7142944335938,779.6703491210938
945,788.1318969726562,802.2344360351562,786.923095703125,773.2234497070312
946,790.1465454101562,800.6226806640625,787.3259887695312,771.2088012695312
947,796.5933837890625,799.010986328125,785.7142944335938,774.029296875
948,797.8021850585938,798.6080322265625,787.7289428710938,776.8497924804688
949,791.3552856445312,795.3846435546875,792.967041015625,780.879150390625
950,789.7435913085938,792.967041015625,793.3699340820312,779.6703491210938
951,791.7582397460938,796.1904907226562,789.3406372070312,783.2966918945312
952,794.5787353515625,798.6080322265625,790.1465454101562,789.7435913085938
953,797.3992919921875,795.3846435546875,790.1465454101562,788.5347900390625
954,793.7728881835938,795.3846435546875,785.7142944335938,789.3406372070312
955,789.3406372070312,792.967041015625,788.937744140625,790.5494384765625
956,785.7142944335938,792.5640869140625,792.1611938476562,792.1611938476562
957,784.1025390625,796.5933837890625,788.5347900390625,795.3846435546875
958,789.7435913085938,794.981689453125,788.937744140625,801.8314819335938
959,798.6080322265625,794.981689453125,789.7435913085938,806.2637329101562
960,801.4285888671875,791.7582397460938,792.5640869140625,806.6666870117188
961,798.6080322265625,788.1318969726562,796.1904907226562,807.4725341796875
962,801.4285888671875,792.5640869140625,796.1904907226562,809.084228515625
963,806.2637329101562,792.1611938476562,800.6226806640625,816.3369750976562
964,800.2197875976562,791.7582397460938,799.010986328125,813.5164794921875
965,796.1904907226562,790.1465454101562,794.5787353515625,804.2490844726562
966,796.1904907226562,788.5347900390625,793.7728881835938,798.6080322265625
967,788.937744140625,793.7728881835938,786.1171875,793.3699340820312
968,789.7435913085938,791.3552856445312,786.923095703125,793.3699340820312
969,793.3699340820312,794.1758422851562,787.7289428710938,789.7435913085938
970,792.967041015625,792.5640869140625,784.1025390625,783.2966918945312
971,795.7875366210938,784.908447265625,781.2820434570312,776.0439453125
972,790.1465454101562,785.3113403320312,782.4908447265625,773.6264038085938
973,788.1318969726562,789.3406372070312,786.1171875,774.029296875
974,789.7435913085938,782.893798828125,786.923095703125,776.4468994140625
975,782.893798828125,781.2820434570312,788.937744140625,777.2527465820312
976,775.2380981445312,782.893798828125,784.908447265625,776.0439453125
977,778.05859375,781.2820434570312,787.3259887695312,780.0732421875
978,785.3113403320312,782.087890625,796.1904907226562,786.923095703125
979,786.923095703125,782.087890625,793.7728881835938,786.923095703125
980,783.2966918945312,785.3113403320312,789.7435913085938,786.923095703125
981,776.0439453125,783.2966918945312,794.1758422851562,786.923095703125
982,773.2234497070312,780.0732421875,800.6226806640625,782.087890625
983,779.6703491210938,785.7142944335938,802.6373901367188,787.7289428710938
984,783.2966918945312,791.7582397460938,802.6373901367188,795.7875366210938
985,780.879150390625,793.7728881835938,804.6520385742188,794.5787353515625
986,780.4761962890625,791.7582397460938,803.4432373046875,794.981689453125
987,780.879150390625,794.5787353515625,803.4432373046875,795.3846435546875
988,786.923095703125,792.1611938476562,800.2197875976562,792.1611938476562
989,791.7582397460938,788.937744140625,795.3846435546875,786.5201416015625
990,790.5494384765625,788.5347900390625,796.1904907226562,784.5054931640625
991,788.5347900390625,788.937744140625,794.1758422851562,785.3113403320312
992,795.3846435546875,793.7728881835938,797.3992919921875,791.7582397460938
993,800.6226806640625,792.967041015625,794.5787353515625,799.8168334960938
994,798.6080322265625,789.7435913085938,789.7435913085938,799.4139404296875
995,801.025634765625,790.952392578125,794.981689453125,801.4285888671875
996,806.6666870117188,797.3992919921875,797.8021850585938,803.040283203125
997,806.6666870117188,804.2490844726562,801.4285888671875,798.2051391601562
998,801.4285888671875,805.8607788085938,800.2197875976562,794.5787353515625
999,798.2051391601562,801.4285888671875,796.996337890625,792.1611938476562
1000,799.8168334960938,799.010986328125,798.6080322265625,796.1904907226562
1001,794.1758422851562,796.5933837890625,799.4139404296875,794.981689453125
1002,786.1171875,790.952392578125,796.1904907226562,786.5201416015625
1003,788.937744140625,791.3552856445312,793.3699340820312,786.1171875
1004,792.5640869140625,793.3699340820312,792.5640869140625,784.5054931640625
1005,791.3552856445312,793.3699340820312,794.5787353515625,782.4908447265625
1006,788.1318969726562,791.7582397460938,792.1611938476562,786.1171875
1007,783.6996459960938,789.3406372070312,787.7289428710938,785.7142944335938
1008,786.1171875,788.937744140625,790.1465454101562,784.1025390625
1009,788.5347900390625,786.1171875,791.3552856445312,788.1318969726562
1010,789.3406372070312,786.5201416015625,791.3552856445312,791.3552856445312
1011,790.952392578125,788.937744140625,792.967041015625,795.3846435546875
1012,788.5347900390625,788.937744140625,792.967041015625,791.3552856445312
1013,786.923095703125,787.7289428710938,791.7582397460938,783.2966918945312
1014,789.3406372070312,788.1318969726562,793.3699340820312,784.908447265625
1015,793.7728881835938,792.967041015625,792.967041015625,788.1318969726562
1016,800.2197875976562,795.3846435546875,795.7875366210938,791.3552856445312
1017,801.4285888671875,796.5933837890625,798.2051391601562,788.937744140625
1018,801.4285888671875,795.7875366210938,797.8021850585938,787.3259887695312
1019,795.7875366210938,794.981689453125,797.3992919921875,786.923095703125
1020,791.7582397460938,790.5494384765625,794.981689453125,789.7435913085938
1021,796.1904907226562,791.7582397460938,795.3846435546875,797.3992919921875
1022,790.952392578125,795.7875366210938,796.1904907226562,793.7728881835938
1023,793.3699340820312,795.3846435546875,800.2197875976562,794.5787353515625
1024,802.2344360351562,794.1758422851562,802.2344360351562,804.6520385742188
1025,794.5787353515625,793.7728881835938,800.2197875976562,802.6373901367188
1026,791.3552856445312,795.3846435546875,800.2197875976562,798.6080322265625
1027,796.5933837890625,798.6080322265625,803.4432373046875,800.2197875976562
1028,790.1465454101562,799.4139404296875,801.8314819335938,798.6080322265625
1029,789.7435913085938,796.5933837890625,798.2051391601562,798.2051391601562
1030,795.7875366210938,793.7728881835938,796.996337890625,797.8021850585938
1031,795.3846435546875,791.7582397460938,796.5933837890625,795.7875366210938
1032,796.996337890625,785.7142944335938,795.7875366210938,797.3992919921875
1033,799.010986328125,784.5054931640625,793.7728881835938,800.2197875976562
1034,799.4139404296875,788.1318969726562,794.5787353515625,794.5787353515625
1035,795.3846435546875,785.7142944335938,796.5933837890625,784.908447265625
1036,799.010986328125,786.5201416015625,798.6080322265625,793.3699340820312
1037,806.2637329101562,793.3699340820312,799.010986328125,798.6080322265625
1038,805.054931640625,793.7728881835938,801.4285888671875,792.1611938476562
1039,807.4725341796875,788.5347900390625,801.4285888671875,801.4285888671875
1040,804.2490844726562,788.1318969726562,804.6520385742188,799.8168334960938
1041,794.1758422851562,792.1611938476562,807.4725341796875,789.7435913085938
1042,792.1611938476562,793.7728881835938,807.87548828125,792.1611938476562
1043,790.1465454101562,788.5347900390625,808.2783813476562,789.3406372070312
1044,790.952392578125,786.1171875,806.6666870117188,788.1318969726562
1045,794.5787353515625,785.7142944335938,806.2637329101562,789.7435913085938
1046,792.1611938476562,784.1025390625,804.6520385742188,794.1758422851562
1047,790.1465454101562,786.5201416015625,803.040283203125,797.8021850585938
1048,789.7435913085938,792.967041015625,803.8461303710938,796.996337890625
1049,789.3406372070312,794.5787353515625,803.4432373046875,793.3699340820312
1050,794.981689453125,792.5640869140625,799.8168334960938,794.1758422851562
1051,799.4139404296875,795.3846435546875,795.7875366210938,795.7875366210938
1052,795.3846435546875,797.3992919921875,794.5787353515625,795.7875366210938
1053,792.967041015625,792.5640869140625,793.7728881835938,789.7435913085938
1054,795.3846435546875,792.1611938476562,793.3699340820312,791.7582397460938
1055,794.1758422851562,791.7582397460938,793.7728881835938,794.1758422851562
1056,788.937744140625,786.1171875,793.7728881835938,790.5494384765625
1057,792.5640869140625,788.937744140625,797.3992919921875,797.8021850585938
1058,793.7728881835938,793.7728881835938,796.996337890625,797.3992919921875
1059,794.981689453125,796.5933837890625,800.2197875976562,801.025634765625
1060,801.025634765625,794.1758422851562,798.6080322265625,797.8021850585938
1061,796.996337890625,786.923095703125,791.3552856445312,788.1318969726562
1062,788.1318969726562,791.7582397460938,793.7728881835938,788.1318969726562
1063,783.2966918945312,795.3846435546875,793.3699340820312,791.7582397460938
1064,786.923095703125,796.5933837890625,790.952392578125,789.7435913085938
1065,789.7435913085938,796.996337890625,793.7728881835938,785.7142944335938
1066,788.937744140625,795.3846435546875,796.5933837890625,784.5054931640625
1067,786.923095703125,796.1904907226562,792.967041015625,781.6849975585938
1068,778.8644409179688,788.937744140625,790.952392578125,776.8497924804688
1069,780.4761962890625,790.5494384765625,795.7875366210938,777.2527465820312
1070,786.1171875,792.1611938476562,795.7875366210938,783.2966918945312
1071,787.7289428710938,785.3113403320312,792.1611938476562,788.1318969726562
1072,792.5640869140625,782.4908447265625,790.5494384765625,784.1025390625
1073,789.7435913085938,778.05859375,792.967041015625,779.2673950195312
1074,786.5201416015625,776.4468994140625,793.7728881835938,782.893798828125
1075,790.5494384765625,782.893798828125,792.1611938476562,783.2966918945312
1076,797.3992919921875,787.7289428710938,795.3846435546875,786.5201416015625
1077,800.6226806640625,786.923095703125,799.010986328125,792.5640869140625
1078,801.025634765625,781.6849975585938,800.2197875976562,792.5640869140625
1079,799.8168334960938,784.1025390625,799.8168334960938,790.1465454101562
1080,795.7875366210938,787.7289428710938,800.2197875976562,786.923095703125
1081,795.7875366210938,786.923095703125,799.4139404296875,787.3259887695312
1082,795.3846435546875,779.2673950195312,794.1758422851562,789.3406372070312
1083,791.3552856445312,779.2673950195312,788.5347900390625,785.3113403320312
1084,782.087890625,786.923095703125,786.923095703125,780.4761962890625
1085,776.8497924804688,790.952392578125,791.7582397460938,778.4615478515625
1086,777.6557006835938,791.7582397460938,790.952392578125,781.6849975585938
1087,778.8644409179688,787.3259887695312,785.3113403320312,782.087890625
1088,778.8644409179688,785.7142944335938,787.3259887695312,781.2820434570312
1089,781.2820434570312,789.3406372070312,788.937744140625,783.6996459960938
1090,781.2820434570312,791.3552856445312,788.937744140625,783.6996459960938
1091,781.2820434570312,791.3552856445312,789.7435913085938,782.087890625
1092,783.6996459960938,789.7435913085938,788.5347900390625,780.0732421875
1093,779.6703491210938,781.2820434570312,787.3259887695312,780.4761962890625
1094,771.2088012695312,773.6264038085938,779.2673950195312,782.893798828125
1095,770.8058471679688,780.0732421875,774.8351440429688,774.4322509765625
1096,779.6703491210938,783.6996459960938,780.4761962890625,772.0146484375
1097,784.1025390625,784.908447265625,780.4761962890625,776.0439453125
1098,785.3113403320312,788.937744140625,784.1025390625,781.2820434570312
1099,784.5054931640625,792.967041015625,787.3259887695312,774.029296875
1100,783.2966918945312,791.3552856445312,785.3113403320312,774.029296875
1101,788.5347900390625,795.3846435546875,790.5494384765625,784.5054931640625
1102,795.3846435546875,799.8168334960938,795.3846435546875,784.1025390625
1103,801.4285888671875,799.4139404296875,795.7875366210938,786.5201416015625
1104,806.2637329101562,796.996337890625,795.7875366210938,790.1465454101562
1105,800.2197875976562,792.1611938476562,791.7582397460938,784.908447265625
1106,790.5494384765625,787.3259887695312,791.7582397460938,783.6996459960938
1107,791.3552856445312,783.6996459960938,792.967041015625,787.7289428710938
1108,789.7435913085938,788.5347900390625,788.5347900390625,789.7435913085938
1109,786.1171875,787.3259887695312,783.2966918945312,786.5201416015625
1110,784.908447265625,784.5054931640625,786.5201416015625,786.5201416015625
1111,793.3699340820312,793.3699340820312,790.1465454101562,791.3552856445312
1112,795.3846435546875,793.7728881835938,789.7435913085938,791.7582397460938
1113,793.3699340820312,787.3259887695312,791.7582397460938,797.8021850585938
1114,790.1465454101562,783.2966918945312,792.1611938476562,791.3552856445312
1115,784.908447265625,780.879150390625,789.7435913085938,786.923095703125
1116,787.7289428710938,782.087890625,789.3406372070312,788.5347900390625
1117,788.5347900390625,785.7142944335938,790.5494384765625,786.5201416015625
1118,783.2966918945312,790.952392578125,790.952392578125,780.0732421875
1119,781.6849975585938,793.7728881835938,791.7582397460938,783.6996459960938
1120,774.029296875,790.952392578125,786.5201416015625,786.1171875
1121,772.8204956054688,786.923095703125,788.5347900390625,786.1171875
1122,782.4908447265625,793.7728881835938,795.3846435546875,791.7582397460938
1123,784.908447265625,799.010986328125,795.7875366210938,793.7728881835938
1124,786.5201416015625,800.2197875976562,801.4285888671875,796.996337890625
1125,792.5640869140625,798.6080322265625,805.054931640625,801.025634765625
1126,796.5933837890625,794.981689453125,799.8168334960938,798.6080322265625
1127,799.010986328125,796.1904907226562,797.8021850585938,796.5933837890625
1128,800.6226806640625,799.8168334960938,800.2197875976562,801.4285888671875
1129,795.3846435546875,795.3846435546875,801.025634765625,796.1904907226562
1130,792.1611938476562,791.7582397460938,799.4139404296875,789.7435913085938
1131,791.7582397460938,795.3846435546875,799.4139404296875,791.7582397460938
1132,792.967041015625,794.981689453125,799.4139404296875,796.1904907226562
1133,795.3846435546875,792.967041015625,799.4139404296875,798.2051391601562
1134,799.010986328125,793.7728881835938,801.8314819335938,799.010986328125
1135,797.3992919921875,791.3552856445312,801.4285888671875,801.8314819335938
1136,792.5640869140625,783.2966918945312,799.010986328125,797.8021850585938
1137,793.7728881835938,783.6996459960938,798.6080322265625,794.981689453125
1138,799.4139404296875,786.5201416015625,797.3992919921875,796.5933837890625
1139,798.2051391601562,785.3113403320312,793.3699340820312,792.967041015625
1140,794.981689453125,788.1318969726562,794.981689453125,788.1318969726562
1141,797.3992919921875,791.3552856445312,799.4139404296875,790.1465454101562
1142,794.5787353515625,788.1318969726562,795.7875366210938,788.937744140625
1143,788.5347900390625,786.5201416015625,790.952392578125,790.952392578125
1144,788.1318969726562,790.1465454101562,792.967041015625,794.1758422851562
1145,791.3552856445312,795.7875366210938,793.3699340820312,794.1758422851562
1146,791.3552856445312,796.996337890625,793.3699340820312,798.2051391601562
1147,789.7435913085938,794.1758422851562,793.3699340820312,796.996337890625
1148,791.3552856445312,793.3699340820312,795.7875366210938,793.3699340820312
1149,791.3552856445312,790.1465454101562,797.3992919921875,791.7582397460938
1150,788.937744140625,790.5494384765625,798.6080322265625,791.7582397460938
1151,793.7728881835938,795.3846435546875,801.025634765625,796.996337890625
1152,795.7875366210938,791.7582397460938,802.2344360351562,794.5787353515625
1153,794.1758422851562,792.967041015625,800.2197875976562,789.3406372070312
1154,799.010986328125,794.5787353515625,801.025634765625,790.1465454101562
1155,799.010986328125,791.7582397460938,803.8461303710938,794.5787353515625
1156,793.7728881835938,800.2197875976562,795.7875366210938,791.7582397460938
1157,792.5640869140625,805.4578857421875,786.1171875,784.5054931640625
1158,789.7435913085938,800.2197875976562,790.5494384765625,782.893798828125
1159,790.952392578125,799.4139404296875,792.5640869140625,785.3113403320312
1160,793.3699340820312,798.6080322265625,790.1465454101562,786.5201416015625
1161,793.3699340820312,796.5933837890625,790.5494384765625,790.5494384765625
1162,794.981689453125,796.1904907226562,793.7728881835938,797.8021850585938
1163,793.7728881835938,790.5494384765625,797.3992919921875,797.8021850585938
1164,788.937744140625,787.7289428710938,796.1904907226562,795.7875366210938
1165,786.5201416015625,790.952392578125,796.5933837890625,790.1465454101562
1166,788.937744140625,787.7289428710938,792.967041015625,789.7435913085938
1167,787.7289428710938,786.5201416015625,790.1465454101562,792.5640869140625
1168,789.7435913085938,789.3406372070312,792.5640869140625,788.937744140625
1169,798.6080322265625,790.952392578125,792.5640869140625,791.7582397460938
1170,802.2344360351562,792.1611938476562,796.1904907226562,799.010986328125
1171,797.8021850585938,788.1318969726562,798.2051391601562,798.6080322265625
1172,792.5640869140625,785.3113403320312,794.5787353515625,791.7582397460938
1173,796.996337890625,788.1318969726562,796.1904907226562,798.6080322265625
1174,799.8168334960938,791.3552856445312,794.1758422851562,799.010986328125
1175,794.1758422851562,790.952392578125,792.1611938476562,789.7435913085938
1176,788.5347900390625,792.5640869140625,793.7728881835938,788.1318969726562
1177,792.967041015625,794.1758422851562,793.3699340820312,795.7875366210938
1178,794.981689453125,796.1904907226562,793.3699340820312,809.084228515625
1179,795.3846435546875,799.4139404296875,794.1758422851562,807.4725341796875
1180,795.3846435546875,801.025634765625,795.7875366210938,796.996337890625
1181,793.7728881835938,802.2344360351562,795.3846435546875,796.996337890625
1182,794.981689453125,799.8168334960938,789.7435913085938,795.7875366210938
1183,793.7728881835938,796.996337890625,790.952392578125,792.1611938476562
1184,792.5640869140625,796.1904907226562,794.981689453125,796.5933837890625
1185,791.3552856445312,795.3846435546875,794.1758422851562,799.8168334960938
1186,785.7142944335938,792.1611938476562,795.3846435546875,797.8021850585938
1187,780.879150390625,786.5201416015625,792.1611938476562,792.5640869140625
1188,786.5201416015625,792.5640869140625,790.5494384765625,788.1318969726562
1189,791.3552856445312,797.3992919921875,794.5787353515625,797.3992919921875
1190,790.952392578125,797.3992919921875,793.7728881835938,803.4432373046875
1191,794.5787353515625,803.4432373046875,793.3699340820312,799.4139404296875
1192,795.3846435546875,798.2051391601562,794.5787353515625,796.1904907226562
1193,800.2197875976562,795.7875366210938,799.010986328125,796.5933837890625
1194,807.4725341796875,805.4578857421875,803.040283203125,803.8461303710938
1195,809.084228515625,801.8314819335938,801.025634765625,805.054931640625
1196,804.2490844726562,794.1758422851562,799.8168334960938,799.010986328125
1197,802.2344360351562,799.4139404296875,804.2490844726562,798.2051391601562
1198,807.4725341796875,806.2637329101562,807.4725341796875,797.8021850585938
1199,809.084228515625,807.87548828125,804.6520385742188,798.2051391601562
1200,803.4432373046875,804.2490844726562,798.2051391601562,793.3699340820312
1201,802.2344360351562,807.4725341796875,798.2051391601562,793.3699340820312
1202,794.981689453125,809.4871826171875,800.6226806640625,796.996337890625
1203,784.908447265625,803.040283203125,799.010986328125,787.3259887695312
1204,787.7289428710938,794.5787353515625,796.5933837890625,785.7142944335938
1205,789.7435913085938,788.5347900390625,794.1758422851562,788.5347900390625
1206,790.1465454101562,792.967041015625,796.5933837890625,787.7289428710938
1207,788.5347900390625,797.8021850585938,799.010986328125,787.3259887695312
1208,787.3259887695312,792.5640869140625,801.025634765625,789.3406372070312
1209,789.3406372070312,790.5494384765625,799.010986328125,786.5201416015625
1210,788.1318969726562,795.3846435546875,792.967041015625,788.1318969726562
1211,786.923095703125,796.996337890625,790.952392578125,792.1611938476562
1212,787.7289428710938,799.4139404296875,791.7582397460938,791.7582397460938
1213,784.1025390625,798.6080322265625,792.967041015625,792.5640869140625
1214,781.6849975585938,790.1465454101562,789.3406372070312,789.3406372070312
1215,793.3699340820312,796.5933837890625,787.7289428710938,794.5787353515625
1216,796.5933837890625,803.8461303710938,790.952392578125,793.3699340820312
1217,792.5640869140625,799.010986328125,786.5201416015625,782.893798828125
1218,795.3846435546875,795.7875366210938,790.5494384765625,789.7435913085938
1219,791.7582397460938,795.3846435546875,792.967041015625,793.7728881835938
1220,793.7728881835938,796.996337890625,793.7728881835938,795.7875366210938
1221,794.1758422851562,798.2051391601562,800.6226806640625,789.7435913085938
1222,786.5201416015625,792.967041015625,794.5787353515625,774.8351440429688
1223,786.923095703125,787.7289428710938,788.5347900390625,774.8351440429688
1224,784.908447265625,786.923095703125,787.3259887695312,781.2820434570312
1225,780.4761962890625,782.893798828125,785.3113403320312,778.05859375
1226,786.5201416015625,786.923095703125,784.1025390625,779.2673950195312
1227,787.3259887695312,790.952392578125,781.2820434570312,782.4908447265625
1228,780.879150390625,788.937744140625,782.893798828125,780.4761962890625
1229,782.4908447265625,783.6996459960938,784.908447265625,782.893798828125
1230,786.5201416015625,781.6849975585938,784.908447265625,784.1025390625
1231,789.7435913085938,785.7142944335938,786.1171875,783.2966918945312
1232,796.5933837890625,789.7435913085938,788.5347900390625,786.923095703125
1233,799.8168334960938,793.7728881835938,791.7582397460938,788.5347900390625
1234,797.8021850585938,796.5933837890625,789.7435913085938,791.7582397460938
1235,801.025634765625,793.7728881835938,788.5347900390625,799.010986328125
1236,799.4139404296875,793.7728881835938,784.908447265625,798.6080322265625
1237,793.3699340820312,799.8168334960938,783.2966918945312,792.1611938476562
1238,791.7582397460938,799.8168334960938,785.3113403320312,790.1465454101562
1239,796.5933837890625,799.8168334960938,787.7289428710938,795.7875366210938
1240,799.4139404296875,803.8461303710938,789.3406372070312,795.7875366210938
1241,797.3992919921875,803.8461303710938,790.5494384765625,791.3552856445312
1242,800.2197875976562,801.025634765625,794.5787353515625,791.3552856445312
1243,799.010986328125,796.5933837890625,791.7582397460938,793.7728881835938
1244,796.5933837890625,793.7728881835938,793.3699340820312,796.1904907226562
1245,801.025634765625,796.5933837890625,796.996337890625,799.010986328125
1246,801.8314819335938,799.4139404296875,791.7582397460938,798.6080322265625
1247,800.6226806640625,801.4285888671875,793.7728881835938,796.5933837890625
1248,793.3699340820312,801.025634765625,794.981689453125,788.937744140625
1249,795.7875366210938,802.2344360351562,793.7728881835938,788.5347900390625
1250,803.4432373046875,804.2490844726562,802.6373901367188,799.010986328125
1251,801.4285888671875,804.2490844726562,801.4285888671875,802.6373901367188
1252,799.010986328125,801.8314819335938,796.996337890625,794.981689453125
1253,793.3699340820312,801.4285888671875,794.1758422851562,790.1465454101562
1254,788.937744140625,802.6373901367188,793.7728881835938,791.7582397460938
1255,788.937744140625,802.2344360351562,796.5933837890625,790.952392578125
1256,783.6996459960938,801.8314819335938,792.1611938476562,783.6996459960938
1257,784.5054931640625,795.3846435546875,789.7435913085938,784.5054931640625
1258,791.3552856445312,793.7728881835938,790.5494384765625,788.1318969726562
1259,789.3406372070312,791.7582397460938,795.3846435546875,785.7142944335938
1260,786.1171875,791.7582397460938,792.967041015625,787.7289428710938
1261,787.7289428710938,799.010986328125,785.3113403320312,786.923095703125
1262,791.3552856445312,803.040283203125,782.4908447265625,787.7289428710938
1263,789.7435913085938,801.8314819335938,787.3259887695312,792.5640869140625
1264,785.3113403320312,796.1904907226562,794.1758422851562,786.923095703125
1265,782.4908447265625,793.7728881835938,784.1025390625,778.05859375
1266,784.5054931640625,794.981689453125,782.893798828125,778.4615478515625
1267,786.923095703125,799.010986328125,790.952392578125,780.4761962890625
1268,789.7435913085938,798.6080322265625,792.5640869140625,785.3113403320312
1269,792.5640869140625,797.3992919921875,788.937744140625,786.5201416015625
1270,790.1465454101562,794.5787353515625,791.7582397460938,786.923095703125
1271,790.1465454101562,792.967041015625,794.981689453125,783.2966918945312
1272,792.5640869140625,798.6080322265625,793.3699340820312,783.2966918945312
1273,787.7289428710938,795.3846435546875,794.5787353515625,786.5201416015625
1274,786.923095703125,794.1758422851562,793.3699340820312,792.5640869140625
1275,787.7289428710938,792.967041015625,793.7728881835938,791.3552856445312
1276,786.923095703125,792.5640869140625,794.1758422851562,783.6996459960938
1277,789.3406372070312,795.3846435546875,793.3699340820312,785.3113403320312
1278,792.5640869140625,797.8021850585938,793.3699340820312,790.1465454101562
1279,793.3699340820312,790.5494384765625,795.3846435546875,790.1465454101562
1280,793.7728881835938,791.7582397460938,799.4139404296875,792.1611938476562
1281,794.1758422851562,794.981689453125,800.6226806640625,793.7728881835938
1282,794.5787353515625,790.952392578125,800.2197875976562,797.3992919921875
1283,795.3846435546875,792.967041015625,796.996337890625,801.025634765625
1284,799.010986328125,792.5640869140625,797.3992919921875,798.2051391601562
1285,804.2490844726562,794.981689453125,796.996337890625,800.6226806640625
1286,805.4578857421875,801.4285888671875,793.3699340820312,809.4871826171875
1287,805.8607788085938,801.8314819335938,797.8021850585938,805.054931640625
1288,799.8168334960938,796.1904907226562,798.2051391601562,797.3992919921875
1289,800.6226806640625,792.5640869140625,793.7728881835938,799.4139404296875
1290,806.2637329101562,795.3846435546875,798.2051391601562,803.4432373046875
1291,800.6226806640625,798.2051391601562,799.010986328125,799.010986328125
1292,793.3699340820312,794.5787353515625,799.010986328125,794.5787353515625
1293,786.1171875,786.923095703125,792.1611938476562,791.3552856445312
1294,786.1171875,779.6703491210938,793.3699340820312,790.5494384765625
1295,794.1758422851562,784.908447265625,800.6226806640625,786.1171875
1296,797.3992919921875,795.3846435546875,800.6226806640625,785.3113403320312
1297,796.5933837890625,798.6080322265625,799.8168334960938,799.010986328125
1298,794.1758422851562,797.3992919921875,794.1758422851562,797.3992919921875
1299,793.3699340820312,793.3699340820312,792.5640869140625,786.923095703125
1300,791.7582397460938,792.1611938476562,793.3699340820312,782.893798828125
1301,791.3552856445312,790.1465454101562,790.952392578125,785.3113403320312
1302,788.1318969726562,790.1465454101562,790.952392578125,790.5494384765625
1303,784.908447265625,790.5494384765625,794.5787353515625,792.1611938476562
1304,790.1465454101562,796.5933837890625,799.4139404296875,795.3846435546875
1305,790.952392578125,799.4139404296875,799.4139404296875,798.6080322265625
1306,793.7728881835938,792.967041015625,796.996337890625,795.3846435546875
1307,803.040283203125,792.5640869140625,794.981689453125,797.8021850585938
1308,801.025634765625,792.5640869140625,793.3699340820312,801.025634765625
1309,793.7728881835938,795.3846435546875,793.7728881835938,801.025634765625
1310,796.996337890625,800.2197875976562,792.5640869140625,798.6080322265625
1311,798.6080322265625,795.3846435546875,787.3259887695312,794.981689453125
1312,793.7728881835938,794.5787353515625,791.3552856445312,795.3846435546875
1313,796.996337890625,796.1904907226562,792.5640869140625,797.3992919921875
1314,801.4285888671875,796.996337890625,794.1758422851562,802.2344360351562
1315,793.3699340820312,797.3992919921875,795.3846435546875,796.5933837890625
1316,788.5347900390625,791.7582397460938,790.1465454101562,793.7728881835938
1317,788.5347900390625,792.5640869140625,789.7435913085938,798.2051391601562
1318,792.967041015625,790.5494384765625,795.7875366210938,795.7875366210938
1319,795.3846435546875,786.5201416015625,795.3846435546875,794.981689453125
1320,792.967041015625,793.7728881835938,794.1758422851562,790.1465454101562
1321,794.1758422851562,799.010986328125,793.7728881835938,791.3552856445312
1322,792.1611938476562,793.3699340820312,790.952392578125,794.1758422851562
1323,789.3406372070312,795.7875366210938,794.1758422851562,791.3552856445312
1324,787.7289428710938,802.6373901367188,794.1758422851562,782.893798828125
1325,788.5347900390625,799.010986328125,792.967041015625,778.05859375
1326,791.3552856445312,795.3846435546875,793.3699340820312,782.4908447265625
1327,795.7875366210938,797.3992919921875,790.5494384765625,784.908447265625
1328,793.7728881835938,799.010986328125,792.1611938476562,790.5494384765625
1329,791.3552856445312,795.3846435546875,797.8021850585938,789.7435913085938
1330,792.1611938476562,791.3552856445312,800.2197875976562,787.3259887695312
1331,793.7728881835938,790.952392578125,800.6226806640625,791.3552856445312
1332,796.1904907226562,792.967041015625,800.6226806640625,793.7728881835938
1333,794.981689453125,793.3699340820312,795.3846435546875,781.6849975585938
1334,789.7435913085938,792.1611938476562,786.5201416015625,776.0439453125
1335,788.1318969726562,788.5347900390625,786.1171875,782.087890625
1336,793.3699340820312,791.3552856445312,788.5347900390625,785.3113403320312
1337,799.010986328125,794.5787353515625,789.3406372070312,789.7435913085938
1338,797.3992919921875,791.3552856445312,791.7582397460938,790.1465454101562
1339,795.3846435546875,795.3846435546875,793.7728881835938,786.5201416015625
1340,788.5347900390625,798.2051391601562,795.3846435546875,784.5054931640625
1341,785.3113403320312,798.2051391601562,794.5787353515625,781.2820434570312
1342,794.5787353515625,799.010986328125,792.5640869140625,780.0732421875
1343,796.5933837890625,797.8021850585938,792.5640869140625,785.3113403320312
1344,788.1318969726562,795.3846435546875,792.1611938476562,785.7142944335938
1345,787.7289428710938,792.5640869140625,796.5933837890625,786.923095703125
1346,788.1318969726562,789.3406372070312,795.7875366210938,786.5201416015625
1347,782.893798828125,788.5347900390625,791.3552856445312,784.1025390625
1348,782.087890625,792.967041015625,791.7582397460938,787.7289428710938
1349,780.4761962890625,796.996337890625,792.1611938476562,783.6996459960938
1350,780.879150390625,795.7875366210938,794.981689453125,780.0732421875
1351,783.2966918945312,797.3992919921875,798.2051391601562,792.967041015625
1352,781.2820434570312,793.3699340820312,799.4139404296875,793.7728881835938
1353,782.087890625,788.937744140625,796.1904907226562,783.2966918945312
1354,786.1171875,788.937744140625,793.7728881835938,785.7142944335938
1355,784.908447265625,789.7435913085938,796.996337890625,787.3259887695312
1356,776.0439453125,788.1318969726562,796.996337890625,788.937744140625
1357,776.0439453125,786.5201416015625,792.1611938476562,792.5640869140625
1358,786.923095703125,784.908447265625,790.952392578125,796.1904907226562
1359,792.1611938476562,787.3259887695312,792.5640869140625,798.6080322265625
1360,789.3406372070312,794.981689453125,792.1611938476562,790.1465454101562
1361,784.5054931640625,792.5640869140625,788.5347900390625,788.5347900390625
1362,786.5201416015625,790.952392578125,787.7289428710938,794.1758422851562
1363,790.5494384765625,797.3992919921875,793.3699340820312,801.4285888671875
1364,791.3552856445312,794.1758422851562,793.3699340820312,803.4432373046875
1365,789.7435913085938,790.5494384765625,787.7289428710938,799.010986328125
1366,785.3113403320312,788.5347900390625,787.7289428710938,792.5640869140625
1367,791.7582397460938,785.7142944335938,792.967041015625,791.7582397460938
1368,793.7728881835938,781.6849975585938,790.952392578125,788.5347900390625
1369,792.1611938476562,782.4908447265625,788.937744140625,785.3113403320312
1370,789.3406372070312,789.3406372070312,790.952392578125,788.5347900390625
1371,783.2966918945312,791.7582397460938,790.952392578125,784.1025390625
1372,787.3259887695312,789.3406372070312,790.1465454101562,777.2527465820312
1373,790.952392578125,783.2966918945312,786.1171875,778.05859375
1374,789.7435913085938,785.3113403320312,785.3113403320312,779.6703491210938
1375,785.3113403320312,795.7875366210938,787.7289428710938,777.6557006835938
1376,784.1025390625,796.5933837890625,782.893798828125,771.6116943359375
1377,786.5201416015625,792.5640869140625,786.1171875,775.6410522460938
1378,790.5494384765625,792.1611938476562,792.967041015625,786.1171875
1379,791.3552856445312,791.3552856445312,790.952392578125,787.3259887695312
1380,782.4908447265625,792.5640869140625,790.1465454101562,782.087890625
1381,777.6557006835938,787.3259887695312,791.7582397460938,783.6996459960938
1382,782.087890625,786.5201416015625,794.1758422851562,792.967041015625
1383,787.7289428710938,790.5494384765625,795.7875366210938,793.3699340820312
1384,785.7142944335938,790.952392578125,793.7728881835938,786.5201416015625
1385,783.6996459960938,789.3406372070312,793.3699340820312,780.879150390625
1386,786.1171875,788.5347900390625,794.1758422851562,782.087890625
1387,785.7142944335938,790.5494384765625,792.967041015625,781.2820434570312
1388,790.5494384765625,796.5933837890625,795.7875366210938,785.7142944335938
1389,792.5640869140625,794.5787353515625,798.6080322265625,790.5494384765625
1390,788.937744140625,784.908447265625,796.996337890625,786.1171875
1391,792.5640869140625,788.1318969726562,795.3846435546875,787.7289428710938
1392,797.8021850585938,796.1904907226562,796.996337890625,793.3699340820312
1393,803.4432373046875,799.8168334960938,795.7875366210938,808.6813354492188
1394,802.6373901367188,795.3846435546875,790.5494384765625,809.084228515625
1395,801.025634765625,789.3406372070312,791.3552856445312,796.1904907226562
1396,796.996337890625,793.7728881835938,793.7728881835938,790.5494384765625
1397,788.1318969726562,795.3846435546875,793.7728881835938,789.3406372070312
1398,791.7582397460938,791.7582397460938,793.3699340820312,789.3406372070312
1399,797.8021850585938,791.7582397460938,791.7582397460938,789.7435913085938
1400,796.1904907226562,787.7289428710938,788.5347900390625,789.7435913085938
1401,788.1318969726562,791.7582397460938,790.5494384765625,789.3406372070312
1402,782.4908447265625,794.1758422851562,791.3552856445312,787.3259887695312
1403,786.923095703125,792.967041015625,792.967041015625,789.7435913085938
1404,791.7582397460938,796.1904907226562,795.3846435546875,791.7582397460938
1405,792.967041015625,792.5640869140625,796.996337890625,794.1758422851562
1406,788.5347900390625,786.1171875,797.3992919921875,792.1611938476562
1407,784.5054931640625,784.908447265625,795.3846435546875,785.3113403320312
1408,789.3406372070312,786.1171875,792.1611938476562,783.2966918945312
1409,788.1318969726562,784.5054931640625,789.3406372070312,778.05859375
1410,786.923095703125,785.7142944335938,786.923095703125,776.4468994140625
1411,786.1171875,788.937744140625,786.1171875,783.2966918945312
1412,784.1025390625,791.7582397460938,787.7289428710938,782.893798828125
1413,786.1171875,793.7728881835938,790.5494384765625,784.1025390625
1414,791.7582397460938,794.981689453125,793.7728881835938,790.952392578125
1415,797.8021850585938,793.3699340820312,793.3699340820312,790.952392578125
1416,799.010986328125,787.3259887695312,792.5640869140625,795.3846435546875
1417,792.5640869140625,784.908447265625,792.967041015625,792.1611938476562
1418,786.1171875,791.7582397460938,792.1611938476562,782.087890625
1419,791.7582397460938,799.010986328125,793.7728881835938,783.6996459960938
1420,795.7875366210938,798.6080322265625,796.1904907226562,787.7289428710938
1421,796.996337890625,796.5933837890625,798.2051391601562,791.3552856445312
1422,796.996337890625,796.996337890625,803.8461303710938,794.5787353515625
1423,790.5494384765625,792.5640869140625,802.2344360351562,791.7582397460938
1424,788.1318969726562,790.1465454101562,798.6080322265625,789.3406372070312
1425,785.7142944335938,790.1465454101562,800.2197875976562,787.7289428710938
1426,786.923095703125,786.1171875,797.8021850585938,786.923095703125
1427,790.5494384765625,783.6996459960938,791.3552856445312,787.7289428710938
1428,787.3259887695312,786.5201416015625,792.1611938476562,783.6996459960938
1429,791.3552856445312,790.5494384765625,795.7875366210938,782.893798828125
1430,798.6080322265625,795.3846435546875,792.5640869140625,786.923095703125
1431,795.7875366210938,798.6080322265625,791.3552856445312,788.937744140625
1432,789.3406372070312,798.2051391601562,792.967041015625,789.3406372070312
1433,787.7289428710938,801.4285888671875,793.3699340820312,782.4908447265625
1434,788.1318969726562,802.6373901367188,794.1758422851562,778.05859375
1435,788.1318969726562,795.3846435546875,791.3552856445312,778.05859375
1436,790.5494384765625,796.996337890625,785.7142944335938,778.05859375
1437,794.5787353515625,799.010986328125,783.2966918945312,781.6849975585938
1438,794.1758422851562,796.996337890625,786.1171875,782.4908447265625
1439,801.025634765625,799.010986328125,788.1318969726562,786.1171875
1440,801.025634765625,800.6226806640625,790.5494384765625,790.952392578125
1441,792.5640869140625,798.6080322265625,792.967041015625,793.3699340820312
1442,792.967041015625,796.1904907226562,792.967041015625,792.1611938476562
1443,788.1318969726562,794.5787353515625,796.5933837890625,793.3699340820312
1444,791.7582397460938,793.3699340820312,799.8168334960938,798.2051391601562
1445,803.040283203125,793.7728881835938,801.4285888671875,802.6373901367188
1446,802.6373901367188,799.010986328125,799.8168334960938,800.2197875976562
1447,792.967041015625,797.8021850585938,793.7728881835938,798.6080322265625
1448,788.937744140625,797.3992919921875,788.1318969726562,794.1758422851562
1449,796.996337890625,799.4139404296875,794.981689453125,790.952392578125
1450,801.025634765625,790.952392578125,796.5933837890625,789.3406372070312
1451,798.2051391601562,791.7582397460938,794.981689453125,789.7435913085938
1452,794.1758422851562,796.1904907226562,795.7875366210938,793.3699340820312
1453,790.952392578125,797.3992919921875,792.1611938476562,792.5640869140625
1454,794.981689453125,797.8021850585938,791.3552856445312,795.3846435546875
1455,799.010986328125,796.996337890625,792.967041015625,798.2051391601562
1456,794.5787353515625,794.981689453125,797.8021850585938,787.3259887695312
1457,792.1611938476562,794.5787353515625,798.6080322265625,786.923095703125
1458,790.952392578125,795.3846435546875,796.5933837890625,789.7435913085938
1459,793.3699340820312,796.1904907226562,797.8021850585938,792.1611938476562
1460,796.1904907226562,794.1758422851562,794.1758422851562,789.3406372070312
1461,794.1758422851562,794.5787353515625,792.5640869140625,784.1025390625
1462,793.3699340820312,791.7582397460938,793.3699340820312,788.937744140625
1463,788.937744140625,790.5494384765625,795.3846435546875,792.1611938476562
1464,784.5054931640625,794.1758422851562,796.996337890625,792.5640869140625
1465,790.5494384765625,793.7728881835938,796.5933837890625,796.1904907226562
1466,791.7582397460938,795.3846435546875,793.7728881835938,803.040283203125
1467,784.5054931640625,799.4139404296875,793.7728881835938,799.8168334960938
1468,789.3406372070312,802.6373901367188,795.7875366210938,798.2051391601562
1469,790.952392578125,804.2490844726562,800.6226806640625,800.2197875976562
1470,791.3552856445312,798.6080322265625,799.010986328125,794.981689453125
1471,789.3406372070312,797.8021850585938,793.3699340820312,788.5347900390625
1472,786.923095703125,799.4139404296875,793.7728881835938,788.1318969726562
1473,788.1318969726562,795.7875366210938,796.996337890625,790.952392578125
1474,795.3846435546875,796.1904907226562,797.3992919921875,795.3846435546875
1475,796.996337890625,800.6226806640625,794.5787353515625,792.5640869140625
1476,792.5640869140625,801.025634765625,791.3552856445312,791.7582397460938
1477,792.967041015625,797.3992919921875,788.5347900390625,794.5787353515625
1478,789.3406372070312,795.7875366210938,791.3552856445312,802.2344360351562
1479,788.1318969726562,793.7728881835938,791.7582397460938,799.010986328125
1480,794.1758422851562,792.967041015625,788.937744140625,790.1465454101562
1481,800.2197875976562,796.1904907226562,790.5494384765625,790.5494384765625
1482,796.996337890625,790.5494384765625,790.1465454101562,783.2966918945312
1483,794.1758422851562,789.7435913085938,790.952392578125,777.2527465820312
1484,789.3406372070312,796.996337890625,793.7728881835938,770.4029541015625
1485,782.893798828125,797.3992919921875,792.967041015625,773.6264038085938
1486,778.8644409179688,791.7582397460938,796.1904907226562,780.4761962890625
1487,778.4615478515625,786.1171875,793.3699340820312,776.4468994140625
1488,779.6703491210938,787.7289428710938,795.3846435546875,779.2673950195312
1489,776.8497924804688,790.952392578125,800.2197875976562,786.923095703125
1490,780.4761962890625,791.7582397460938,799.8168334960938,788.1318969726562
1491,789.3406372070312,790.1465454101562,800.6226806640625,791.7582397460938
1492,789.7435913085938,788.1318969726562,801.4285888671875,791.7582397460938
1493,788.937744140625,788.1318969726562,802.6373901367188,785.3113403320312
1494,784.1025390625,790.952392578125,801.025634765625,779.2673950195312
1495,780.879150390625,794.1758422851562,801.4285888671875,779.6703491210938
1496,788.937744140625,793.7728881835938,801.8314819335938,782.893798828125
1497,791.7582397460938,791.7582397460938,802.2344360351562,780.879150390625
1498,783.2966918945312,791.3552856445312,796.5933837890625,779.6703491210938
1499,783.2966918945312,790.1465454101562,793.7728881835938,782.4908447265625
1500,787.7289428710938,787.3259887695312,794.1758422851562,780.4761962890625
1501,789.7435913085938,784.1025390625,795.3846435546875,779.6703491210938
1502,786.1171875,787.3259887695312,792.967041015625,776.4468994140625
1503,781.6849975585938,789.7435913085938,792.967041015625,773.2234497070312
1504,778.8644409179688,790.5494384765625,796.1904907226562,777.6557006835938
1505,774.4322509765625,790.5494384765625,791.7582397460938,776.0439453125
1506,781.6849975585938,784.1025390625,789.7435913085938,776.8497924804688
1507,787.3259887695312,781.6849975585938,787.7289428710938,780.0732421875
1508,788.5347900390625,778.8644409179688,788.937744140625,790.1465454101562
1509,785.7142944335938,779.2673950195312,790.1465454101562,793.7728881835938
1510,783.2966918945312,785.7142944335938,791.3552856445312,786.1171875
1511,788.5347900390625,786.923095703125,794.981689453125,793.7728881835938
1512,792.5640869140625,784.5054931640625,794.1758422851562,799.4139404296875
1513,795.3846435546875,784.908447265625,796.5933837890625,798.6080322265625
1514,789.7435913085938,785.7142944335938,793.3699340820312,794.1758422851562
1515,788.1318969726562,782.087890625,789.3406372070312,796.996337890625
1516,792.5640869140625,781.2820434570312,790.5494384765625,799.010986328125
1517,796.1904907226562,785.7142944335938,789.3406372070312,790.1465454101562
1518,799.010986328125,785.3113403320312,792.1611938476562,786.1171875
1519,792.5640869140625,785.3113403320312,789.3406372070312,781.6849975585938
1520,785.3113403320312,782.087890625,792.967041015625,785.3113403320312
1521,784.908447265625,785.3113403320312,796.996337890625,789.7435913085938
1522,789.3406372070312,787.3259887695312,796.5933837890625,789.7435913085938
1523,790.5494384765625,780.0732421875,799.010986328125,792.5640869140625
1524,790.1465454101562,785.7142944335938,799.010986328125,786.923095703125
1525,784.5054931640625,789.3406372070312,796.5933837890625,774.8351440429688
1526,786.923095703125,788.1318969726562,797.3992919921875,777.2527465820312
1527,790.5494384765625,790.952392578125,795.7875366210938,784.1025390625
1528,788.937744140625,789.7435913085938,796.5933837890625,777.2527465820312
1529,789.3406372070312,788.937744140625,797.8021850585938,774.8351440429688
1530,787.3259887695312,792.1611938476562,792.5640869140625,778.05859375
1531,782.087890625,790.5494384765625,789.3406372070312,780.0732421875
1532,781.6849975585938,790.1465454101562,787.3259887695312,784.5054931640625
1533,785.7142944335938,793.3699340820312,790.5494384765625,788.5347900390625
1534,782.4908447265625,787.7289428710938,793.3699340820312,790.952392578125
1535,782.893798828125,782.087890625,792.5640869140625,787.7289428710938
1536,785.3113403320312,786.5201416015625,799.010986328125,782.4908447265625
1537,784.1025390625,782.893798828125,797.3992919921875,784.1025390625
1538,789.3406372070312,785.3113403320312,792.5640869140625,790.952392578125
1539,790.952392578125,790.952392578125,790.1465454101562,792.967041015625
1540,787.3259887695312,785.3113403320312,785.3113403320312,788.1318969726562
1541,793.7728881835938,788.5347900390625,787.7289428710938,788.1318969726562
1542,802.6373901367188,800.2197875976562,792.5640869140625,795.3846435546875
1543,799.8168334960938,801.4285888671875,792.1611938476562,801.4285888671875
1544,798.2051391601562,797.8021850585938,787.7289428710938,795.3846435546875
1545,793.7728881835938,800.2197875976562,787.3259887695312,785.3113403320312
1546,790.952392578125,803.8461303710938,790.5494384765625,786.923095703125
1547,792.1611938476562,805.8607788085938,790.952392578125,790.5494384765625
1548,788.5347900390625,805.8607788085938,793.3699340820312,790.1465454101562
1549,790.5494384765625,803.4432373046875,791.3552856445312,793.7728881835938
1550,789.3406372070312,801.4285888671875,787.7289428710938,799.010986328125
1551,792.5640869140625,803.8461303710938,793.7728881835938,802.2344360351562
1552,794.1758422851562,806.2637329101562,794.1758422851562,790.5494384765625
1553,795.7875366210938,801.025634765625,789.7435913085938,785.7142944335938
1554,796.1904907226562,799.4139404296875,788.1318969726562,789.3406372070312
1555,796.996337890625,800.2197875976562,790.952392578125,794.5787353515625
1556,789.3406372070312,799.8168334960938,792.1611938476562,795.3846435546875
1557,784.5054931640625,799.8168334960938,789.7435913085938,793.3699340820312
1558,788.937744140625,798.6080322265625,794.1758422851562,798.2051391601562
1559,788.5347900390625,798.6080322265625,795.7875366210938,797.8021850585938
1560,789.3406372070312,803.040283203125,794.981689453125,797.8021850585938
1561,794.981689453125,805.4578857421875,796.1904907226562,805.054931640625
1562,807.4725341796875,803.4432373046875,798.6080322265625,810.6959838867188
1563,814.3223266601562,807.069580078125,801.8314819335938,807.87548828125
1564,810.6959838867188,813.113525390625,801.025634765625,805.054931640625
1565,807.4725341796875,808.2783813476562,799.010986328125,804.2490844726562
1566,803.4432373046875,806.6666870117188,800.6226806640625,805.054931640625
1567,800.6226806640625,801.8314819335938,799.4139404296875,805.054931640625
1568,804.6520385742188,794.1758422851562,799.010986328125,805.4578857421875
1569,808.6813354492188,797.8021850585938,802.2344360351562,798.6080322265625
1570,806.2637329101562,803.040283203125,805.4578857421875,799.4139404296875
1571,800.6226806640625,804.6520385742188,804.2490844726562,800.6226806640625
1572,796.5933837890625,802.2344360351562,798.6080322265625,795.7875366210938
1573,799.010986328125,801.8314819335938,798.6080322265625,796.5933837890625
1574,799.4139404296875,805.4578857421875,798.6080322265625,795.7875366210938
1575,794.5787353515625,807.87548828125,796.996337890625,792.967041015625
1576,794.5787353515625,811.098876953125,795.7875366210938,796.5933837890625
1577,796.5933837890625,805.4578857421875,792.967041015625,800.6226806640625
1578,798.6080322265625,802.6373901367188,794.5787353515625,807.069580078125
1579,799.010986328125,800.6226806640625,794.981689453125,801.025634765625
1580,793.7728881835938,792.5640869140625,791.7582397460938,787.7289428710938
1581,792.967041015625,795.7875366210938,790.1465454101562,789.7435913085938
1582,788.5347900390625,794.981689453125,791.3552856445312,793.3699340820312
1583,785.7142944335938,793.7728881835938,790.5494384765625,787.7289428710938
