timestamp,RAW_TP9,RAW_AF7,RAW_AF8,RAW_TP10
1,785.3113403320312,795.3846435546875,794.5787353515625,782.087890625
2,765.5677490234375,790.5494384765625,797.8021850585938,788.937744140625
3,765.5677490234375,787.7289428710938,796.996337890625,788.1318969726562
4,768.7911987304688,785.7142944335938,795.3846435546875,784.5054931640625
5,765.1648559570312,785.7142944335938,797.3992919921875,781.6849975585938
6,765.5677490234375,784.1025390625,794.981689453125,775.6410522460938
7,779.2673950195312,781.6849975585938,795.7875366210938,782.893798828125
8,795.3846435546875,784.1025390625,800.6226806640625,802.6373901367188
9,778.8644409179688,789.3406372070312,795.7875366210938,792.967041015625
10,749.4505615234375,794.981689453125,792.1611938476562,770.8058471679688
11,754.2857055664062,799.8168334960938,794.981689453125,772.4176025390625
12,775.6410522460938,795.7875366210938,795.7875366210938,788.1318969726562
13,787.7289428710938,797.8021850585938,795.7875366210938,805.8607788085938
14,791.3552856445312,803.4432373046875,797.8021850585938,808.2783813476562
15,794.5787353515625,796.996337890625,798.6080322265625,804.6520385742188
16,794.981689453125,795.7875366210938,798.2051391601562,795.7875366210938
17,784.908447265625,796.996337890625,792.967041015625,784.5054931640625
18,779.6703491210938,796.1904907226562,795.3846435546875,782.087890625
19,794.981689453125,798.2051391601562,798.6080322265625,787.7289428710938
20,803.040283203125,798.6080322265625,799.4139404296875,796.5933837890625
21,802.2344360351562,794.981689453125,799.8168334960938,799.010986328125
22,794.1758422851562,795.7875366210938,795.3846435546875,792.967041015625
23,782.893798828125,796.5933837890625,792.967041015625,792.1611938476562
24,794.1758422851562,790.952392578125,793.3699340820312,794.981689453125
25,796.996337890625,789.7435913085938,794.981689453125,788.937744140625
26,782.087890625,788.937744140625,795.3846435546875,785.7142944335938
27,781.6849975585938,789.3406372070312,799.010986328125,792.5640869140625
28,790.5494384765625,788.5347900390625,800.2197875976562,794.5787353515625
29,787.3259887695312,782.087890625,798.2051391601562,792.1611938476562
30,777.6557006835938,781.2820434570312,800.6226806640625,788.1318969726562
31,789.3406372070312,785.3113403320312,803.040283203125,784.5054931640625
32,794.5787353515625,786.923095703125,804.6520385742188,790.952392578125
33,782.893798828125,788.937744140625,799.010986328125,794.1758422851562
34,784.5054931640625,788.1318969726562,791.3552856445312,783.6996459960938
35,782.4908447265625,781.2820434570312,788.937744140625,783.6996459960938
36,787.3259887695312,780.0732421875,787.3259887695312,786.1171875
37,794.981689453125,784.908447265625,784.908447265625,780.0732421875
38,791.3552856445312,789.7435913085938,788.5347900390625,784.908447265625
39,780.0732421875,790.5494384765625,798.2051391601562,791.3552856445312
40,775.2380981445312,791.7582397460938,802.2344360351562,790.952392578125
41,774.4322509765625,796.5933837890625,796.996337890625,792.5640869140625
42,768.7911987304688,794.1758422851562,796.996337890625,792.5640869140625
43,766.7765502929688,790.952392578125,801.8314819335938,794.1758422851562
44,782.4908447265625,794.5787353515625,800.2197875976562,801.8314819335938
45,786.923095703125,793.3699340820312,800.2197875976562,795.7875366210938
46,789.7435913085938,792.967041015625,803.4432373046875,792.1611938476562
47,799.8168334960938,790.1465454101562,799.8168334960938,792.1611938476562
48,798.6080322265625,796.1904907226562,798.6080322265625,789.3406372070312
49,807.87548828125,804.2490844726562,801.8314819335938,791.3552856445312
50,814.7252807617188,801.8314819335938,803.4432373046875,799.8168334960938
51,797.3992919921875,798.6080322265625,799.8168334960938,799.4139404296875
52,805.054931640625,797.3992919921875,796.5933837890625,794.981689453125
53,821.1721801757812,796.996337890625,795.7875366210938,791.7582397460938
54,791.3552856445312,796.996337890625,793.3699340820312,787.7289428710938
55,802.6373901367188,792.967041015625,792.967041015625,791.3552856445312
56,814.7252807617188,793.7728881835938,796.5933837890625,789.7435913085938
57,809.084228515625,796.5933837890625,798.6080322265625,788.5347900390625
58,793.3699340820312,795.7875366210938,796.996337890625,794.981689453125
59,770.0,796.996337890625,796.996337890625,795.7875366210938
60,778.4615478515625,797.3992919921875,797.3992919921875,795.3846435546875
61,779.6703491210938,798.2051391601562,797.8021850585938,797.8021850585938
62,766.3735961914062,796.1904907226562,798.2051391601562,793.7728881835938
63,766.7765502929688,786.923095703125,795.7875366210938,784.1025390625
64,781.2820434570312,780.4761962890625,794.1758422851562,787.3259887695312
65,777.2527465820312,782.893798828125,794.981689453125,790.5494384765625
66,773.2234497070312,787.3259887695312,798.6080322265625,787.7289428710938
67,795.3846435546875,790.1465454101562,801.8314819335938,792.1611938476562
68,792.967041015625,789.3406372070312,799.8168334960938,794.1758422851562
69,786.5201416015625,784.1025390625,799.4139404296875,792.5640869140625
70,807.069580078125,787.7289428710938,796.5933837890625,799.4139404296875
71,807.87548828125,791.3552856445312,797.8021850585938,806.2637329101562
72,794.1758422851562,790.5494384765625,800.6226806640625,796.5933837890625
73,786.1171875,791.7582397460938,797.8021850585938,793.7728881835938
74,801.8314819335938,792.5640869140625,799.010986328125,799.010986328125
75,797.8021850585938,790.1465454101562,800.6226806640625,794.5787353515625
76,782.087890625,790.1465454101562,796.996337890625,794.1758422851562
77,831.2454223632812,794.981689453125,797.8021850585938,796.996337890625
78,819.5604248046875,796.5933837890625,797.8021850585938,795.3846435546875
79,786.923095703125,799.4139404296875,798.2051391601562,790.5494384765625
80,792.1611938476562,801.8314819335938,797.8021850585938,782.087890625
81,789.7435913085938,799.010986328125,796.5933837890625,779.2673950195312
82,784.908447265625,797.3992919921875,797.3992919921875,776.4468994140625
83,774.4322509765625,795.3846435546875,800.2197875976562,777.2527465820312
84,786.5201416015625,794.981689453125,800.2197875976562,778.4615478515625
85,782.4908447265625,793.7728881835938,797.8021850585938,780.879150390625
86,773.2234497070312,793.3699340820312,801.4285888671875,784.5054931640625
87,796.996337890625,794.5787353515625,804.2490844726562,779.6703491210938
88,794.5787353515625,794.5787353515625,804.2490844726562,773.2234497070312
89,783.2966918945312,792.967041015625,804.2490844726562,780.879150390625
90,812.7106323242188,793.7728881835938,801.025634765625,779.2673950195312
91,817.5457763671875,791.7582397460938,798.6080322265625,774.029296875
92,806.2637329101562,784.908447265625,800.6226806640625,779.6703491210938
93,802.2344360351562,782.893798828125,799.4139404296875,780.4761962890625
94,796.5933837890625,785.7142944335938,797.8021850585938,781.6849975585938
95,794.981689453125,789.3406372070312,797.3992919921875,788.937744140625
96,782.4908447265625,790.1465454101562,796.5933837890625,790.952392578125
97,786.1171875,788.937744140625,796.996337890625,788.5347900390625
98,785.7142944335938,789.7435913085938,795.3846435546875,787.7289428710938
99,778.05859375,789.7435913085938,795.7875366210938,787.3259887695312
100,787.7289428710938,790.5494384765625,794.981689453125,794.1758422851562
101,784.5054931640625,793.7728881835938,788.937744140625,799.010986328125
102,789.3406372070312,792.1611938476562,791.3552856445312,793.7728881835938
103,815.1282348632812,792.1611938476562,796.5933837890625,788.5347900390625
104,820.3662719726562,796.996337890625,797.8021850585938,795.7875366210938
105,809.084228515625,796.996337890625,802.2344360351562,803.8461303710938
106,800.2197875976562,791.3552856445312,801.4285888671875,795.3846435546875
107,811.90478515625,788.5347900390625,795.7875366210938,794.1758422851562
108,829.2307739257812,792.1611938476562,800.2197875976562,801.4285888671875
109,839.3040161132812,798.2051391601562,801.8314819335938,799.4139404296875
110,842.12451171875,797.8021850585938,803.040283203125,800.2197875976562
111,832.4542236328125,793.3699340820312,805.054931640625,794.981689453125
112,821.97802734375,793.3699340820312,801.025634765625,788.937744140625
113,799.4139404296875,790.952392578125,799.010986328125,784.908447265625
114,804.6520385742188,790.952392578125,796.5933837890625,779.2673950195312
115,809.084228515625,793.7728881835938,796.1904907226562,780.879150390625
116,821.1721801757812,796.996337890625,796.996337890625,783.6996459960938
117,827.2161254882812,799.010986328125,799.8168334960938,782.4908447265625
118,807.069580078125,799.010986328125,797.3992919921875,774.8351440429688
119,808.6813354492188,793.3699340820312,792.967041015625,769.5970458984375
120,807.069580078125,790.1465454101562,793.7728881835938,770.0
121,802.2344360351562,793.7728881835938,794.981689453125,780.0732421875
122,801.025634765625,788.1318969726562,792.5640869140625,779.6703491210938
123,798.2051391601562,782.893798828125,789.7435913085938,774.4322509765625
124,802.2344360351562,788.937744140625,794.1758422851562,778.05859375
125,813.91943359375,792.5640869140625,795.3846435546875,786.1171875
126,828.8278198242188,794.5787353515625,790.952392578125,797.8021850585938
127,846.5567626953125,799.010986328125,794.5787353515625,805.4578857421875
128,839.7069702148438,796.1904907226562,799.010986328125,816.7399291992188
129,819.5604248046875,791.3552856445312,799.4139404296875,815.1282348632812
130,811.098876953125,791.7582397460938,800.6226806640625,814.7252807617188
131,811.90478515625,794.5787353515625,800.2197875976562,816.7399291992188
132,808.6813354492188,794.1758422851562,798.2051391601562,806.6666870117188
133,815.1282348632812,793.7728881835938,799.4139404296875,804.6520385742188
134,812.7106323242188,796.996337890625,798.6080322265625,798.6080322265625
135,794.981689453125,796.996337890625,795.7875366210938,796.5933837890625
136,792.1611938476562,793.7728881835938,790.952392578125,787.7289428710938
137,785.3113403320312,790.952392578125,780.0732421875,773.6264038085938
138,783.6996459960938,792.5640869140625,779.6703491210938,771.2088012695312
139,786.1171875,793.3699340820312,788.5347900390625,772.8204956054688
140,789.3406372070312,792.967041015625,789.3406372070312,774.4322509765625
141,790.952392578125,794.5787353515625,788.5347900390625,772.8204956054688
142,788.937744140625,792.967041015625,789.3406372070312,768.3883056640625
143,784.908447265625,788.937744140625,787.3259887695312,768.3883056640625
144,782.893798828125,789.7435913085938,790.5494384765625,770.8058471679688
145,784.908447265625,790.5494384765625,792.967041015625,774.029296875
146,785.3113403320312,787.7289428710938,788.1318969726562,777.2527465820312
147,781.2820434570312,787.7289428710938,786.5201416015625,779.6703491210938
148,782.893798828125,788.1318969726562,788.1318969726562,786.923095703125
149,793.7728881835938,788.1318969726562,790.1465454101562,786.1171875
150,792.5640869140625,792.5640869140625,793.7728881835938,786.5201416015625
151,782.087890625,796.1904907226562,796.1904907226562,801.025634765625
152,784.1025390625,791.3552856445312,792.5640869140625,798.6080322265625
153,790.5494384765625,786.5201416015625,790.1465454101562,788.937744140625
154,786.1171875,784.5054931640625,792.967041015625,797.8021850585938
155,788.937744140625,786.1171875,796.1904907226562,806.6666870117188
156,791.3552856445312,786.5201416015625,796.996337890625,803.4432373046875
157,789.3406372070312,784.908447265625,795.7875366210938,799.4139404296875
158,797.3992919921875,788.5347900390625,794.981689453125,799.8168334960938
159,800.6226806640625,790.1465454101562,796.1904907226562,799.010986328125
160,797.8021850585938,792.967041015625,795.7875366210938,790.952392578125
161,795.7875366210938,792.5640869140625,792.5640869140625,787.3259887695312
162,793.3699340820312,788.937744140625,792.1611938476562,794.5787353515625
163,790.1465454101562,789.7435913085938,795.3846435546875,802.6373901367188
164,795.3846435546875,791.3552856445312,794.1758422851562,784.908447265625
165,799.8168334960938,795.7875366210938,791.7582397460938,772.4176025390625
166,791.7582397460938,796.1904907226562,787.3259887695312,774.8351440429688
167,782.087890625,790.952392578125,784.1025390625,772.8204956054688
168,791.3552856445312,793.3699340820312,782.893798828125,776.0439453125
169,797.8021850585938,795.3846435546875,784.1025390625,783.6996459960938
170,782.893798828125,794.5787353515625,785.3113403320312,783.6996459960938
171,779.2673950195312,794.1758422851562,785.3113403320312,781.6849975585938
172,783.6996459960938,793.7728881835938,792.1611938476562,782.893798828125
173,785.7142944335938,792.1611938476562,790.5494384765625,788.1318969726562
174,784.1025390625,787.7289428710938,786.1171875,793.7728881835938
175,774.8351440429688,784.908447265625,794.1758422851562,790.5494384765625
176,774.029296875,790.952392578125,796.5933837890625,784.908447265625
177,790.5494384765625,792.967041015625,796.1904907226562,791.3552856445312
178,796.1904907226562,789.3406372070312,796.5933837890625,792.1611938476562
179,793.7728881835938,789.3406372070312,795.7875366210938,795.3846435546875
180,790.952392578125,786.1171875,795.7875366210938,798.6080322265625
181,796.1904907226562,786.5201416015625,794.1758422851562,796.5933837890625
182,804.6520385742188,794.1758422851562,795.3846435546875,796.996337890625
183,806.2637329101562,797.3992919921875,797.8021850585938,784.1025390625
184,808.2783813476562,797.8021850585938,801.025634765625,784.1025390625
185,801.4285888671875,796.1904907226562,797.3992919921875,789.3406372070312
186,808.6813354492188,794.981689453125,788.5347900390625,794.1758422851562
187,797.3992919921875,800.2197875976562,792.1611938476562,792.967041015625
188,776.0439453125,798.2051391601562,802.6373901367188,786.5201416015625
189,779.2673950195312,789.7435913085938,803.4432373046875,780.879150390625
190,781.2820434570312,788.937744140625,801.025634765625,772.0146484375
191,778.05859375,790.952392578125,803.4432373046875,776.4468994140625
192,772.4176025390625,788.937744140625,803.8461303710938,782.893798828125
193,770.0,791.3552856445312,801.8314819335938,782.893798828125
194,780.4761962890625,792.5640869140625,799.8168334960938,791.3552856445312
195,782.4908447265625,790.5494384765625,797.8021850585938,790.1465454101562
196,785.3113403320312,791.3552856445312,796.5933837890625,783.2966918945312
197,800.2197875976562,793.3699340820312,802.6373901367188,798.2051391601562
198,798.2051391601562,789.7435913085938,799.8168334960938,807.4725341796875
199,790.5494384765625,787.3259887695312,788.5347900390625,803.040283203125
200,786.5201416015625,790.5494384765625,785.3113403320312,797.3992919921875
201,779.6703491210938,786.1171875,786.923095703125,792.967041015625
202,785.7142944335938,786.1171875,788.5347900390625,786.923095703125
203,796.996337890625,790.952392578125,787.3259887695312,786.1171875
204,796.5933837890625,788.1318969726562,784.5054931640625,786.923095703125
205,792.967041015625,786.1171875,781.2820434570312,774.8351440429688
206,793.3699340820312,789.7435913085938,785.3113403320312,777.2527465820312
207,796.1904907226562,797.3992919921875,788.1318969726562,780.879150390625
208,793.3699340820312,798.2051391601562,786.923095703125,781.2820434570312
209,789.3406372070312,797.3992919921875,787.3259887695312,785.3113403320312
210,792.1611938476562,798.2051391601562,784.1025390625,783.6996459960938
211,788.1318969726562,790.952392578125,782.893798828125,778.4615478515625
212,779.2673950195312,786.5201416015625,789.3406372070312,786.1171875
213,784.5054931640625,791.7582397460938,793.7728881835938,800.2197875976562
214,790.952392578125,793.3699340820312,793.7728881835938,794.1758422851562
215,787.3259887695312,788.937744140625,792.5640869140625,791.3552856445312
216,777.2527465820312,793.3699340820312,793.3699340820312,790.5494384765625
217,780.0732421875,796.1904907226562,792.967041015625,794.981689453125
218,783.6996459960938,792.1611938476562,790.1465454101562,800.6226806640625
219,778.8644409179688,791.3552856445312,786.5201416015625,794.981689453125
220,774.8351440429688,786.5201416015625,788.1318969726562,788.937744140625
221,776.0439453125,787.3259887695312,791.7582397460938,790.1465454101562
222,784.5054931640625,791.3552856445312,796.5933837890625,800.2197875976562
223,792.5640869140625,786.1171875,796.5933837890625,803.4432373046875
224,792.967041015625,791.3552856445312,793.3699340820312,801.8314819335938
225,793.3699340820312,794.1758422851562,790.952392578125,796.996337890625
226,792.1611938476562,792.967041015625,788.1318969726562,792.1611938476562
227,792.1611938476562,794.5787353515625,787.7289428710938,791.3552856445312
228,798.2051391601562,792.967041015625,783.6996459960938,786.923095703125
229,803.8461303710938,797.3992919921875,780.0732421875,780.4761962890625
230,813.5164794921875,801.025634765625,780.0732421875,778.8644409179688
231,809.4871826171875,801.4285888671875,779.2673950195312,786.1171875
232,796.1904907226562,803.8461303710938,779.2673950195312,790.1465454101562
233,792.1611938476562,805.4578857421875,784.5054931640625,787.3259887695312
234,781.2820434570312,803.4432373046875,788.1318969726562,786.1171875
235,770.4029541015625,798.2051391601562,787.7289428710938,789.3406372070312
236,777.6557006835938,796.1904907226562,788.1318969726562,794.1758422851562
237,777.2527465820312,793.7728881835938,786.5201416015625,797.3992919921875
238,760.7326049804688,793.7728881835938,787.7289428710938,791.3552856445312
239,755.8974609375,795.7875366210938,788.1318969726562,781.6849975585938
240,761.1355590820312,795.3846435546875,788.5347900390625,779.6703491210938
241,758.7179565429688,794.5787353515625,790.1465454101562,780.879150390625
242,763.1502075195312,799.4139404296875,792.967041015625,783.6996459960938
243,766.7765502929688,798.6080322265625,790.1465454101562,780.879150390625
244,769.5970458984375,794.1758422851562,790.952392578125,776.8497924804688
245,779.6703491210938,797.3992919921875,795.7875366210938,785.7142944335938
246,789.7435913085938,798.2051391601562,795.3846435546875,794.981689453125
247,786.923095703125,799.8168334960938,791.7582397460938,799.8168334960938
248,778.8644409179688,800.2197875976562,787.3259887695312,793.7728881835938
249,788.5347900390625,798.6080322265625,787.3259887695312,784.908447265625
250,789.3406372070312,796.996337890625,786.5201416015625,785.3113403320312
251,786.5201416015625,795.3846435546875,786.1171875,785.3113403320312
252,796.5933837890625,800.2197875976562,786.923095703125,785.7142944335938
253,812.3076782226562,801.8314819335938,787.3259887695312,788.5347900390625
254,814.3223266601562,799.8168334960938,786.1171875,797.3992919921875
255,803.8461303710938,799.8168334960938,785.7142944335938,797.8021850585938
256,799.4139404296875,801.4285888671875,783.2966918945312,786.5201416015625
257,789.7435913085938,801.8314819335938,786.1171875,786.5201416015625
258,785.7142944335938,803.040283203125,789.7435913085938,784.5054931640625
259,785.3113403320312,806.6666870117188,792.5640869140625,784.908447265625
260,782.893798828125,807.069580078125,796.5933837890625,784.908447265625
261,784.1025390625,801.8314819335938,794.5787353515625,782.4908447265625
262,784.5054931640625,799.8168334960938,790.952392578125,780.4761962890625
263,784.5054931640625,797.8021850585938,787.3259887695312,775.6410522460938
264,782.893798828125,791.7582397460938,789.3406372070312,776.8497924804688
265,786.923095703125,793.3699340820312,789.7435913085938,780.4761962890625
266,782.087890625,795.3846435546875,790.5494384765625,782.893798828125
267,763.5531005859375,793.7728881835938,792.5640869140625,786.923095703125
268,762.7472534179688,796.5933837890625,792.5640869140625,788.937744140625
269,775.6410522460938,798.6080322265625,790.952392578125,788.5347900390625
270,775.2380981445312,796.5933837890625,790.1465454101562,796.996337890625
271,777.6557006835938,795.3846435546875,792.5640869140625,800.2197875976562
272,784.5054931640625,793.7728881835938,789.3406372070312,783.2966918945312
273,789.7435913085938,794.5787353515625,785.7142944335938,781.6849975585938
274,799.4139404296875,797.3992919921875,790.952392578125,796.5933837890625
275,797.8021850585938,795.3846435546875,805.054931640625,799.010986328125
276,781.2820434570312,794.981689453125,813.5164794921875,789.7435913085938
277,773.6264038085938,792.1611938476562,810.2930297851562,783.2966918945312
278,783.6996459960938,789.7435913085938,808.2783813476562,789.3406372070312
279,797.3992919921875,794.981689453125,811.5018310546875,805.8607788085938
280,805.8607788085938,800.6226806640625,811.5018310546875,816.3369750976562
281,795.3846435546875,799.4139404296875,807.4725341796875,810.6959838867188
282,790.1465454101562,800.2197875976562,803.8461303710938,807.069580078125
283,801.8314819335938,799.010986328125,804.6520385742188,805.054931640625
284,801.4285888671875,790.5494384765625,804.2490844726562,803.040283203125
285,799.4139404296875,787.7289428710938,797.8021850585938,804.6520385742188
286,804.6520385742188,790.5494384765625,788.937744140625,794.1758422851562
287,804.6520385742188,791.7582397460938,788.5347900390625,781.6849975585938
288,801.025634765625,792.5640869140625,795.3846435546875,782.4908447265625
289,799.4139404296875,796.996337890625,797.8021850585938,789.7435913085938
290,803.4432373046875,800.6226806640625,792.1611938476562,793.7728881835938
291,803.040283203125,801.8314819335938,790.952392578125,787.7289428710938
292,788.1318969726562,801.8314819335938,792.1611938476562,782.4908447265625
293,775.6410522460938,794.1758422851562,788.937744140625,784.1025390625
294,788.937744140625,798.2051391601562,791.3552856445312,790.952392578125
295,794.1758422851562,803.040283203125,789.3406372070312,786.5201416015625
296,781.2820434570312,798.6080322265625,785.3113403320312,784.5054931640625
297,784.1025390625,798.6080322265625,788.937744140625,796.5933837890625
298,790.952392578125,799.4139404296875,792.5640869140625,794.981689453125
299,790.952392578125,797.3992919921875,792.967041015625,787.3259887695312
300,788.937744140625,793.3699340820312,791.3552856445312,796.1904907226562
301,782.4908447265625,786.923095703125,792.967041015625,800.6226806640625
302,775.6410522460938,786.1171875,793.3699340820312,794.1758422851562
303,774.029296875,784.908447265625,795.7875366210938,794.1758422851562
304,776.0439453125,784.908447265625,795.7875366210938,796.5933837890625
305,775.6410522460938,784.5054931640625,792.5640869140625,789.7435913085938
306,779.2673950195312,782.087890625,799.010986328125,793.7728881835938
307,783.2966918945312,782.4908447265625,806.6666870117188,796.996337890625
308,781.2820434570312,784.5054931640625,801.025634765625,793.7728881835938
309,786.5201416015625,782.893798828125,798.2051391601562,796.5933837890625
310,790.952392578125,787.3259887695312,796.1904907226562,788.1318969726562
311,788.1318969726562,792.1611938476562,795.3846435546875,784.5054931640625
312,798.6080322265625,789.3406372070312,796.5933837890625,784.908447265625
313,805.4578857421875,788.5347900390625,792.1611938476562,786.1171875
314,797.8021850585938,790.5494384765625,788.5347900390625,786.923095703125
315,796.5933837890625,791.7582397460938,789.3406372070312,781.2820434570312
316,790.1465454101562,794.5787353515625,793.3699340820312,784.908447265625
317,785.3113403320312,796.1904907226562,791.3552856445312,788.1318969726562
318,791.7582397460938,795.3846435546875,783.2966918945312,781.6849975585938
319,788.5347900390625,796.5933837890625,784.5054931640625,782.087890625
320,781.2820434570312,799.010986328125,786.923095703125,789.7435913085938
321,776.8497924804688,796.5933837890625,786.923095703125,791.3552856445312
322,780.879150390625,790.952392578125,790.1465454101562,787.7289428710938
323,784.908447265625,784.1025390625,790.5494384765625,786.5201416015625
324,774.8351440429688,784.908447265625,789.7435913085938,784.908447265625
325,774.029296875,792.5640869140625,789.3406372070312,782.087890625
326,778.8644409179688,794.1758422851562,792.1611938476562,783.2966918945312
327,788.5347900390625,794.1758422851562,793.3699340820312,794.1758422851562
328,791.7582397460938,794.1758422851562,793.3699340820312,794.981689453125
329,786.1171875,794.981689453125,790.5494384765625,782.893798828125
330,788.5347900390625,801.025634765625,788.5347900390625,776.4468994140625
331,796.1904907226562,799.4139404296875,790.1465454101562,789.3406372070312
332,784.5054931640625,798.2051391601562,790.1465454101562,793.7728881835938
333,777.2527465820312,799.8168334960938,788.1318969726562,781.2820434570312
334,782.893798828125,796.5933837890625,786.5201416015625,778.4615478515625
335,792.1611938476562,794.1758422851562,790.1465454101562,781.2820434570312
336,804.6520385742188,792.5640869140625,794.5787353515625,785.3113403320312
337,807.87548828125,792.967041015625,797.3992919921875,786.1171875
338,803.8461303710938,792.1611938476562,794.5787353515625,785.7142944335938
339,790.1465454101562,790.5494384765625,791.3552856445312,786.1171875
340,787.3259887695312,791.7582397460938,796.1904907226562,782.893798828125
341,794.1758422851562,797.3992919921875,799.8168334960938,790.5494384765625
342,788.937744140625,796.5933837890625,799.8168334960938,792.967041015625
343,780.879150390625,796.1904907226562,799.8168334960938,795.3846435546875
344,778.8644409179688,795.7875366210938,802.2344360351562,796.5933837890625
345,783.2966918945312,790.1465454101562,803.040283203125,791.3552856445312
346,786.5201416015625,792.1611938476562,801.4285888671875,796.1904907226562
347,798.6080322265625,791.7582397460938,799.4139404296875,795.3846435546875
348,801.4285888671875,791.3552856445312,803.8461303710938,794.5787353515625
349,773.6264038085938,790.5494384765625,807.4725341796875,786.1171875
350,766.3735961914062,786.923095703125,803.4432373046875,781.6849975585938
351,770.0,791.3552856445312,803.040283203125,784.908447265625
352,769.1941528320312,792.1611938476562,801.025634765625,782.4908447265625
353,784.908447265625,787.7289428710938,797.3992919921875,784.1025390625
354,781.6849975585938,787.7289428710938,795.7875366210938,788.937744140625
355,773.2234497070312,792.1611938476562,793.3699340820312,787.3259887695312
356,769.5970458984375,793.7728881835938,792.967041015625,776.8497924804688
357,766.7765502929688,792.967041015625,794.5787353515625,779.2673950195312
358,780.879150390625,794.981689453125,795.3846435546875,785.3113403320312
359,780.879150390625,792.967041015625,794.981689453125,783.2966918945312
360,768.3883056640625,794.1758422851562,794.5787353515625,784.5054931640625
361,768.3883056640625,794.5787353515625,792.1611938476562,786.5201416015625
362,782.087890625,794.1758422851562,792.5640869140625,792.967041015625
363,786.5201416015625,796.1904907226562,791.7582397460938,788.1318969726562
364,786.1171875,791.3552856445312,794.1758422851562,782.4908447265625
365,794.5787353515625,791.3552856445312,793.3699340820312,787.7289428710938
366,797.3992919921875,792.5640869140625,793.3699340820312,795.7875366210938
367,795.7875366210938,793.3699340820312,792.5640869140625,797.8021850585938
368,800.6226806640625,795.7875366210938,789.7435913085938,794.981689453125
369,797.3992919921875,793.7728881835938,796.996337890625,792.5640869140625
370,785.3113403320312,792.5640869140625,800.2197875976562,790.952392578125
371,788.937744140625,791.3552856445312,797.8021850585938,790.952392578125
372,786.923095703125,788.5347900390625,799.4139404296875,788.5347900390625
373,781.2820434570312,786.5201416015625,801.8314819335938,788.1318969726562
374,778.8644409179688,786.5201416015625,801.025634765625,793.3699340820312
375,769.5970458984375,788.1318969726562,799.4139404296875,788.937744140625
376,768.3883056640625,793.3699340820312,799.8168334960938,792.5640869140625
377,775.6410522460938,794.1758422851562,799.010986328125,798.6080322265625
378,783.6996459960938,792.967041015625,797.8021850585938,792.967041015625
379,782.087890625,794.5787353515625,796.996337890625,791.7582397460938
380,766.7765502929688,791.3552856445312,794.981689453125,790.5494384765625
381,769.1941528320312,791.3552856445312,796.5933837890625,795.3846435546875
382,790.952392578125,800.6226806640625,797.8021850585938,799.8168334960938
383,798.6080322265625,801.4285888671875,798.2051391601562,795.3846435546875
384,796.1904907226562,794.981689453125,796.5933837890625,787.7289428710938
385,795.3846435546875,796.1904907226562,795.7875366210938,783.6996459960938
386,794.5787353515625,795.7875366210938,797.8021850585938,789.3406372070312
387,798.6080322265625,794.5787353515625,795.3846435546875,795.7875366210938
388,800.6226806640625,792.967041015625,792.967041015625,796.5933837890625
389,794.981689453125,790.952392578125,794.981689453125,789.7435913085938
390,798.2051391601562,791.3552856445312,794.5787353515625,786.5201416015625
391,801.8314819335938,789.7435913085938,790.5494384765625,778.4615478515625
392,792.1611938476562,791.3552856445312,792.5640869140625,776.8497924804688
393,788.1318969726562,792.967041015625,793.3699340820312,783.6996459960938
394,787.7289428710938,789.3406372070312,791.7582397460938,780.879150390625
395,776.4468994140625,786.923095703125,789.3406372070312,774.4322509765625
396,770.8058471679688,786.1171875,785.7142944335938,775.2380981445312
397,776.0439453125,790.5494384765625,790.1465454101562,783.6996459960938
398,773.6264038085938,795.3846435546875,794.5787353515625,785.3113403320312
399,773.6264038085938,794.5787353515625,795.3846435546875,784.5054931640625
400,774.4322509765625,792.967041015625,798.6080322265625,785.7142944335938
401,770.4029541015625,789.3406372070312,796.996337890625,788.937744140625
402,771.6116943359375,787.3259887695312,794.1758422851562,795.3846435546875
403,780.879150390625,786.1171875,794.981689453125,805.8607788085938
404,782.893798828125,784.5054931640625,793.3699340820312,810.6959838867188
405,784.908447265625,788.5347900390625,792.5640869140625,807.4725341796875
406,780.0732421875,793.7728881835938,793.3699340820312,802.2344360351562
407,772.8204956054688,790.5494384765625,794.1758422851562,808.2783813476562
408,781.2820434570312,788.937744140625,793.7728881835938,809.89013671875
409,786.1171875,793.7728881835938,787.7289428710938,797.3992919921875
410,782.4908447265625,795.7875366210938,787.7289428710938,792.1611938476562
411,787.3259887695312,795.7875366210938,790.5494384765625,791.3552856445312
412,791.7582397460938,797.8021850585938,791.7582397460938,790.1465454101562
413,792.967041015625,798.6080322265625,792.967041015625,792.967041015625
414,794.1758422851562,800.2197875976562,795.3846435546875,790.5494384765625
415,788.1318969726562,803.040283203125,796.996337890625,781.2820434570312
416,787.3259887695312,803.040283203125,798.2051391601562,789.7435913085938
417,784.1025390625,803.040283203125,794.981689453125,787.3259887695312
418,788.937744140625,801.8314819335938,791.3552856445312,780.879150390625
419,787.7289428710938,796.1904907226562,790.952392578125,780.4761962890625
420,778.8644409179688,795.7875366210938,795.7875366210938,780.0732421875
421,770.4029541015625,800.6226806640625,797.3992919921875,776.0439453125
422,772.0146484375,796.5933837890625,799.010986328125,770.0
423,787.3259887695312,794.5787353515625,802.6373901367188,781.6849975585938
424,786.1171875,793.7728881835938,800.2197875976562,782.893798828125
425,774.8351440429688,791.7582397460938,798.2051391601562,776.8497924804688
426,770.4029541015625,790.1465454101562,796.996337890625,776.8497924804688
427,774.4322509765625,788.1318969726562,799.4139404296875,782.087890625
428,775.6410522460938,790.1465454101562,802.2344360351562,795.3846435546875
429,764.7619018554688,794.1758422851562,803.4432373046875,790.5494384765625
430,769.1941528320312,791.7582397460938,800.2197875976562,783.6996459960938
431,774.4322509765625,790.5494384765625,797.8021850585938,780.879150390625
432,772.8204956054688,795.7875366210938,797.8021850585938,781.6849975585938
433,777.6557006835938,798.6080322265625,794.5787353515625,784.5054931640625
434,778.4615478515625,794.981689453125,792.1611938476562,787.7289428710938
435,781.2820434570312,791.3552856445312,789.3406372070312,792.967041015625
436,784.908447265625,794.1758422851562,787.3259887695312,788.1318969726562
437,784.908447265625,796.5933837890625,793.3699340820312,792.967041015625
438,786.923095703125,791.7582397460938,795.3846435546875,793.3699340820312
439,792.967041015625,793.3699340820312,790.1465454101562,794.981689453125
440,792.1611938476562,794.981689453125,788.937744140625,802.6373901367188
441,790.1465454101562,792.1611938476562,790.1465454101562,793.3699340820312
442,785.7142944335938,788.1318969726562,788.937744140625,790.952392578125
443,779.6703491210938,784.1025390625,785.3113403320312,786.923095703125
444,783.6996459960938,786.923095703125,789.7435913085938,788.937744140625
445,784.1025390625,786.923095703125,798.2051391601562,798.2051391601562
446,779.2673950195312,785.3113403320312,801.025634765625,794.1758422851562
447,780.4761962890625,786.1171875,802.6373901367188,790.5494384765625
448,780.0732421875,791.7582397460938,803.8461303710938,794.981689453125
449,780.879150390625,794.5787353515625,807.4725341796875,796.1904907226562
450,784.1025390625,791.7582397460938,805.054931640625,798.2051391601562
451,780.0732421875,789.7435913085938,802.2344360351562,798.6080322265625
452,778.8644409179688,791.7582397460938,804.2490844726562,787.3259887695312
453,789.3406372070312,792.1611938476562,799.8168334960938,783.2966918945312
454,790.5494384765625,793.7728881835938,797.3992919921875,792.1611938476562
455,782.893798828125,793.7728881835938,801.4285888671875,797.3992919921875
456,783.6996459960938,786.5201416015625,799.010986328125,789.3406372070312
457,790.5494384765625,784.5054931640625,794.1758422851562,782.087890625
458,790.952392578125,787.7289428710938,791.3552856445312,785.3113403320312
459,788.937744140625,790.952392578125,787.3259887695312,788.5347900390625
460,798.2051391601562,794.1758422851562,783.6996459960938,792.1611938476562
461,792.1611938476562,796.996337890625,786.1171875,788.1318969726562
462,787.3259887695312,794.981689453125,788.937744140625,792.1611938476562
463,801.025634765625,794.1758422851562,788.5347900390625,793.3699340820312
464,805.4578857421875,795.3846435546875,784.5054931640625,786.923095703125
465,804.2490844726562,799.4139404296875,788.5347900390625,793.7728881835938
466,809.89013671875,801.025634765625,795.7875366210938,801.4285888671875
467,804.6520385742188,798.2051391601562,796.1904907226562,799.010986328125
468,793.7728881835938,795.3846435546875,795.7875366210938,794.981689453125
469,799.4139404296875,796.5933837890625,795.3846435546875,803.4432373046875
470,802.2344360351562,796.5933837890625,796.1904907226562,808.2783813476562
471,792.967041015625,799.010986328125,799.010986328125,801.8314819335938
472,789.3406372070312,803.8461303710938,800.6226806640625,788.1318969726562
473,791.7582397460938,798.6080322265625,799.4139404296875,784.5054931640625
474,785.7142944335938,792.967041015625,795.3846435546875,786.5201416015625
475,783.2966918945312,796.996337890625,794.1758422851562,791.3552856445312
476,784.1025390625,799.8168334960938,798.6080322265625,793.3699340820312
477,774.4322509765625,796.1904907226562,795.3846435546875,780.4761962890625
478,773.2234497070312,795.3846435546875,791.3552856445312,778.8644409179688
479,774.4322509765625,795.3846435546875,795.3846435546875,787.7289428710938
480,766.3735961914062,797.3992919921875,796.996337890625,794.1758422851562
481,772.4176025390625,798.2051391601562,794.5787353515625,792.5640869140625
482,779.2673950195312,796.1904907226562,792.5640869140625,792.967041015625
483,784.5054931640625,798.6080322265625,794.5787353515625,792.5640869140625
484,794.981689453125,800.2197875976562,792.967041015625,794.981689453125
485,799.010986328125,795.7875366210938,792.967041015625,799.8168334960938
486,795.3846435546875,792.967041015625,795.3846435546875,796.5933837890625
487,792.5640869140625,790.952392578125,793.7728881835938,796.996337890625
488,794.981689453125,785.7142944335938,792.5640869140625,795.3846435546875
489,800.6226806640625,785.3113403320312,796.1904907226562,802.2344360351562
490,803.4432373046875,788.937744140625,798.2051391601562,808.2783813476562
491,810.6959838867188,787.3259887695312,794.981689453125,803.4432373046875
492,807.4725341796875,787.3259887695312,795.3846435546875,805.4578857421875
493,797.8021850585938,789.3406372070312,796.5933837890625,808.2783813476562
494,792.967041015625,790.1465454101562,795.7875366210938,809.89013671875
495,794.981689453125,788.5347900390625,792.967041015625,801.8314819335938
496,801.025634765625,786.5201416015625,795.3846435546875,800.6226806640625
497,797.8021850585938,786.923095703125,799.8168334960938,803.8461303710938
498,797.8021850585938,786.1171875,800.2197875976562,798.2051391601562
499,802.6373901367188,787.7289428710938,802.6373901367188,799.4139404296875
500,799.010986328125,785.3113403320312,798.2051391601562,795.3846435546875
501,799.4139404296875,787.3259887695312,794.981689453125,792.1611938476562
502,796.5933837890625,791.3552856445312,797.8021850585938,788.937744140625
503,780.879150390625,787.3259887695312,797.3992919921875,782.4908447265625
504,772.4176025390625,788.5347900390625,800.6226806640625,783.2966918945312
505,769.1941528320312,794.1758422851562,800.6226806640625,782.893798828125
506,772.8204956054688,794.981689453125,796.5933837890625,780.879150390625
507,779.6703491210938,794.981689453125,794.981689453125,785.7142944335938
508,774.4322509765625,796.996337890625,791.3552856445312,784.5054931640625
509,769.5970458984375,794.5787353515625,793.3699340820312,778.05859375
510,774.8351440429688,794.981689453125,796.996337890625,781.2820434570312
511,784.1025390625,797.8021850585938,793.7728881835938,786.1171875
512,791.7582397460938,801.025634765625,791.3552856445312,786.1171875
513,797.8021850585938,804.6520385742188,794.1758422851562,784.908447265625
514,794.981689453125,803.4432373046875,792.5640869140625,782.893798828125
515,784.908447265625,799.4139404296875,793.3699340820312,782.087890625
516,790.952392578125,800.6226806640625,796.1904907226562,784.908447265625
517,796.1904907226562,801.8314819335938,797.3992919921875,783.6996459960938
518,797.3992919921875,796.5933837890625,800.2197875976562,781.2820434570312
519,801.025634765625,791.3552856445312,800.2197875976562,783.2966918945312
520,804.2490844726562,796.5933837890625,797.3992919921875,790.5494384765625
521,809.084228515625,797.8021850585938,797.3992919921875,794.5787353515625
522,811.098876953125,794.1758422851562,796.5933837890625,788.5347900390625
523,809.084228515625,793.3699340820312,799.4139404296875,783.6996459960938
524,802.6373901367188,795.3846435546875,800.6226806640625,785.3113403320312
525,802.6373901367188,796.5933837890625,799.8168334960938,788.5347900390625
526,803.040283203125,793.3699340820312,801.025634765625,793.3699340820312
527,792.5640869140625,790.1465454101562,795.7875366210938,798.2051391601562
528,790.952392578125,788.5347900390625,796.996337890625,792.967041015625
529,798.6080322265625,791.3552856445312,800.6226806640625,785.7142944335938
530,792.967041015625,792.5640869140625,799.8168334960938,793.3699340820312
531,785.3113403320312,791.7582397460938,802.2344360351562,792.5640869140625
532,790.5494384765625,793.7728881835938,803.4432373046875,792.1611938476562
533,790.952392578125,794.1758422851562,802.2344360351562,793.7728881835938
534,790.952392578125,792.5640869140625,799.8168334960938,786.1171875
535,795.3846435546875,792.5640869140625,797.8021850585938,792.1611938476562
536,800.2197875976562,796.5933837890625,799.8168334960938,801.4285888671875
537,795.7875366210938,796.996337890625,796.1904907226562,796.1904907226562
538,785.7142944335938,794.981689453125,798.6080322265625,794.5787353515625
539,787.7289428710938,795.3846435546875,801.025634765625,794.5787353515625
540,804.6520385742188,795.7875366210938,797.3992919921875,793.3699340820312
541,801.025634765625,793.3699340820312,798.6080322265625,792.5640869140625
542,793.3699340820312,795.7875366210938,800.2197875976562,793.3699340820312
543,792.1611938476562,799.010986328125,801.8314819335938,799.4139404296875
544,783.6996459960938,800.6226806640625,805.054931640625,801.8314819335938
545,792.1611938476562,802.6373901367188,803.8461303710938,799.4139404296875
546,803.040283203125,800.2197875976562,800.2197875976562,803.040283203125
547,788.937744140625,795.3846435546875,798.6080322265625,799.010986328125
548,785.3113403320312,794.1758422851562,795.7875366210938,791.3552856445312
549,788.937744140625,795.7875366210938,791.7582397460938,780.879150390625
550,788.937744140625,797.8021850585938,795.7875366210938,780.4761962890625
551,788.937744140625,799.8168334960938,798.6080322265625,790.952392578125
552,782.4908447265625,797.8021850585938,798.2051391601562,787.3259887695312
553,786.1171875,795.7875366210938,799.8168334960938,784.908447265625
554,790.5494384765625,794.981689453125,802.6373901367188,787.3259887695312
555,790.952392578125,797.8021850585938,806.6666870117188,792.967041015625
556,798.6080322265625,795.3846435546875,800.6226806640625,795.3846435546875
557,802.6373901367188,792.5640869140625,792.1611938476562,792.967041015625
558,796.5933837890625,788.5347900390625,790.1465454101562,796.1904907226562
559,788.937744140625,788.1318969726562,788.5347900390625,795.3846435546875
560,784.1025390625,787.3259887695312,788.937744140625,786.5201416015625
561,790.5494384765625,787.3259887695312,790.1465454101562,787.7289428710938
562,796.996337890625,786.923095703125,792.5640869140625,792.967041015625
563,788.5347900390625,784.1025390625,791.3552856445312,792.1611938476562
564,782.4908447265625,787.7289428710938,788.5347900390625,786.1171875
565,778.8644409179688,785.3113403320312,789.3406372070312,788.5347900390625
566,772.8204956054688,779.2673950195312,788.5347900390625,791.3552856445312
567,773.2234497070312,779.2673950195312,791.3552856445312,784.908447265625
568,784.908447265625,784.908447265625,791.7582397460938,787.3259887695312
569,792.1611938476562,784.5054931640625,789.7435913085938,788.937744140625
570,782.4908447265625,781.6849975585938,788.937744140625,786.5201416015625
571,784.1025390625,786.5201416015625,790.1465454101562,783.6996459960938
572,788.1318969726562,789.7435913085938,792.5640869140625,784.908447265625
573,791.3552856445312,787.7289428710938,788.5347900390625,785.3113403320312
574,789.3406372070312,784.5054931640625,786.923095703125,778.8644409179688
575,777.6557006835938,787.3259887695312,785.3113403320312,772.0146484375
576,777.6557006835938,790.952392578125,785.7142944335938,776.0439453125
577,779.6703491210938,787.3259887695312,790.952392578125,782.4908447265625
578,778.05859375,786.5201416015625,789.7435913085938,780.0732421875
579,781.2820434570312,784.5054931640625,790.1465454101562,781.2820434570312
580,779.2673950195312,784.1025390625,792.967041015625,780.879150390625
581,772.4176025390625,782.087890625,792.5640869140625,786.5201416015625
582,780.4761962890625,784.1025390625,797.3992919921875,797.8021850585938
583,786.923095703125,790.1465454101562,799.4139404296875,795.3846435546875
584,786.5201416015625,787.7289428710938,797.3992919921875,790.5494384765625
585,794.981689453125,790.5494384765625,801.025634765625,785.3113403320312
586,799.4139404296875,790.1465454101562,805.4578857421875,778.8644409179688
587,784.908447265625,786.1171875,802.2344360351562,781.6849975585938
588,782.4908447265625,786.923095703125,802.6373901367188,782.087890625
589,788.937744140625,785.3113403320312,797.8021850585938,782.4908447265625
590,792.967041015625,785.7142944335938,793.3699340820312,790.952392578125
591,790.952392578125,786.923095703125,795.3846435546875,787.7289428710938
592,788.1318969726562,792.1611938476562,800.6226806640625,785.7142944335938
593,792.967041015625,796.1904907226562,804.2490844726562,790.5494384765625
594,793.7728881835938,792.1611938476562,799.8168334960938,789.3406372070312
595,798.2051391601562,786.923095703125,799.010986328125,784.5054931640625
596,796.996337890625,786.5201416015625,802.6373901367188,783.6996459960938
597,792.1611938476562,794.981689453125,807.069580078125,791.3552856445312
598,794.5787353515625,797.3992919921875,808.2783813476562,792.5640869140625
599,801.4285888671875,794.5787353515625,805.054931640625,790.1465454101562
600,801.025634765625,788.937744140625,806.2637329101562,794.5787353515625
601,794.1758422851562,784.908447265625,809.4871826171875,796.1904907226562
602,774.8351440429688,785.7142944335938,807.069580078125,787.7289428710938
603,769.1941528320312,788.5347900390625,804.2490844726562,788.1318969726562
604,784.908447265625,792.5640869140625,805.8607788085938,792.5640869140625
605,788.5347900390625,791.3552856445312,804.2490844726562,791.3552856445312
606,777.2527465820312,788.1318969726562,803.040283203125,792.967041015625
607,779.2673950195312,788.937744140625,801.8314819335938,792.1611938476562
608,779.6703491210938,790.1465454101562,796.1904907226562,784.908447265625
609,780.0732421875,792.5640869140625,794.981689453125,784.1025390625
610,793.7728881835938,794.981689453125,801.4285888671875,788.1318969726562
611,796.996337890625,796.5933837890625,802.2344360351562,785.3113403320312
612,784.1025390625,792.5640869140625,801.025634765625,785.7142944335938
613,780.879150390625,789.7435913085938,802.6373901367188,792.5640869140625
614,785.3113403320312,792.1611938476562,805.054931640625,791.3552856445312
615,798.6080322265625,790.952392578125,802.6373901367188,785.3113403320312
616,798.6080322265625,788.937744140625,799.010986328125,782.893798828125
617,779.2673950195312,786.923095703125,801.025634765625,784.1025390625
618,779.6703491210938,790.952392578125,799.8168334960938,778.8644409179688
619,787.3259887695312,789.3406372070312,797.8021850585938,778.4615478515625
620,789.3406372070312,781.6849975585938,797.3992919921875,789.3406372070312
621,792.967041015625,789.3406372070312,796.1904907226562,792.967041015625
622,788.937744140625,797.3992919921875,796.1904907226562,784.5054931640625
623,785.3113403320312,796.5933837890625,797.8021850585938,783.2966918945312
624,784.5054931640625,796.996337890625,797.8021850585938,784.908447265625
625,781.6849975585938,797.8021850585938,794.5787353515625,794.981689453125
626,783.2966918945312,798.2051391601562,792.967041015625,799.010986328125
627,785.3113403320312,796.996337890625,789.3406372070312,784.908447265625
628,783.6996459960938,793.3699340820312,794.5787353515625,790.1465454101562
629,776.4468994140625,791.7582397460938,797.8021850585938,789.7435913085938
630,782.4908447265625,797.3992919921875,796.1904907226562,788.5347900390625
631,788.937744140625,796.1904907226562,800.2197875976562,795.7875366210938
632,786.1171875,791.3552856445312,799.010986328125,793.3699340820312
633,788.5347900390625,792.5640869140625,797.3992919921875,789.3406372070312
634,794.1758422851562,793.3699340820312,796.996337890625,787.7289428710938
635,797.3992919921875,797.3992919921875,792.967041015625,792.967041015625
636,791.7582397460938,796.5933837890625,793.7728881835938,796.1904907226562
637,796.1904907226562,795.7875366210938,792.967041015625,793.3699340820312
638,797.8021850585938,794.1758422851562,790.1465454101562,793.3699340820312
639,795.7875366210938,794.5787353515625,792.1611938476562,793.7728881835938
640,802.2344360351562,795.3846435546875,792.1611938476562,795.3846435546875
641,793.3699340820312,796.1904907226562,788.937744140625,792.5640869140625
642,779.2673950195312,793.3699340820312,790.5494384765625,791.7582397460938
643,782.087890625,790.5494384765625,792.5640869140625,790.952392578125
644,786.1171875,793.7728881835938,792.1611938476562,784.5054931640625
645,786.1171875,792.1611938476562,794.5787353515625,782.893798828125
646,789.3406372070312,791.7582397460938,792.5640869140625,785.3113403320312
647,787.7289428710938,789.3406372070312,790.1465454101562,786.923095703125
648,792.967041015625,788.937744140625,791.7582397460938,787.3259887695312
649,802.2344360351562,788.5347900390625,792.1611938476562,779.2673950195312
650,799.8168334960938,793.7728881835938,792.5640869140625,783.6996459960938
651,776.8497924804688,797.3992919921875,794.5787353515625,799.4139404296875
652,769.5970458984375,797.8021850585938,799.4139404296875,800.2197875976562
653,778.4615478515625,794.981689453125,798.2051391601562,793.3699340820312
654,780.879150390625,790.952392578125,792.967041015625,797.8021850585938
655,787.7289428710938,789.3406372070312,788.937744140625,796.1904907226562
656,790.5494384765625,786.5201416015625,790.5494384765625,790.5494384765625
657,784.5054931640625,787.3259887695312,792.1611938476562,794.1758422851562
658,783.2966918945312,787.3259887695312,794.981689453125,796.5933837890625
659,787.7289428710938,785.7142944335938,793.7728881835938,792.5640869140625
660,789.7435913085938,784.1025390625,791.3552856445312,788.5347900390625
661,794.5787353515625,787.3259887695312,795.3846435546875,795.3846435546875
662,792.967041015625,789.3406372070312,796.5933837890625,801.4285888671875
663,792.1611938476562,783.2966918945312,796.996337890625,803.040283203125
664,788.5347900390625,786.5201416015625,795.7875366210938,799.8168334960938
665,785.3113403320312,787.3259887695312,794.5787353515625,790.952392578125
666,792.1611938476562,782.087890625,797.8021850585938,790.5494384765625
667,787.3259887695312,783.6996459960938,797.3992919921875,793.3699340820312
668,787.3259887695312,782.087890625,797.8021850585938,791.3552856445312
669,798.6080322265625,784.5054931640625,796.1904907226562,785.3113403320312
670,797.3992919921875,785.7142944335938,788.937744140625,785.7142944335938
671,785.7142944335938,786.5201416015625,789.7435913085938,787.3259887695312
672,782.087890625,789.3406372070312,793.7728881835938,788.5347900390625
673,789.3406372070312,787.3259887695312,792.5640869140625,788.1318969726562
674,791.7582397460938,788.937744140625,794.5787353515625,790.5494384765625
675,784.908447265625,790.1465454101562,794.1758422851562,793.7728881835938
676,782.893798828125,791.3552856445312,795.3846435546875,788.937744140625
677,791.7582397460938,795.3846435546875,796.996337890625,796.1904907226562
678,793.3699340820312,796.996337890625,796.5933837890625,801.4285888671875
679,790.952392578125,799.8168334960938,797.3992919921875,792.1611938476562
680,792.5640869140625,796.996337890625,799.8168334960938,786.5201416015625
681,794.981689453125,791.7582397460938,803.040283203125,788.1318969726562
682,788.937744140625,792.967041015625,802.2344360351562,787.7289428710938
683,787.7289428710938,794.5787353515625,800.6226806640625,790.952392578125
684,782.893798828125,794.1758422851562,802.6373901367188,790.1465454101562
685,779.6703491210938,793.3699340820312,805.4578857421875,789.7435913085938
686,786.923095703125,792.5640869140625,804.2490844726562,786.5201416015625
687,790.1465454101562,787.7289428710938,799.4139404296875,781.2820434570312
688,787.7289428710938,784.1025390625,798.6080322265625,784.1025390625
689,784.5054931640625,788.1318969726562,796.996337890625,790.1465454101562
690,782.087890625,792.5640869140625,792.5640869140625,792.967041015625
691,789.3406372070312,799.010986328125,796.996337890625,790.952392578125
692,802.2344360351562,800.6226806640625,800.6226806640625,786.1171875
693,800.2197875976562,797.8021850585938,797.8021850585938,783.6996459960938
694,786.5201416015625,798.2051391601562,800.6226806640625,786.1171875
695,789.7435913085938,799.010986328125,803.4432373046875,788.1318969726562
696,799.4139404296875,799.010986328125,805.8607788085938,791.7582397460938
697,805.054931640625,798.2051391601562,805.4578857421875,788.937744140625
698,804.2490844726562,791.7582397460938,801.025634765625,790.1465454101562
699,780.4761962890625,788.937744140625,796.1904907226562,796.1904907226562
700,772.0146484375,791.7582397460938,792.5640869140625,790.952392578125
701,780.879150390625,790.5494384765625,794.5787353515625,794.981689453125
702,788.1318969726562,794.1758422851562,792.1611938476562,798.6080322265625
703,784.5054931640625,794.5787353515625,792.5640869140625,788.937744140625
704,774.8351440429688,792.1611938476562,796.5933837890625,787.7289428710938
705,770.8058471679688,793.7728881835938,792.1611938476562,790.952392578125
706,775.2380981445312,795.3846435546875,792.5640869140625,785.7142944335938
707,783.6996459960938,794.981689453125,796.1904907226562,783.2966918945312
708,788.1318969726562,791.3552856445312,794.5787353515625,784.1025390625
709,789.3406372070312,788.937744140625,785.7142944335938,783.2966918945312
710,784.5054931640625,792.967041015625,788.937744140625,784.908447265625
711,789.7435913085938,792.967041015625,795.7875366210938,778.4615478515625
712,789.7435913085938,792.1611938476562,794.1758422851562,780.4761962890625
713,776.0439453125,796.5933837890625,793.7728881835938,791.3552856445312
714,776.4468994140625,796.1904907226562,793.7728881835938,784.908447265625
715,786.5201416015625,795.7875366210938,798.2051391601562,778.05859375
716,793.3699340820312,794.5787353515625,800.2197875976562,781.6849975585938
717,797.8021850585938,792.1611938476562,796.996337890625,785.3113403320312
718,799.4139404296875,792.1611938476562,798.6080322265625,787.7289428710938
719,798.2051391601562,793.7728881835938,797.3992919921875,792.1611938476562
720,786.923095703125,792.967041015625,793.7728881835938,787.3259887695312
721,780.4761962890625,790.1465454101562,797.3992919921875,779.2673950195312
722,786.923095703125,788.937744140625,797.3992919921875,784.1025390625
723,787.3259887695312,784.908447265625,796.1904907226562,788.937744140625
724,786.5201416015625,786.1171875,795.3846435546875,793.3699340820312
725,788.1318969726562,791.3552856445312,795.7875366210938,791.3552856445312
726,789.7435913085938,788.5347900390625,799.4139404296875,784.1025390625
727,792.1611938476562,789.3406372070312,801.4285888671875,791.7582397460938
728,791.3552856445312,793.7728881835938,799.8168334960938,788.1318969726562
729,788.5347900390625,791.3552856445312,799.4139404296875,780.4761962890625
730,782.893798828125,792.5640869140625,799.010986328125,781.2820434570312
731,779.2673950195312,792.967041015625,799.010986328125,786.1171875
732,781.6849975585938,792.5640869140625,797.8021850585938,791.7582397460938
733,786.923095703125,794.981689453125,797.3992919921875,785.7142944335938
734,804.2490844726562,797.3992919921875,798.2051391601562,788.5347900390625
735,819.5604248046875,796.5933837890625,795.7875366210938,789.7435913085938
736,792.5640869140625,792.967041015625,794.981689453125,790.952392578125
737,773.2234497070312,797.3992919921875,796.5933837890625,791.7582397460938
738,784.1025390625,796.1904907226562,796.5933837890625,790.5494384765625
739,789.7435913085938,793.7728881835938,797.3992919921875,792.1611938476562
740,786.5201416015625,796.996337890625,792.1611938476562,789.3406372070312
741,785.7142944335938,792.5640869140625,786.1171875,783.2966918945312
742,783.2966918945312,787.3259887695312,787.7289428710938,781.2820434570312
743,780.0732421875,791.3552856445312,794.981689453125,788.1318969726562
744,787.3259887695312,792.1611938476562,797.3992919921875,793.3699340820312
745,789.7435913085938,792.1611938476562,795.3846435546875,790.5494384765625
746,783.2966918945312,793.3699340820312,796.1904907226562,793.3699340820312
747,780.0732421875,790.1465454101562,794.5787353515625,794.5787353515625
748,780.879150390625,788.1318969726562,790.952392578125,788.937744140625
749,785.3113403320312,790.5494384765625,790.952392578125,791.3552856445312
750,790.952392578125,797.8021850585938,792.5640869140625,799.4139404296875
751,782.4908447265625,795.7875366210938,792.967041015625,805.4578857421875
752,777.2527465820312,790.952392578125,796.996337890625,801.4285888671875
753,782.4908447265625,789.3406372070312,799.010986328125,795.7875366210938
754,784.908447265625,786.923095703125,794.5787353515625,793.7728881835938
755,788.1318969726562,792.1611938476562,793.3699340820312,792.1611938476562
756,793.3699340820312,798.6080322265625,795.3846435546875,792.967041015625
757,792.967041015625,798.2051391601562,794.1758422851562,788.5347900390625
758,792.967041015625,795.7875366210938,792.1611938476562,790.1465454101562
759,790.1465454101562,795.3846435546875,790.1465454101562,795.3846435546875
760,786.5201416015625,797.3992919921875,789.3406372070312,787.7289428710938
761,792.967041015625,799.4139404296875,792.5640869140625,787.7289428710938
762,798.6080322265625,793.7728881835938,795.7875366210938,793.3699340820312
763,792.1611938476562,793.3699340820312,795.7875366210938,790.5494384765625
764,785.3113403320312,795.7875366210938,799.010986328125,785.3113403320312
765,791.7582397460938,796.1904907226562,801.025634765625,790.5494384765625
766,795.7875366210938,796.1904907226562,800.2197875976562,791.7582397460938
767,784.1025390625,795.7875366210938,798.2051391601562,788.5347900390625
768,780.879150390625,796.996337890625,797.8021850585938,792.967041015625
769,791.3552856445312,792.1611938476562,797.3992919921875,796.1904907226562
770,791.3552856445312,791.7582397460938,794.981689453125,796.996337890625
771,789.7435913085938,791.7582397460938,795.7875366210938,796.1904907226562
772,788.1318969726562,790.5494384765625,797.8021850585938,794.5787353515625
773,788.5347900390625,791.3552856445312,795.3846435546875,793.7728881835938
774,797.3992919921875,788.937744140625,794.1758422851562,808.2783813476562
775,799.010986328125,788.1318969726562,795.7875366210938,813.5164794921875
776,792.1611938476562,787.7289428710938,799.010986328125,800.2197875976562
777,797.3992919921875,786.5201416015625,800.6226806640625,798.2051391601562
778,793.7728881835938,786.1171875,802.2344360351562,797.8021850585938
779,774.8351440429688,784.908447265625,804.6520385742188,799.4139404296875
780,780.0732421875,782.087890625,803.8461303710938,798.2051391601562
781,789.7435913085938,780.4761962890625,800.2197875976562,790.1465454101562
782,788.1318969726562,786.1171875,796.996337890625,791.3552856445312
783,788.1318969726562,789.7435913085938,798.6080322265625,795.3846435546875
784,790.5494384765625,788.1318969726562,796.996337890625,792.1611938476562
785,792.5640869140625,788.5347900390625,792.1611938476562,789.7435913085938
786,785.7142944335938,790.1465454101562,793.7728881835938,786.923095703125
787,773.6264038085938,786.5201416015625,793.3699340820312,784.908447265625
788,777.2527465820312,787.3259887695312,790.952392578125,785.3113403320312
789,786.923095703125,792.5640869140625,794.5787353515625,789.3406372070312
790,788.1318969726562,789.3406372070312,796.996337890625,789.3406372070312
791,791.7582397460938,787.7289428710938,796.996337890625,791.7582397460938
792,788.937744140625,793.3699340820312,794.1758422851562,792.5640869140625
793,792.5640869140625,799.4139404296875,795.3846435546875,801.4285888671875
794,797.3992919921875,800.2197875976562,796.5933837890625,808.6813354492188
795,791.7582397460938,795.7875366210938,795.7875366210938,799.8168334960938
796,790.952392578125,794.5787353515625,795.3846435546875,792.5640869140625
797,793.7728881835938,793.3699340820312,796.5933837890625,792.967041015625
798,795.7875366210938,792.967041015625,798.2051391601562,794.981689453125
799,794.981689453125,789.3406372070312,795.3846435546875,787.7289428710938
800,794.5787353515625,784.5054931640625,788.5347900390625,784.908447265625
801,796.5933837890625,787.7289428710938,785.7142944335938,786.1171875
802,797.3992919921875,790.5494384765625,790.5494384765625,788.937744140625
803,792.5640869140625,784.908447265625,794.1758422851562,794.1758422851562
804,787.3259887695312,782.893798828125,794.981689453125,793.7728881835938
805,787.3259887695312,783.2966918945312,791.3552856445312,792.1611938476562
806,795.3846435546875,784.908447265625,787.7289428710938,785.3113403320312
807,789.7435913085938,784.908447265625,790.952392578125,778.05859375
808,783.2966918945312,780.0732421875,794.1758422851562,788.1318969726562
809,782.893798828125,784.1025390625,788.937744140625,793.7728881835938
810,765.970703125,788.937744140625,785.7142944335938,772.0146484375
811,769.5970458984375,786.923095703125,784.5054931640625,763.5531005859375
812,783.2966918945312,786.5201416015625,787.7289428710938,778.4615478515625
813,777.6557006835938,786.5201416015625,791.7582397460938,780.0732421875
814,775.2380981445312,788.5347900390625,788.937744140625,775.6410522460938
815,771.2088012695312,788.5347900390625,784.908447265625,779.2673950195312
816,777.2527465820312,789.3406372070312,790.1465454101562,788.5347900390625
817,783.6996459960938,789.7435913085938,797.8021850585938,784.1025390625
818,774.029296875,788.5347900390625,797.3992919921875,775.6410522460938
819,773.2234497070312,788.1318969726562,798.2051391601562,778.8644409179688
820,776.8497924804688,790.1465454101562,800.6226806640625,788.1318969726562
821,788.5347900390625,792.967041015625,803.040283203125,796.1904907226562
822,810.2930297851562,793.7728881835938,804.2490844726562,796.5933837890625
823,807.4725341796875,797.3992919921875,805.054931640625,800.6226806640625
824,795.7875366210938,801.8314819335938,804.6520385742188,808.6813354492188
825,800.6226806640625,802.6373901367188,802.2344360351562,804.6520385742188
826,806.2637329101562,806.2637329101562,801.4285888671875,799.4139404296875
827,811.90478515625,803.040283203125,796.996337890625,800.2197875976562
828,806.6666870117188,796.5933837890625,795.7875366210938,798.2051391601562
829,806.6666870117188,799.8168334960938,799.8168334960938,796.1904907226562
830,806.2637329101562,800.2197875976562,795.7875366210938,793.3699340820312
831,799.8168334960938,795.7875366210938,788.1318969726562,793.3699340820312
832,794.981689453125,798.2051391601562,789.7435913085938,794.1758422851562
833,792.1611938476562,803.8461303710938,790.952392578125,785.7142944335938
834,795.3846435546875,801.4285888671875,788.1318969726562,778.8644409179688
835,796.1904907226562,798.6080322265625,791.7582397460938,779.2673950195312
836,801.025634765625,797.8021850585938,791.7582397460938,774.4322509765625
837,784.5054931640625,793.7728881835938,789.3406372070312,771.6116943359375
838,763.1502075195312,792.1611938476562,790.1465454101562,774.029296875
839,760.7326049804688,789.7435913085938,788.937744140625,774.4322509765625
840,769.1941528320312,788.1318969726562,790.1465454101562,776.4468994140625
841,783.6996459960938,790.5494384765625,792.1611938476562,775.6410522460938
842,793.3699340820312,794.981689453125,796.996337890625,777.6557006835938
843,790.952392578125,799.010986328125,802.2344360351562,785.3113403320312
844,790.952392578125,800.6226806640625,797.3992919921875,788.5347900390625
845,794.5787353515625,795.7875366210938,797.8021850585938,780.879150390625
846,789.3406372070312,788.5347900390625,795.3846435546875,779.2673950195312
847,788.937744140625,791.3552856445312,794.1758422851562,784.1025390625
848,779.2673950195312,791.3552856445312,796.5933837890625,781.6849975585938
849,781.2820434570312,790.1465454101562,793.7728881835938,780.4761962890625
850,789.3406372070312,791.7582397460938,792.1611938476562,778.4615478515625
851,796.1904907226562,788.937744140625,794.5787353515625,778.05859375
852,799.4139404296875,791.3552856445312,794.1758422851562,787.3259887695312
853,785.7142944335938,792.967041015625,788.937744140625,788.5347900390625
854,786.923095703125,791.7582397460938,792.1611938476562,792.1611938476562
855,794.5787353515625,791.7582397460938,794.5787353515625,796.996337890625
856,791.7582397460938,787.3259887695312,791.7582397460938,788.5347900390625
857,791.3552856445312,788.5347900390625,792.967041015625,790.5494384765625
858,793.3699340820312,793.7728881835938,798.6080322265625,798.2051391601562
859,795.3846435546875,796.1904907226562,797.8021850585938,799.4139404296875
860,784.5054931640625,794.5787353515625,793.7728881835938,792.1611938476562
861,780.4761962890625,793.7728881835938,792.5640869140625,786.5201416015625
862,788.5347900390625,796.1904907226562,795.3846435546875,792.5640869140625
863,793.3699340820312,794.5787353515625,794.981689453125,794.1758422851562
864,789.3406372070312,794.1758422851562,796.5933837890625,788.1318969726562
865,790.952392578125,790.952392578125,795.7875366210938,790.1465454101562
866,797.3992919921875,786.1171875,788.1318969726562,788.5347900390625
867,794.5787353515625,785.7142944335938,788.1318969726562,788.1318969726562
868,796.996337890625,792.1611938476562,792.5640869140625,789.3406372070312
869,796.5933837890625,791.7582397460938,797.3992919921875,785.7142944335938
870,801.8314819335938,789.7435913085938,801.8314819335938,793.3699340820312
871,787.3259887695312,789.3406372070312,799.8168334960938,794.1758422851562
872,770.0,788.1318969726562,797.8021850585938,789.3406372070312
873,763.9560546875,785.3113403320312,793.7728881835938,786.5201416015625
874,764.7619018554688,783.2966918945312,794.981689453125,785.7142944335938
875,766.7765502929688,784.1025390625,797.3992919921875,784.908447265625
876,770.8058471679688,784.5054931640625,790.952392578125,786.1171875
877,771.6116943359375,786.1171875,786.923095703125,787.7289428710938
878,767.9853515625,782.893798828125,783.6996459960938,788.1318969726562
879,778.4615478515625,788.937744140625,782.4908447265625,785.7142944335938
880,783.2966918945312,789.7435913085938,783.2966918945312,777.2527465820312
881,779.6703491210938,781.6849975585938,786.923095703125,782.4908447265625
882,784.1025390625,783.6996459960938,789.7435913085938,794.5787353515625
883,776.4468994140625,786.5201416015625,789.7435913085938,785.3113403320312
884,776.8497924804688,783.2966918945312,786.923095703125,779.2673950195312
885,781.2820434570312,780.879150390625,784.908447265625,779.6703491210938
886,783.2966918945312,784.5054931640625,792.5640869140625,781.6849975585938
887,788.5347900390625,787.7289428710938,800.2197875976562,791.3552856445312
888,776.8497924804688,787.7289428710938,797.3992919921875,789.7435913085938
889,779.6703491210938,787.7289428710938,796.5933837890625,791.3552856445312
890,788.937744140625,787.7289428710938,799.010986328125,795.7875366210938
891,787.7289428710938,786.5201416015625,794.981689453125,788.1318969726562
892,794.1758422851562,788.5347900390625,791.3552856445312,788.937744140625
893,806.2637329101562,792.967041015625,789.7435913085938,804.6520385742188
894,806.6666870117188,788.937744140625,788.5347900390625,800.6226806640625
895,788.5347900390625,783.2966918945312,790.952392578125,788.1318969726562
896,772.0146484375,784.1025390625,790.952392578125,790.5494384765625
897,778.8644409179688,786.5201416015625,792.1611938476562,794.981689453125
898,792.1611938476562,787.3259887695312,796.1904907226562,800.2197875976562
899,788.1318969726562,787.7289428710938,795.3846435546875,792.1611938476562
900,781.2820434570312,785.7142944335938,795.3846435546875,778.4615478515625
901,784.5054931640625,786.923095703125,794.981689453125,782.893798828125
902,777.6557006835938,788.937744140625,792.1611938476562,785.3113403320312
903,772.0146484375,790.1465454101562,792.5640869140625,781.2820434570312
904,779.2673950195312,787.7289428710938,790.5494384765625,782.087890625
905,781.2820434570312,786.5201416015625,786.923095703125,786.1171875
906,777.2527465820312,792.1611938476562,792.5640869140625,784.5054931640625
907,778.8644409179688,787.3259887695312,794.5787353515625,781.6849975585938
908,793.7728881835938,786.5201416015625,790.952392578125,784.908447265625
909,792.1611938476562,790.1465454101562,791.3552856445312,784.908447265625
910,789.7435913085938,792.967041015625,792.967041015625,781.6849975585938
911,799.4139404296875,796.5933837890625,798.6080322265625,785.3113403320312
912,804.6520385742188,798.2051391601562,796.5933837890625,784.908447265625
913,819.5604248046875,801.8314819335938,795.7875366210938,783.6996459960938
914,811.5018310546875,801.8314819335938,799.8168334960938,792.1611938476562
915,797.3992919921875,798.2051391601562,801.4285888671875,797.8021850585938
916,799.4139404296875,799.8168334960938,806.2637329101562,801.025634765625
917,809.89013671875,806.6666870117188,803.4432373046875,800.2197875976562
918,810.2930297851562,811.098876953125,800.6226806640625,793.3699340820312
919,794.981689453125,807.069580078125,796.5933837890625,788.937744140625
920,785.3113403320312,803.8461303710938,790.952392578125,786.1171875
921,767.5823974609375,801.4285888671875,790.1465454101562,776.8497924804688
922,770.8058471679688,798.6080322265625,788.1318969726562,773.2234497070312
923,784.908447265625,800.2197875976562,790.1465454101562,780.879150390625
924,781.2820434570312,803.8461303710938,794.5787353515625,780.879150390625
925,779.2673950195312,803.040283203125,795.3846435546875,782.893798828125
926,778.4615478515625,796.1904907226562,791.7582397460938,783.6996459960938
927,769.5970458984375,792.967041015625,792.1611938476562,788.1318969726562
928,765.5677490234375,793.3699340820312,790.952392578125,791.3552856445312
929,771.6116943359375,792.1611938476562,784.908447265625,782.087890625
930,773.6264038085938,791.3552856445312,790.1465454101562,774.4322509765625
931,767.9853515625,790.952392578125,794.5787353515625,774.8351440429688
932,771.2088012695312,793.7728881835938,794.981689453125,780.879150390625
933,787.7289428710938,792.967041015625,794.5787353515625,781.6849975585938
934,785.3113403320312,790.5494384765625,794.981689453125,790.952392578125
935,774.4322509765625,792.967041015625,800.2197875976562,792.1611938476562
936,779.6703491210938,790.952392578125,797.8021850585938,786.5201416015625
937,788.937744140625,790.1465454101562,798.2051391601562,792.967041015625
938,791.7582397460938,790.5494384765625,800.2197875976562,796.996337890625
939,791.7582397460938,788.937744140625,801.025634765625,801.8314819335938
940,794.1758422851562,788.5347900390625,801.8314819335938,798.2051391601562
941,798.2051391601562,786.5201416015625,803.040283203125,796.1904907226562
942,800.2197875976562,787.7289428710938,802.2344360351562,801.4285888671875
943,801.4285888671875,794.981689453125,796.1904907226562,799.8168334960938
944,803.8461303710938,794.1758422851562,796.5933837890625,800.2197875976562
945,796.996337890625,791.3552856445312,795.7875366210938,798.6080322265625
946,796.5933837890625,795.7875366210938,796.1904907226562,800.2197875976562
947,790.952392578125,797.8021850585938,797.3992919921875,801.8314819335938
948,786.923095703125,794.1758422851562,796.1904907226562,797.3992919921875
949,789.7435913085938,796.996337890625,798.2051391601562,793.3699340820312
950,786.5201416015625,802.6373901367188,799.010986328125,798.2051391601562
951,789.3406372070312,801.025634765625,803.4432373046875,799.8168334960938
952,797.8021850585938,802.2344360351562,801.8314819335938,788.1318969726562
953,798.6080322265625,807.069580078125,799.8168334960938,789.3406372070312
954,794.981689453125,802.2344360351562,801.4285888671875,794.1758422851562
955,794.5787353515625,794.981689453125,797.8021850585938,786.923095703125
956,789.7435913085938,795.3846435546875,793.3699340820312,779.2673950195312
957,788.5347900390625,793.7728881835938,794.1758422851562,775.6410522460938
958,788.5347900390625,789.3406372070312,794.981689453125,776.4468994140625
959,787.7289428710938,792.967041015625,791.7582397460938,781.2820434570312
960,789.7435913085938,794.5787353515625,790.5494384765625,789.7435913085938
961,783.6996459960938,792.1611938476562,790.952392578125,792.967041015625
962,779.6703491210938,791.3552856445312,796.996337890625,793.3699340820312
963,781.6849975585938,791.7582397460938,805.8607788085938,796.5933837890625
964,789.3406372070312,792.1611938476562,803.040283203125,794.1758422851562
965,805.8607788085938,790.1465454101562,799.010986328125,788.5347900390625
966,797.3992919921875,787.3259887695312,799.010986328125,787.7289428710938
967,775.6410522460938,785.7142944335938,797.3992919921875,788.1318969726562
968,772.8204956054688,790.1465454101562,796.5933837890625,785.3113403320312
969,784.1025390625,788.5347900390625,793.7728881835938,790.952392578125
970,785.3113403320312,785.7142944335938,793.7728881835938,789.7435913085938
971,784.5054931640625,788.937744140625,798.2051391601562,788.937744140625
972,792.1611938476562,789.3406372070312,798.6080322265625,790.1465454101562
973,790.1465454101562,786.923095703125,794.5787353515625,784.1025390625
974,780.879150390625,782.893798828125,792.1611938476562,785.3113403320312
975,780.4761962890625,787.3259887695312,788.1318969726562,781.6849975585938
976,788.5347900390625,792.1611938476562,787.7289428710938,782.4908447265625
977,787.3259887695312,788.937744140625,790.5494384765625,784.5054931640625
978,784.908447265625,788.937744140625,794.1758422851562,784.908447265625
979,791.7582397460938,792.5640869140625,794.5787353515625,790.1465454101562
980,796.996337890625,795.3846435546875,792.5640869140625,793.7728881835938
981,795.7875366210938,798.6080322265625,794.1758422851562,793.7728881835938
982,809.89013671875,800.2197875976562,790.1465454101562,795.7875366210938
983,820.7692260742188,799.8168334960938,788.937744140625,798.6080322265625
984,808.2783813476562,796.996337890625,794.1758422851562,801.025634765625
985,797.3992919921875,798.2051391601562,796.5933837890625,800.2197875976562
986,792.1611938476562,799.8168334960938,796.1904907226562,796.5933837890625
987,794.981689453125,796.1904907226562,798.6080322265625,795.3846435546875
988,796.996337890625,795.7875366210938,795.7875366210938,790.5494384765625
989,787.3259887695312,794.981689453125,794.1758422851562,794.1758422851562
990,789.7435913085938,794.981689453125,795.7875366210938,799.8168334960938
991,793.3699340820312,799.010986328125,791.7582397460938,791.3552856445312
992,791.3552856445312,792.5640869140625,792.5640869140625,789.7435913085938
993,786.923095703125,789.3406372070312,794.1758422851562,794.1758422851562
994,787.7289428710938,790.5494384765625,791.7582397460938,794.5787353515625
995,793.3699340820312,787.3259887695312,785.7142944335938,791.7582397460938
996,794.5787353515625,784.908447265625,788.937744140625,789.3406372070312
997,799.8168334960938,784.1025390625,792.967041015625,782.4908447265625
998,799.010986328125,787.3259887695312,792.967041015625,781.6849975585938
999,794.5787353515625,793.7728881835938,796.5933837890625,787.3259887695312
1000,801.025634765625,787.7289428710938,794.981689453125,793.7728881835938
1001,795.3846435546875,785.3113403320312,792.1611938476562,801.8314819335938
1002,782.4908447265625,789.7435913085938,789.3406372070312,793.7728881835938
1003,775.6410522460938,787.3259887695312,789.7435913085938,786.923095703125
1004,776.0439453125,790.952392578125,792.1611938476562,785.7142944335938
1005,783.2966918945312,790.5494384765625,791.7582397460938,784.5054931640625
1006,793.3699340820312,784.1025390625,794.1758422851562,784.5054931640625
1007,798.6080322265625,784.1025390625,793.7728881835938,786.923095703125
1008,794.5787353515625,788.937744140625,791.3552856445312,787.7289428710938
1009,784.1025390625,788.5347900390625,793.3699340820312,785.7142944335938
1010,784.5054931640625,784.908447265625,794.981689453125,786.5201416015625
1011,790.952392578125,780.879150390625,797.8021850585938,790.1465454101562
1012,787.7289428710938,779.6703491210938,797.3992919921875,792.5640869140625
1013,785.3113403320312,783.2966918945312,796.5933837890625,785.7142944335938
1014,782.4908447265625,784.1025390625,798.2051391601562,784.5054931640625
1015,785.7142944335938,782.893798828125,796.5933837890625,789.3406372070312
1016,795.7875366210938,788.937744140625,798.6080322265625,799.8168334960938
1017,789.7435913085938,789.7435913085938,799.4139404296875,797.8021850585938
1018,785.7142944335938,787.7289428710938,796.1904907226562,792.967041015625
1019,796.5933837890625,788.937744140625,799.4139404296875,798.2051391601562
1020,805.4578857421875,786.5201416015625,799.010986328125,799.010986328125
1021,785.7142944335938,783.6996459960938,790.1465454101562,793.3699340820312
1022,777.2527465820312,788.5347900390625,787.3259887695312,788.937744140625
1023,785.7142944335938,786.5201416015625,791.7582397460938,792.5640869140625
1024,788.1318969726562,782.087890625,793.3699340820312,794.5787353515625
1025,786.923095703125,784.5054931640625,792.1611938476562,785.7142944335938
1026,786.5201416015625,781.2820434570312,791.3552856445312,780.879150390625
1027,799.8168334960938,780.879150390625,795.3846435546875,792.5640869140625
1028,792.5640869140625,784.5054931640625,800.2197875976562,802.2344360351562
1029,780.0732421875,785.7142944335938,798.6080322265625,802.6373901367188
1030,794.5787353515625,788.5347900390625,802.2344360351562,803.8461303710938
1031,800.6226806640625,789.7435913085938,803.040283203125,800.2197875976562
1032,795.7875366210938,787.7289428710938,801.025634765625,795.3846435546875
1033,789.3406372070312,785.7142944335938,801.025634765625,793.3699340820312
1034,786.5201416015625,789.3406372070312,799.8168334960938,793.3699340820312
1035,795.3846435546875,789.3406372070312,798.6080322265625,799.010986328125
1036,802.2344360351562,788.1318969726562,798.2051391601562,795.7875366210938
1037,789.7435913085938,786.1171875,796.1904907226562,786.1171875
1038,775.6410522460938,788.937744140625,794.5787353515625,783.6996459960938
1039,770.0,789.7435913085938,790.952392578125,781.6849975585938
1040,780.4761962890625,788.937744140625,793.7728881835938,789.3406372070312
1041,791.7582397460938,794.1758422851562,794.5787353515625,794.5787353515625
1042,786.923095703125,791.3552856445312,789.3406372070312,788.1318969726562
1043,780.879150390625,789.7435913085938,788.937744140625,784.908447265625
1044,764.7619018554688,793.3699340820312,787.7289428710938,776.0439453125
1045,763.1502075195312,791.7582397460938,786.923095703125,776.0439453125
1046,774.029296875,789.7435913085938,787.3259887695312,782.4908447265625
1047,768.7911987304688,788.5347900390625,790.5494384765625,780.4761962890625
1048,765.1648559570312,788.1318969726562,790.1465454101562,781.2820434570312
1049,773.2234497070312,789.7435913085938,785.3113403320312,780.4761962890625
1050,778.4615478515625,789.7435913085938,787.7289428710938,779.2673950195312
1051,769.1941528320312,787.7289428710938,786.5201416015625,776.0439453125
1052,773.6264038085938,790.5494384765625,784.1025390625,770.0
1053,786.5201416015625,794.981689453125,786.5201416015625,772.0146484375
1054,779.2673950195312,792.1611938476562,782.4908447265625,778.05859375
1055,778.4615478515625,791.3552856445312,784.1025390625,788.5347900390625
1056,788.5347900390625,794.5787353515625,785.7142944335938,796.1904907226562
1057,797.8021850585938,794.1758422851562,786.1171875,801.4285888671875
1058,804.2490844726562,794.1758422851562,790.5494384765625,807.069580078125
1059,787.3259887695312,792.1611938476562,790.5494384765625,800.6226806640625
1060,783.2966918945312,790.952392578125,792.1611938476562,791.7582397460938
1061,792.1611938476562,792.967041015625,792.967041015625,792.5640869140625
1062,788.937744140625,792.5640869140625,792.5640869140625,794.5787353515625
1063,789.3406372070312,796.996337890625,799.010986328125,799.010986328125
1064,799.010986328125,797.8021850585938,800.2197875976562,801.4285888671875
1065,807.069580078125,790.952392578125,797.3992919921875,794.5787353515625
1066,799.4139404296875,789.7435913085938,796.1904907226562,787.7289428710938
1067,795.3846435546875,792.967041015625,795.3846435546875,784.5054931640625
1068,797.3992919921875,796.996337890625,792.967041015625,780.4761962890625
1069,792.5640869140625,792.967041015625,791.7582397460938,782.087890625
1070,789.7435913085938,787.3259887695312,788.1318969726562,782.4908447265625
1071,794.981689453125,787.7289428710938,790.5494384765625,781.2820434570312
1072,795.3846435546875,786.923095703125,795.3846435546875,783.2966918945312
1073,794.981689453125,787.3259887695312,791.3552856445312,783.6996459960938
1074,791.7582397460938,784.1025390625,793.7728881835938,788.5347900390625
1075,787.7289428710938,784.908447265625,795.7875366210938,786.5201416015625
1076,788.5347900390625,788.1318969726562,793.3699340820312,774.4322509765625
1077,784.908447265625,787.7289428710938,790.1465454101562,775.2380981445312
1078,773.2234497070312,792.1611938476562,790.1465454101562,782.087890625
1079,777.6557006835938,795.3846435546875,790.952392578125,777.6557006835938
1080,786.1171875,793.7728881835938,790.1465454101562,780.879150390625
1081,782.4908447265625,792.967041015625,788.1318969726562,782.087890625
1082,796.996337890625,794.1758422851562,788.937744140625,782.4908447265625
1083,803.4432373046875,793.3699340820312,790.952392578125,786.5201416015625
1084,790.1465454101562,788.5347900390625,787.7289428710938,790.5494384765625
1085,781.6849975585938,784.908447265625,785.7142944335938,796.996337890625
1086,778.05859375,788.5347900390625,786.923095703125,799.010986328125
1087,787.3259887695312,794.5787353515625,787.7289428710938,793.7728881835938
1088,793.3699340820312,794.1758422851562,786.1171875,795.7875366210938
1089,786.923095703125,791.7582397460938,782.893798828125,792.1611938476562
1090,796.996337890625,792.967041015625,787.7289428710938,788.937744140625
1091,806.6666870117188,789.7435913085938,789.3406372070312,789.7435913085938
1092,798.2051391601562,785.7142944335938,794.1758422851562,791.7582397460938
1093,786.923095703125,782.087890625,800.6226806640625,794.5787353515625
1094,784.5054931640625,784.5054931640625,798.6080322265625,800.6226806640625
1095,785.7142944335938,786.5201416015625,799.4139404296875,800.2197875976562
1096,783.2966918945312,786.923095703125,800.2197875976562,797.3992919921875
1097,789.7435913085938,791.3552856445312,799.8168334960938,799.010986328125
1098,796.5933837890625,791.3552856445312,796.5933837890625,795.3846435546875
1099,794.981689453125,790.952392578125,797.8021850585938,792.967041015625
1100,792.967041015625,798.6080322265625,800.2197875976562,793.7728881835938
1101,793.3699340820312,794.5787353515625,797.8021850585938,792.967041015625
1102,794.1758422851562,787.3259887695312,795.3846435546875,786.1171875
1103,794.5787353515625,790.5494384765625,790.5494384765625,776.0439453125
1104,790.1465454101562,795.7875366210938,789.7435913085938,772.8204956054688
1105,787.3259887695312,799.4139404296875,790.1465454101562,772.8204956054688
1106,779.2673950195312,793.7728881835938,792.1611938476562,775.2380981445312
1107,763.9560546875,791.3552856445312,788.5347900390625,777.2527465820312
1108,776.4468994140625,792.5640869140625,785.7142944335938,784.1025390625
1109,789.7435913085938,792.967041015625,784.908447265625,790.1465454101562
1110,789.7435913085938,789.7435913085938,782.893798828125,782.893798828125
1111,786.1171875,786.923095703125,786.5201416015625,782.4908447265625
1112,786.5201416015625,790.952392578125,791.7582397460938,790.5494384765625
1113,790.5494384765625,791.7582397460938,794.5787353515625,794.5787353515625
1114,795.7875366210938,791.7582397460938,797.8021850585938,799.4139404296875
1115,797.8021850585938,794.1758422851562,800.6226806640625,806.2637329101562
1116,791.3552856445312,796.1904907226562,797.3992919921875,801.4285888671875
1117,793.7728881835938,796.996337890625,797.3992919921875,802.6373901367188
1118,801.4285888671875,795.7875366210938,801.025634765625,804.6520385742188
1119,801.8314819335938,794.1758422851562,798.6080322265625,801.4285888671875
1120,801.025634765625,795.3846435546875,797.3992919921875,803.040283203125
1121,800.6226806640625,798.2051391601562,794.981689453125,792.5640869140625
1122,803.040283203125,800.6226806640625,796.5933837890625,790.1465454101562
1123,796.1904907226562,798.6080322265625,797.8021850585938,799.010986328125
1124,790.952392578125,798.6080322265625,797.3992919921875,803.8461303710938
1125,796.5933837890625,801.8314819335938,800.6226806640625,802.2344360351562
1126,789.7435913085938,798.6080322265625,799.4139404296875,794.981689453125
1127,784.908447265625,796.5933837890625,798.6080322265625,789.3406372070312
1128,789.3406372070312,798.2051391601562,795.3846435546875,788.937744140625
1129,780.879150390625,794.981689453125,789.7435913085938,781.2820434570312
1130,782.893798828125,792.1611938476562,788.5347900390625,772.4176025390625
1131,790.1465454101562,792.967041015625,791.3552856445312,780.879150390625
1132,787.7289428710938,792.5640869140625,794.5787353515625,782.893798828125
1133,788.1318969726562,796.5933837890625,796.1904907226562,775.2380981445312
1134,787.3259887695312,793.7728881835938,795.3846435546875,778.05859375
1135,791.7582397460938,789.7435913085938,794.1758422851562,778.05859375
1136,790.952392578125,786.1171875,792.967041015625,769.5970458984375
1137,792.5640869140625,786.923095703125,793.3699340820312,774.029296875
1138,792.5640869140625,794.5787353515625,790.952392578125,777.2527465820312
1139,788.937744140625,797.3992919921875,792.1611938476562,778.4615478515625
1140,790.1465454101562,799.4139404296875,795.3846435546875,784.1025390625
1141,786.923095703125,797.3992919921875,790.1465454101562,779.6703491210938
1142,783.2966918945312,794.5787353515625,789.7435913085938,779.2673950195312
1143,786.1171875,793.3699340820312,792.967041015625,782.4908447265625
1144,799.4139404296875,791.7582397460938,789.7435913085938,781.6849975585938
1145,791.3552856445312,794.1758422851562,786.5201416015625,782.087890625
1146,769.5970458984375,796.996337890625,789.7435913085938,783.6996459960938
1147,764.3589477539062,794.981689453125,790.5494384765625,786.1171875
1148,759.120849609375,792.1611938476562,790.1465454101562,792.5640869140625
1149,766.3735961914062,793.3699340820312,796.1904907226562,799.8168334960938
1150,782.893798828125,794.5787353515625,794.1758422851562,801.025634765625
1151,791.3552856445312,794.1758422851562,793.3699340820312,801.4285888671875
1152,790.1465454101562,791.3552856445312,798.6080322265625,792.967041015625
1153,798.2051391601562,796.1904907226562,796.996337890625,788.5347900390625
1154,801.4285888671875,794.1758422851562,796.5933837890625,795.7875366210938
1155,799.4139404296875,792.967041015625,796.1904907226562,793.7728881835938
1156,804.6520385742188,803.040283203125,793.7728881835938,792.1611938476562
1157,807.069580078125,801.4285888671875,795.7875366210938,790.5494384765625
1158,803.4432373046875,796.1904907226562,795.7875366210938,790.952392578125
1159,796.5933837890625,795.7875366210938,793.7728881835938,795.3846435546875
1160,795.7875366210938,794.5787353515625,794.5787353515625,790.5494384765625
1161,802.6373901367188,795.3846435546875,795.7875366210938,788.1318969726562
1162,799.8168334960938,796.1904907226562,799.010986328125,787.3259887695312
1163,791.7582397460938,793.3699340820312,799.010986328125,791.7582397460938
1164,792.5640869140625,792.967041015625,796.996337890625,797.8021850585938
1165,793.7728881835938,793.7728881835938,796.996337890625,794.5787353515625
1166,791.3552856445312,790.952392578125,802.6373901367188,792.967041015625
1167,787.7289428710938,789.7435913085938,800.6226806640625,790.1465454101562
1168,788.5347900390625,789.3406372070312,798.2051391601562,788.1318969726562
1169,793.3699340820312,791.3552856445312,799.8168334960938,796.996337890625
1170,792.967041015625,795.3846435546875,797.8021850585938,796.5933837890625
1171,795.3846435546875,792.5640869140625,799.010986328125,791.7582397460938
1172,785.3113403320312,790.1465454101562,796.996337890625,783.2966918945312
1173,772.8204956054688,788.1318969726562,794.5787353515625,782.4908447265625
1174,790.1465454101562,789.7435913085938,797.8021850585938,787.3259887695312
1175,795.7875366210938,794.5787353515625,799.8168334960938,790.952392578125
1176,788.5347900390625,797.3992919921875,798.6080322265625,794.981689453125
1177,790.1465454101562,794.981689453125,792.967041015625,796.1904907226562
1178,784.908447265625,790.952392578125,784.908447265625,796.1904907226562
1179,787.7289428710938,790.952392578125,784.5054931640625,792.5640869140625
1180,795.7875366210938,790.952392578125,786.923095703125,790.952392578125
1181,793.7728881835938,790.1465454101562,787.3259887695312,785.3113403320312
1182,796.5933837890625,788.5347900390625,792.1611938476562,776.8497924804688
1183,789.7435913085938,789.7435913085938,791.7582397460938,770.8058471679688
1184,781.2820434570312,791.3552856445312,787.7289428710938,774.029296875
1185,790.1465454101562,789.3406372070312,788.5347900390625,777.2527465820312
1186,795.3846435546875,791.7582397460938,788.1318969726562,777.2527465820312
1187,795.3846435546875,790.1465454101562,790.5494384765625,780.4761962890625
1188,791.7582397460938,789.7435913085938,792.967041015625,784.1025390625
1189,788.1318969726562,790.1465454101562,792.5640869140625,787.7289428710938
1190,784.1025390625,789.7435913085938,793.7728881835938,792.1611938476562
1191,778.4615478515625,791.7582397460938,794.981689453125,798.6080322265625
1192,775.6410522460938,788.1318969726562,795.3846435546875,803.040283203125
1193,775.2380981445312,790.1465454101562,793.7728881835938,804.6520385742188
1194,775.6410522460938,791.7582397460938,794.981689453125,798.6080322265625
1195,784.5054931640625,794.1758422851562,799.4139404296875,800.6226806640625
1196,789.7435913085938,794.981689453125,801.4285888671875,803.040283203125
1197,786.923095703125,794.1758422851562,800.2197875976562,796.1904907226562
1198,789.3406372070312,796.996337890625,797.3992919921875,792.1611938476562
1199,796.5933837890625,797.8021850585938,801.025634765625,791.3552856445312
1200,797.3992919921875,799.4139404296875,806.6666870117188,796.5933837890625
1201,799.8168334960938,801.025634765625,805.4578857421875,797.8021850585938
1202,797.3992919921875,803.8461303710938,802.6373901367188,794.1758422851562
1203,781.6849975585938,804.6520385742188,799.4139404296875,795.7875366210938
1204,776.4468994140625,801.025634765625,800.2197875976562,797.8021850585938
1205,781.6849975585938,797.8021850585938,797.3992919921875,795.3846435546875
1206,796.1904907226562,798.2051391601562,798.2051391601562,786.1171875
1207,796.1904907226562,794.981689453125,801.025634765625,781.6849975585938
1208,779.6703491210938,794.5787353515625,799.010986328125,781.6849975585938
1209,786.5201416015625,796.1904907226562,799.8168334960938,780.0732421875
1210,796.5933837890625,792.967041015625,796.5933837890625,778.8644409179688
1211,784.5054931640625,792.967041015625,795.7875366210938,780.4761962890625
1212,779.6703491210938,793.3699340820312,796.1904907226562,780.4761962890625
1213,774.8351440429688,799.8168334960938,796.5933837890625,778.8644409179688
1214,772.8204956054688,796.996337890625,796.5933837890625,778.05859375
1215,788.5347900390625,792.5640869140625,794.1758422851562,788.937744140625
1216,793.7728881835938,790.5494384765625,795.7875366210938,801.025634765625
1217,790.952392578125,788.937744140625,793.7728881835938,792.5640869140625
1218,794.5787353515625,791.7582397460938,794.5787353515625,786.5201416015625
1219,788.937744140625,790.5494384765625,796.1904907226562,792.967041015625
1220,786.1171875,788.937744140625,796.5933837890625,791.3552856445312
1221,792.1611938476562,791.7582397460938,794.1758422851562,786.923095703125
1222,790.1465454101562,791.3552856445312,789.7435913085938,787.7289428710938
1223,796.5933837890625,788.937744140625,791.3552856445312,789.7435913085938
1224,809.89013671875,793.7728881835938,795.7875366210938,793.3699340820312
1225,802.2344360351562,794.1758422851562,798.6080322265625,791.7582397460938
1226,797.8021850585938,791.3552856445312,796.5933837890625,782.893798828125
1227,802.2344360351562,788.1318969726562,794.5787353515625,784.5054931640625
1228,792.5640869140625,789.7435913085938,796.1904907226562,787.3259887695312
1229,783.6996459960938,792.5640869140625,795.3846435546875,780.879150390625
1230,784.908447265625,785.3113403320312,792.967041015625,780.879150390625
1231,790.5494384765625,780.4761962890625,792.1611938476562,787.3259887695312
1232,789.7435913085938,784.5054931640625,792.5640869140625,782.087890625
1233,780.0732421875,792.5640869140625,792.967041015625,774.029296875
1234,780.4761962890625,798.2051391601562,794.5787353515625,779.2673950195312
1235,783.6996459960938,803.040283203125,800.2197875976562,786.5201416015625
1236,788.937744140625,803.040283203125,800.2197875976562,787.3259887695312
1237,799.8168334960938,800.6226806640625,800.2197875976562,786.923095703125
1238,798.6080322265625,794.981689453125,799.8168334960938,789.7435913085938
1239,796.1904907226562,791.7582397460938,801.4285888671875,791.3552856445312
1240,792.967041015625,792.1611938476562,805.054931640625,785.3113403320312
1241,792.5640869140625,792.5640869140625,801.4285888671875,785.7142944335938
1242,796.1904907226562,792.967041015625,798.2051391601562,793.7728881835938
1243,790.5494384765625,791.7582397460938,797.8021850585938,791.7582397460938
1244,791.7582397460938,788.937744140625,794.981689453125,782.893798828125
1245,796.996337890625,784.5054931640625,788.5347900390625,783.6996459960938
1246,801.4285888671875,787.3259887695312,790.1465454101562,787.7289428710938
1247,805.4578857421875,789.3406372070312,793.7728881835938,787.3259887695312
1248,799.010986328125,788.1318969726562,793.3699340820312,784.5054931640625
1249,785.3113403320312,788.937744140625,792.967041015625,777.2527465820312
1250,781.6849975585938,784.5054931640625,795.7875366210938,775.2380981445312
1251,778.8644409179688,782.893798828125,797.3992919921875,783.2966918945312
1252,782.087890625,789.7435913085938,799.8168334960938,794.1758422851562
1253,778.05859375,790.1465454101562,797.3992919921875,786.1171875
1254,771.2088012695312,787.3259887695312,794.1758422851562,780.879150390625
1255,778.8644409179688,788.937744140625,794.981689453125,784.1025390625
1256,787.3259887695312,791.3552856445312,792.5640869140625,789.3406372070312
1257,790.5494384765625,794.981689453125,793.3699340820312,796.1904907226562
1258,788.5347900390625,796.5933837890625,790.952392578125,790.5494384765625
1259,787.7289428710938,792.5640869140625,788.5347900390625,784.5054931640625
1260,788.1318969726562,790.952392578125,788.937744140625,784.5054931640625
1261,790.1465454101562,793.7728881835938,790.1465454101562,784.1025390625
1262,790.952392578125,790.952392578125,788.5347900390625,789.7435913085938
1263,786.923095703125,794.5787353515625,784.1025390625,792.5640869140625
1264,788.1318969726562,796.5933837890625,786.1171875,788.1318969726562
1265,787.7289428710938,788.1318969726562,781.6849975585938,787.7289428710938
1266,778.05859375,785.3113403320312,783.2966918945312,784.1025390625
1267,774.029296875,787.3259887695312,790.1465454101562,776.4468994140625
1268,778.05859375,793.3699340820312,788.5347900390625,781.6849975585938
1269,774.8351440429688,790.5494384765625,787.7289428710938,780.4761962890625
1270,772.0146484375,783.6996459960938,786.5201416015625,776.4468994140625
1271,777.6557006835938,787.7289428710938,784.1025390625,780.0732421875
1272,782.4908447265625,789.3406372070312,782.4908447265625,781.6849975585938
1273,780.0732421875,786.5201416015625,783.6996459960938,786.1171875
1274,776.4468994140625,788.5347900390625,786.5201416015625,789.7435913085938
1275,782.087890625,794.5787353515625,794.1758422851562,789.3406372070312
1276,786.5201416015625,794.5787353515625,793.7728881835938,784.908447265625
1277,791.3552856445312,788.1318969726562,788.1318969726562,791.3552856445312
1278,790.952392578125,786.923095703125,789.7435913085938,793.3699340820312
1279,783.6996459960938,792.5640869140625,791.3552856445312,785.7142944335938
1280,783.2966918945312,794.981689453125,791.3552856445312,790.952392578125
1281,788.5347900390625,794.981689453125,791.7582397460938,792.1611938476562
1282,795.7875366210938,794.5787353515625,792.5640869140625,787.7289428710938
1283,797.8021850585938,795.3846435546875,792.967041015625,784.5054931640625
1284,794.1758422851562,799.010986328125,794.1758422851562,784.1025390625
1285,794.981689453125,799.010986328125,792.967041015625,785.7142944335938
1286,798.2051391601562,801.025634765625,791.7582397460938,787.7289428710938
1287,797.3992919921875,799.8168334960938,793.7728881835938,786.923095703125
1288,798.6080322265625,791.3552856445312,792.5640869140625,786.1171875
1289,796.5933837890625,790.1465454101562,788.5347900390625,786.5201416015625
1290,788.5347900390625,793.3699340820312,790.952392578125,780.0732421875
1291,786.5201416015625,794.981689453125,798.2051391601562,783.6996459960938
1292,785.7142944335938,796.1904907226562,796.5933837890625,787.3259887695312
1293,781.2820434570312,795.3846435546875,790.952392578125,780.4761962890625
1294,781.2820434570312,794.5787353515625,788.937744140625,776.0439453125
1295,780.879150390625,791.7582397460938,790.1465454101562,776.8497924804688
1296,776.0439453125,791.3552856445312,790.952392578125,782.893798828125
1297,772.0146484375,790.952392578125,790.952392578125,788.1318969726562
1298,776.8497924804688,787.7289428710938,792.967041015625,792.967041015625
1299,777.6557006835938,786.923095703125,795.3846435546875,792.967041015625
1300,772.8204956054688,783.2966918945312,791.3552856445312,794.981689453125
1301,772.0146484375,783.2966918945312,790.1465454101562,792.967041015625
1302,770.0,789.7435913085938,792.5640869140625,780.879150390625
1303,770.0,790.5494384765625,794.981689453125,780.879150390625
1304,779.6703491210938,791.7582397460938,793.7728881835938,786.5201416015625
1305,782.087890625,790.5494384765625,792.1611938476562,789.7435913085938
1306,791.3552856445312,790.952392578125,796.5933837890625,791.3552856445312
1307,800.6226806640625,791.3552856445312,795.7875366210938,792.1611938476562
1308,798.2051391601562,789.3406372070312,795.3846435546875,794.5787353515625
1309,799.010986328125,792.5640869140625,795.7875366210938,796.5933837890625
1310,800.6226806640625,792.5640869140625,795.3846435546875,795.7875366210938
1311,803.4432373046875,792.5640869140625,797.3992919921875,794.5787353515625
1312,803.8461303710938,792.1611938476562,799.010986328125,796.5933837890625
1313,796.1904907226562,796.996337890625,794.981689453125,789.7435913085938
1314,793.3699340820312,799.8168334960938,793.3699340820312,785.7142944335938
1315,790.952392578125,795.7875366210938,796.996337890625,787.7289428710938
1316,793.3699340820312,795.3846435546875,795.3846435546875,786.923095703125
1317,791.3552856445312,794.981689453125,794.1758422851562,787.7289428710938
1318,787.3259887695312,794.5787353515625,794.981689453125,789.7435913085938
1319,784.5054931640625,794.981689453125,794.1758422851562,790.5494384765625
1320,782.087890625,798.6080322265625,797.3992919921875,790.5494384765625
1321,791.7582397460938,801.4285888671875,798.2051391601562,789.3406372070312
1322,801.025634765625,801.4285888671875,799.010986328125,787.7289428710938
1323,791.3552856445312,802.6373901367188,799.010986328125,792.1611938476562
1324,787.7289428710938,801.4285888671875,801.8314819335938,797.3992919921875
1325,787.7289428710938,795.3846435546875,801.4285888671875,795.7875366210938
1326,779.6703491210938,792.1611938476562,794.5787353515625,794.5787353515625
1327,790.952392578125,791.7582397460938,799.8168334960938,796.5933837890625
1328,802.6373901367188,790.952392578125,803.8461303710938,791.3552856445312
1329,805.054931640625,793.3699340820312,803.8461303710938,795.3846435546875
1330,802.2344360351562,795.3846435546875,807.069580078125,805.8607788085938
1331,804.6520385742188,791.7582397460938,805.8607788085938,815.5311279296875
1332,801.025634765625,789.3406372070312,806.6666870117188,807.87548828125
1333,797.8021850585938,791.3552856445312,806.6666870117188,798.2051391601562
1334,807.4725341796875,793.7728881835938,803.8461303710938,801.025634765625
1335,802.2344360351562,794.5787353515625,801.8314819335938,803.8461303710938
1336,790.1465454101562,794.5787353515625,801.8314819335938,797.8021850585938
1337,784.1025390625,794.981689453125,801.025634765625,791.7582397460938
1338,790.5494384765625,796.5933837890625,801.8314819335938,798.2051391601562
1339,796.996337890625,795.3846435546875,803.040283203125,792.1611938476562
1340,791.7582397460938,796.996337890625,801.025634765625,781.6849975585938
1341,786.1171875,798.6080322265625,802.2344360351562,779.2673950195312
1342,788.937744140625,797.3992919921875,802.6373901367188,783.6996459960938
1343,792.967041015625,794.981689453125,799.4139404296875,785.7142944335938
1344,795.7875366210938,795.7875366210938,799.010986328125,787.7289428710938
1345,796.996337890625,796.1904907226562,800.2197875976562,790.952392578125
1346,787.7289428710938,796.5933837890625,797.8021850585938,786.1171875
1347,786.5201416015625,798.2051391601562,791.7582397460938,790.5494384765625
1348,799.4139404296875,799.010986328125,790.952392578125,792.1611938476562
1349,801.025634765625,797.8021850585938,795.7875366210938,791.3552856445312
1350,795.3846435546875,797.3992919921875,796.5933837890625,794.1758422851562
1351,788.937744140625,800.6226806640625,797.8021850585938,794.5787353515625
1352,787.7289428710938,801.4285888671875,795.3846435546875,795.3846435546875
1353,795.7875366210938,801.025634765625,793.3699340820312,798.6080322265625
1354,801.025634765625,801.4285888671875,800.2197875976562,800.6226806640625
1355,798.2051391601562,798.6080322265625,801.4285888671875,796.1904907226562
1356,792.5640869140625,793.3699340820312,795.7875366210938,791.7582397460938
1357,794.1758422851562,794.981689453125,796.1904907226562,793.3699340820312
1358,794.5787353515625,795.7875366210938,796.1904907226562,797.3992919921875
1359,792.967041015625,794.1758422851562,794.1758422851562,796.5933837890625
1360,792.1611938476562,792.967041015625,794.981689453125,791.3552856445312
1361,787.7289428710938,787.7289428710938,796.1904907226562,789.3406372070312
1362,787.7289428710938,794.1758422851562,796.1904907226562,796.1904907226562
1363,793.3699340820312,801.4285888671875,798.6080322265625,794.5787353515625
1364,800.2197875976562,800.2197875976562,799.8168334960938,792.967041015625
1365,805.8607788085938,800.2197875976562,798.6080322265625,799.010986328125
1366,797.8021850585938,799.4139404296875,797.8021850585938,790.5494384765625
1367,793.3699340820312,799.010986328125,799.010986328125,783.2966918945312
1368,800.2197875976562,798.2051391601562,799.4139404296875,785.3113403320312
1369,809.4871826171875,797.3992919921875,803.4432373046875,788.937744140625
1370,815.1282348632812,798.6080322265625,801.8314819335938,793.7728881835938
1371,803.8461303710938,796.5933837890625,799.8168334960938,796.996337890625
1372,794.1758422851562,795.3846435546875,803.8461303710938,794.5787353515625
1373,796.996337890625,801.025634765625,803.4432373046875,799.4139404296875
1374,800.6226806640625,801.4285888671875,805.4578857421875,805.054931640625
1375,799.4139404296875,800.6226806640625,797.8021850585938,795.3846435546875
1376,809.4871826171875,799.8168334960938,797.8021850585938,790.1465454101562
1377,805.8607788085938,797.8021850585938,803.8461303710938,790.952392578125
1378,790.5494384765625,797.3992919921875,796.5933837890625,786.923095703125
1379,791.7582397460938,793.7728881835938,798.6080322265625,790.1465454101562
1380,786.1171875,795.7875366210938,800.6226806640625,794.981689453125
1381,784.5054931640625,801.4285888671875,796.5933837890625,792.1611938476562
1382,794.5787353515625,806.2637329101562,803.4432373046875,796.5933837890625
1383,794.5787353515625,804.6520385742188,807.87548828125,796.5933837890625
1384,796.1904907226562,803.4432373046875,803.8461303710938,797.3992919921875
1385,805.8607788085938,809.89013671875,798.2051391601562,802.6373901367188
1386,811.098876953125,806.2637329101562,793.3699340820312,795.3846435546875
1387,803.4432373046875,801.025634765625,792.967041015625,788.1318969726562
1388,792.5640869140625,803.040283203125,796.1904907226562,790.952392578125
1389,791.7582397460938,805.4578857421875,797.3992919921875,789.3406372070312
1390,794.1758422851562,805.054931640625,795.7875366210938,784.1025390625
1391,793.3699340820312,803.8461303710938,795.7875366210938,787.3259887695312
1392,792.1611938476562,799.8168334960938,793.3699340820312,792.967041015625
1393,793.3699340820312,797.8021850585938,794.981689453125,790.952392578125
1394,792.1611938476562,797.3992919921875,798.2051391601562,786.923095703125
1395,789.3406372070312,792.5640869140625,797.8021850585938,790.5494384765625
1396,798.2051391601562,794.981689453125,802.2344360351562,803.8461303710938
1397,795.7875366210938,794.1758422851562,802.2344360351562,800.6226806640625
1398,780.879150390625,791.3552856445312,801.025634765625,787.7289428710938
1399,781.2820434570312,796.5933837890625,803.4432373046875,785.3113403320312
1400,788.1318969726562,794.981689453125,804.6520385742188,784.908447265625
1401,787.7289428710938,797.3992919921875,802.2344360351562,787.3259887695312
1402,790.1465454101562,800.2197875976562,799.8168334960938,790.952392578125
1403,785.3113403320312,797.3992919921875,803.4432373046875,790.1465454101562
1404,784.5054931640625,794.981689453125,804.6520385742188,788.937744140625
1405,788.937744140625,794.1758422851562,802.6373901367188,793.7728881835938
1406,790.5494384765625,796.996337890625,799.8168334960938,791.3552856445312
1407,791.3552856445312,797.8021850585938,797.3992919921875,790.952392578125
1408,784.5054931640625,795.3846435546875,798.6080322265625,796.1904907226562
1409,785.3113403320312,791.7582397460938,796.5933837890625,794.5787353515625
1410,794.5787353515625,792.967041015625,792.967041015625,793.7728881835938
1411,792.1611938476562,795.7875366210938,793.3699340820312,794.5787353515625
1412,784.1025390625,791.7582397460938,794.5787353515625,790.952392578125
1413,781.2820434570312,791.7582397460938,794.1758422851562,790.5494384765625
1414,782.4908447265625,795.3846435546875,789.7435913085938,796.1904907226562
1415,786.1171875,792.5640869140625,786.923095703125,803.040283203125
1416,784.1025390625,786.923095703125,786.923095703125,791.7582397460938
1417,783.2966918945312,781.6849975585938,786.923095703125,783.2966918945312
1418,788.1318969726562,787.3259887695312,791.7582397460938,787.3259887695312
1419,790.1465454101562,786.1171875,794.5787353515625,791.3552856445312
1420,794.5787353515625,784.1025390625,792.967041015625,792.967041015625
1421,790.1465454101562,787.7289428710938,792.1611938476562,784.5054931640625
1422,789.7435913085938,783.2966918945312,793.7728881835938,784.1025390625
1423,793.7728881835938,784.5054931640625,789.7435913085938,784.908447265625
1424,794.1758422851562,789.3406372070312,792.5640869140625,791.7582397460938
1425,793.3699340820312,789.3406372070312,794.981689453125,794.5787353515625
1426,799.8168334960938,786.5201416015625,790.5494384765625,788.1318969726562
1427,799.4139404296875,785.7142944335938,791.3552856445312,782.893798828125
1428,790.952392578125,782.4908447265625,793.7728881835938,783.6996459960938
1429,778.05859375,783.6996459960938,792.5640869140625,790.5494384765625
1430,771.6116943359375,784.1025390625,790.1465454101562,789.3406372070312
1431,778.8644409179688,784.5054931640625,790.5494384765625,786.1171875
1432,777.6557006835938,788.5347900390625,793.7728881835938,784.1025390625
1433,782.087890625,792.967041015625,793.3699340820312,781.2820434570312
1434,792.5640869140625,796.1904907226562,792.5640869140625,782.087890625
1435,789.3406372070312,796.996337890625,793.3699340820312,782.087890625
1436,784.908447265625,792.1611938476562,791.3552856445312,775.6410522460938
1437,785.7142944335938,793.3699340820312,793.7728881835938,778.4615478515625
1438,778.4615478515625,792.5640869140625,793.7728881835938,783.2966918945312
1439,776.8497924804688,790.952392578125,790.1465454101562,784.1025390625
1440,782.4908447265625,793.7728881835938,791.3552856445312,783.6996459960938
1441,782.893798828125,794.981689453125,792.967041015625,778.05859375
1442,789.3406372070312,796.5933837890625,790.952392578125,784.5054931640625
1443,796.1904907226562,793.7728881835938,790.5494384765625,794.981689453125
1444,790.5494384765625,795.3846435546875,791.7582397460938,795.7875366210938
1445,788.5347900390625,797.8021850585938,797.3992919921875,794.5787353515625
1446,789.7435913085938,790.952392578125,796.5933837890625,791.7582397460938
1447,786.923095703125,792.967041015625,795.3846435546875,794.981689453125
1448,789.3406372070312,799.8168334960938,805.054931640625,803.040283203125
1449,799.4139404296875,800.6226806640625,805.8607788085938,802.6373901367188
1450,802.2344360351562,797.8021850585938,801.025634765625,794.981689453125
1451,799.4139404296875,797.8021850585938,800.6226806640625,794.1758422851562
1452,799.8168334960938,799.4139404296875,797.3992919921875,794.1758422851562
1453,796.1904907226562,787.3259887695312,796.1904907226562,790.1465454101562
1454,791.3552856445312,784.1025390625,790.5494384765625,788.5347900390625
1455,781.6849975585938,795.7875366210938,786.1171875,782.893798828125
1456,783.2966918945312,796.996337890625,790.1465454101562,780.4761962890625
1457,795.7875366210938,796.5933837890625,787.7289428710938,783.6996459960938
1458,795.3846435546875,794.981689453125,783.6996459960938,786.1171875
1459,794.981689453125,793.3699340820312,786.5201416015625,788.1318969726562
1460,800.6226806640625,796.5933837890625,787.3259887695312,786.5201416015625
1461,805.8607788085938,793.7728881835938,787.3259887695312,790.1465454101562
1462,805.4578857421875,790.952392578125,790.5494384765625,795.7875366210938
1463,795.3846435546875,794.5787353515625,786.1171875,789.3406372070312
1464,786.1171875,794.981689453125,782.4908447265625,789.3406372070312
1465,788.1318969726562,793.3699340820312,789.3406372070312,793.7728881835938
1466,796.996337890625,791.3552856445312,788.937744140625,796.1904907226562
1467,788.937744140625,788.5347900390625,788.5347900390625,793.7728881835938
1468,778.8644409179688,789.3406372070312,788.5347900390625,784.5054931640625
1469,794.1758422851562,791.7582397460938,787.3259887695312,794.1758422851562
1470,801.4285888671875,793.3699340820312,788.5347900390625,794.5787353515625
1471,790.5494384765625,796.5933837890625,787.7289428710938,787.3259887695312
1472,788.937744140625,794.1758422851562,790.952392578125,793.7728881835938
1473,799.010986328125,798.6080322265625,792.1611938476562,795.7875366210938
1474,797.3992919921875,800.6226806640625,790.1465454101562,786.923095703125
1475,787.7289428710938,796.1904907226562,794.981689453125,780.4761962890625
1476,790.5494384765625,796.5933837890625,794.5787353515625,789.7435913085938
1477,795.3846435546875,792.967041015625,789.3406372070312,795.3846435546875
1478,800.6226806640625,793.3699340820312,792.967041015625,793.7728881835938
1479,800.6226806640625,797.8021850585938,793.3699340820312,792.1611938476562
1480,801.4285888671875,794.1758422851562,793.7728881835938,795.3846435546875
1481,804.6520385742188,794.981689453125,799.010986328125,796.1904907226562
1482,799.4139404296875,793.7728881835938,800.2197875976562,794.5787353515625
1483,793.7728881835938,790.1465454101562,801.025634765625,796.5933837890625
1484,793.7728881835938,797.8021850585938,804.2490844726562,800.2197875976562
1485,796.1904907226562,798.2051391601562,807.069580078125,798.6080322265625
1486,792.1611938476562,791.3552856445312,803.4432373046875,792.5640869140625
1487,787.7289428710938,790.952392578125,805.4578857421875,795.3846435546875
1488,798.2051391601562,789.3406372070312,805.8607788085938,795.3846435546875
1489,801.4285888671875,786.5201416015625,799.4139404296875,794.5787353515625
1490,785.3113403320312,786.5201416015625,799.4139404296875,792.967041015625
1491,788.5347900390625,780.879150390625,799.8168334960938,788.5347900390625
1492,795.3846435546875,778.8644409179688,798.6080322265625,793.3699340820312
1493,785.3113403320312,788.1318969726562,802.2344360351562,795.7875366210938
1494,780.4761962890625,786.1171875,803.040283203125,790.1465454101562
1495,779.6703491210938,781.2820434570312,800.6226806640625,785.7142944335938
1496,777.6557006835938,785.3113403320312,800.6226806640625,781.6849975585938
1497,779.2673950195312,787.3259887695312,801.4285888671875,786.5201416015625
1498,781.2820434570312,790.1465454101562,800.2197875976562,789.7435913085938
1499,780.879150390625,786.1171875,796.5933837890625,784.5054931640625
1500,781.6849975585938,787.7289428710938,794.981689453125,784.5054931640625
1501,778.4615478515625,789.3406372070312,800.6226806640625,783.6996459960938
1502,774.8351440429688,786.923095703125,800.2197875976562,784.908447265625
1503,786.1171875,788.5347900390625,797.8021850585938,791.3552856445312
1504,790.952392578125,790.952392578125,801.8314819335938,799.010986328125
1505,780.4761962890625,790.952392578125,801.025634765625,793.7728881835938
1506,775.6410522460938,790.5494384765625,801.8314819335938,790.952392578125
1507,772.0146484375,788.937744140625,800.6226806640625,791.7582397460938
1508,774.4322509765625,790.1465454101562,796.5933837890625,787.3259887695312
1509,781.2820434570312,791.3552856445312,796.1904907226562,786.1171875
1510,786.1171875,788.937744140625,798.2051391601562,788.1318969726562
1511,796.1904907226562,788.937744140625,800.2197875976562,793.3699340820312
1512,796.1904907226562,787.7289428710938,801.4285888671875,795.3846435546875
1513,791.7582397460938,785.7142944335938,798.2051391601562,798.6080322265625
1514,790.5494384765625,782.893798828125,796.5933837890625,805.8607788085938
1515,784.1025390625,785.7142944335938,797.8021850585938,805.054931640625
1516,784.1025390625,789.7435913085938,797.8021850585938,789.7435913085938
1517,792.5640869140625,790.1465454101562,798.2051391601562,784.5054931640625
1518,794.1758422851562,789.7435913085938,799.010986328125,789.3406372070312
1519,782.893798828125,794.981689453125,799.4139404296875,800.6226806640625
1520,774.4322509765625,794.1758422851562,796.5933837890625,799.8168334960938
1521,780.879150390625,788.937744140625,796.5933837890625,789.7435913085938
1522,784.908447265625,786.923095703125,798.6080322265625,792.967041015625
1523,785.3113403320312,791.3552856445312,797.8021850585938,793.3699340820312
1524,784.5054931640625,788.937744140625,796.1904907226562,783.6996459960938
1525,778.4615478515625,784.908447265625,794.5787353515625,779.2673950195312
1526,774.029296875,784.908447265625,791.3552856445312,776.8497924804688
1527,778.8644409179688,787.3259887695312,784.1025390625,781.2820434570312
1528,778.8644409179688,791.3552856445312,786.923095703125,784.908447265625
1529,779.6703491210938,792.967041015625,792.5640869140625,782.4908447265625
1530,778.8644409179688,792.967041015625,792.1611938476562,781.6849975585938
1531,780.0732421875,795.7875366210938,791.3552856445312,782.087890625
1532,781.6849975585938,796.1904907226562,791.3552856445312,784.5054931640625
1533,784.1025390625,793.3699340820312,793.7728881835938,785.3113403320312
1534,795.7875366210938,796.1904907226562,794.5787353515625,792.1611938476562
1535,800.6226806640625,792.967041015625,793.3699340820312,795.3846435546875
1536,801.4285888671875,791.3552856445312,794.5787353515625,797.3992919921875
1537,796.1904907226562,796.996337890625,794.981689453125,798.2051391601562
1538,804.6520385742188,792.5640869140625,793.3699340820312,799.010986328125
1539,799.8168334960938,787.7289428710938,787.7289428710938,796.1904907226562
1540,797.3992919921875,789.3406372070312,786.923095703125,796.5933837890625
1541,805.8607788085938,794.1758422851562,784.908447265625,800.6226806640625
1542,784.908447265625,801.4285888671875,781.6849975585938,792.967041015625
1543,776.0439453125,797.3992919921875,790.1465454101562,792.1611938476562
1544,779.2673950195312,790.1465454101562,790.952392578125,788.1318969726562
1545,784.5054931640625,789.3406372070312,798.6080322265625,782.893798828125
1546,790.5494384765625,792.1611938476562,804.2490844726562,799.8168334960938
1547,795.3846435546875,796.1904907226562,796.996337890625,797.3992919921875
1548,799.8168334960938,796.5933837890625,799.010986328125,786.1171875
1549,805.4578857421875,791.3552856445312,796.5933837890625,782.087890625
1550,816.3369750976562,788.5347900390625,794.5787353515625,778.8644409179688
1551,804.2490844726562,793.7728881835938,794.1758422851562,784.1025390625
1552,796.996337890625,791.3552856445312,796.996337890625,783.2966918945312
1553,798.2051391601562,791.7582397460938,800.2197875976562,791.7582397460938
1554,775.6410522460938,796.1904907226562,802.2344360351562,803.8461303710938
1555,770.0,796.996337890625,802.2344360351562,794.981689453125
1556,774.4322509765625,796.996337890625,803.040283203125,789.3406372070312
1557,776.4468994140625,798.2051391601562,802.2344360351562,796.996337890625
1558,781.2820434570312,794.5787353515625,794.5787353515625,796.1904907226562
1559,792.5640869140625,789.3406372070312,795.3846435546875,788.5347900390625
1560,793.3699340820312,789.3406372070312,796.996337890625,790.952392578125
1561,779.6703491210938,790.952392578125,793.7728881835938,789.7435913085938
1562,776.8497924804688,791.7582397460938,792.1611938476562,786.923095703125
1563,789.3406372070312,793.7728881835938,796.996337890625,787.3259887695312
1564,800.2197875976562,796.5933837890625,799.010986328125,790.1465454101562
1565,799.010986328125,796.5933837890625,796.5933837890625,792.5640869140625
1566,789.7435913085938,800.6226806640625,800.2197875976562,794.981689453125
1567,782.893798828125,799.010986328125,801.8314819335938,794.1758422851562
1568,785.3113403320312,794.5787353515625,799.010986328125,786.5201416015625
1569,788.1318969726562,793.3699340820312,792.5640869140625,786.923095703125
1570,786.1171875,791.3552856445312,792.5640869140625,788.1318969726562
1571,799.4139404296875,791.3552856445312,800.2197875976562,790.5494384765625
1572,800.2197875976562,789.3406372070312,793.7728881835938,792.1611938476562
1573,785.3113403320312,786.5201416015625,789.3406372070312,785.7142944335938
1574,784.908447265625,791.7582397460938,788.937744140625,780.879150390625
1575,789.3406372070312,796.1904907226562,791.7582397460938,784.908447265625
1576,789.7435913085938,786.1171875,794.1758422851562,788.1318969726562
1577,784.5054931640625,781.2820434570312,788.937744140625,790.5494384765625
1578,778.8644409179688,790.952392578125,794.5787353515625,789.7435913085938
1579,783.2966918945312,791.3552856445312,797.3992919921875,795.7875366210938
1580,791.3552856445312,791.3552856445312,796.1904907226562,800.2197875976562
1581,794.981689453125,795.7875366210938,797.8021850585938,789.3406372070312
1582,798.2051391601562,800.6226806640625,800.6226806640625,787.7289428710938
1583,805.8607788085938,800.2197875976562,799.4139404296875,790.5494384765625
1584,803.040283203125,799.010986328125,799.8168334960938,798.2051391601562
1585,798.6080322265625,799.010986328125,805.054931640625,802.2344360351562
