timestamp,RAW_TP9,RAW_AF7,RAW_AF8,RAW_TP10
1,790.1465454101562,791.7582397460938,793.3699340820312,783.2966918945312
2,790.952392578125,792.967041015625,791.3552856445312,782.087890625
3,790.952392578125,792.1611938476562,792.5640869140625,781.6849975585938
4,792.5640869140625,796.5933837890625,791.7582397460938,783.6996459960938
5,791.7582397460938,791.3552856445312,789.3406372070312,784.908447265625
6,777.2527465820312,786.5201416015625,790.1465454101562,776.8497924804688
7,765.1648559570312,790.5494384765625,787.3259887695312,779.2673950195312
8,767.9853515625,787.7289428710938,790.5494384765625,789.3406372070312
9,772.4176025390625,787.3259887695312,790.5494384765625,782.087890625
10,767.9853515625,786.5201416015625,789.3406372070312,781.2820434570312
11,763.9560546875,781.2820434570312,790.5494384765625,784.5054931640625
12,770.0,782.087890625,790.5494384765625,784.908447265625
13,776.0439453125,785.3113403320312,791.7582397460938,787.3259887695312
14,782.087890625,783.6996459960938,792.967041015625,786.923095703125
15,789.3406372070312,787.7289428710938,797.8021850585938,784.5054931640625
16,791.7582397460938,789.7435913085938,800.2197875976562,782.4908447265625
17,790.5494384765625,787.3259887695312,797.3992919921875,780.4761962890625
18,790.5494384765625,784.908447265625,796.5933837890625,782.4908447265625
19,793.3699340820312,789.7435913085938,790.952392578125,784.5054931640625
20,794.1758422851562,793.7728881835938,790.5494384765625,776.0439453125
21,788.937744140625,792.5640869140625,794.5787353515625,776.0439453125
22,782.087890625,794.5787353515625,792.967041015625,780.0732421875
23,789.7435913085938,798.6080322265625,796.996337890625,784.1025390625
24,796.996337890625,799.010986328125,801.4285888671875,783.2966918945312
25,792.967041015625,792.967041015625,796.996337890625,782.087890625
26,791.3552856445312,792.967041015625,795.7875366210938,778.4615478515625
27,786.5201416015625,793.7728881835938,796.5933837890625,779.6703491210938
28,791.3552856445312,784.5054931640625,793.3699340820312,786.5201416015625
29,799.010986328125,784.5054931640625,790.5494384765625,785.7142944335938
30,789.7435913085938,785.3113403320312,790.5494384765625,782.893798828125
31,788.1318969726562,782.087890625,791.7582397460938,774.4322509765625
32,798.2051391601562,788.1318969726562,790.1465454101562,773.2234497070312
33,796.1904907226562,786.1171875,786.1171875,777.2527465820312
34,780.0732421875,780.0732421875,784.5054931640625,779.2673950195312
35,773.2234497070312,784.908447265625,783.6996459960938,779.2673950195312
36,768.7911987304688,780.0732421875,782.4908447265625,776.8497924804688
37,767.1795043945312,779.2673950195312,786.923095703125,775.2380981445312
38,767.1795043945312,784.1025390625,788.1318969726562,774.8351440429688
39,766.3735961914062,784.1025390625,786.1171875,778.8644409179688
40,770.0,784.1025390625,788.5347900390625,784.1025390625
41,776.0439453125,788.5347900390625,790.5494384765625,784.1025390625
42,778.8644409179688,789.7435913085938,787.7289428710938,780.4761962890625
43,783.2966918945312,786.923095703125,785.3113403320312,783.6996459960938
44,791.7582397460938,788.1318969726562,788.937744140625,782.4908447265625
45,793.7728881835938,788.5347900390625,795.3846435546875,784.908447265625
46,789.3406372070312,784.5054931640625,793.3699340820312,792.1611938476562
47,786.1171875,784.5054931640625,791.3552856445312,786.1171875
48,780.879150390625,789.3406372070312,790.1465454101562,781.6849975585938
49,783.6996459960938,788.5347900390625,790.1465454101562,781.6849975585938
50,785.7142944335938,789.3406372070312,789.7435913085938,779.6703491210938
51,783.6996459960938,790.1465454101562,787.3259887695312,775.6410522460938
52,784.908447265625,784.1025390625,790.1465454101562,774.029296875
53,781.6849975585938,781.2820434570312,792.967041015625,775.2380981445312
54,776.0439453125,789.3406372070312,792.1611938476562,776.8497924804688
55,780.0732421875,796.996337890625,792.1611938476562,775.2380981445312
56,787.3259887695312,798.6080322265625,793.3699340820312,776.0439453125
57,782.893798828125,791.3552856445312,792.1611938476562,784.1025390625
58,774.8351440429688,784.1025390625,790.5494384765625,779.2673950195312
59,772.4176025390625,784.1025390625,792.1611938476562,776.4468994140625
60,773.6264038085938,782.087890625,792.967041015625,780.879150390625
61,775.6410522460938,782.087890625,789.3406372070312,781.6849975585938
62,776.8497924804688,781.6849975585938,785.7142944335938,781.6849975585938
63,780.0732421875,780.4761962890625,787.3259887695312,784.1025390625
64,784.908447265625,781.2820434570312,791.3552856445312,789.3406372070312
65,790.952392578125,786.5201416015625,791.7582397460938,791.7582397460938
66,792.1611938476562,782.4908447265625,788.5347900390625,789.3406372070312
67,788.937744140625,781.6849975585938,788.5347900390625,787.7289428710938
68,790.1465454101562,784.1025390625,792.5640869140625,784.908447265625
69,793.7728881835938,784.908447265625,794.981689453125,788.937744140625
70,797.8021850585938,787.7289428710938,799.4139404296875,791.7582397460938
71,803.8461303710938,786.923095703125,799.8168334960938,796.1904907226562
72,799.010986328125,786.5201416015625,796.5933837890625,793.3699340820312
73,798.2051391601562,790.1465454101562,798.2051391601562,790.952392578125
74,801.025634765625,794.5787353515625,802.6373901367188,796.996337890625
75,799.8168334960938,792.967041015625,799.4139404296875,796.996337890625
76,797.3992919921875,795.3846435546875,794.981689453125,798.6080322265625
77,794.1758422851562,799.010986328125,791.7582397460938,794.1758422851562
78,791.7582397460938,791.7582397460938,786.923095703125,790.952392578125
79,790.952392578125,785.3113403320312,786.5201416015625,790.1465454101562
80,791.3552856445312,781.6849975585938,782.4908447265625,785.3113403320312
81,792.967041015625,783.6996459960938,783.6996459960938,789.7435913085938
82,791.7582397460938,787.3259887695312,788.937744140625,792.1611938476562
83,793.3699340820312,787.3259887695312,788.1318969726562,788.1318969726562
84,791.7582397460938,793.3699340820312,792.1611938476562,786.5201416015625
85,790.5494384765625,790.952392578125,792.1611938476562,785.7142944335938
86,792.1611938476562,781.2820434570312,785.7142944335938,784.908447265625
87,790.952392578125,778.4615478515625,787.7289428710938,786.923095703125
88,785.3113403320312,782.893798828125,790.952392578125,786.5201416015625
89,782.087890625,785.7142944335938,791.3552856445312,785.7142944335938
90,784.908447265625,785.3113403320312,795.7875366210938,789.7435913085938
91,782.4908447265625,786.5201416015625,799.010986328125,792.5640869140625
92,784.1025390625,783.2966918945312,796.5933837890625,790.952392578125
93,787.7289428710938,781.2820434570312,796.5933837890625,785.3113403320312
94,788.1318969726562,782.087890625,801.4285888671875,783.2966918945312
95,791.7582397460938,782.4908447265625,799.010986328125,791.7582397460938
96,794.981689453125,779.6703491210938,797.3992919921875,796.1904907226562
97,795.7875366210938,787.3259887695312,799.8168334960938,787.7289428710938
98,791.7582397460938,791.3552856445312,797.8021850585938,786.5201416015625
99,786.923095703125,788.1318969726562,796.5933837890625,790.952392578125
100,787.3259887695312,792.5640869140625,799.010986328125,794.1758422851562
101,790.5494384765625,798.6080322265625,795.7875366210938,797.3992919921875
102,792.967041015625,799.010986328125,793.3699340820312,794.1758422851562
103,792.5640869140625,794.5787353515625,793.7728881835938,799.8168334960938
104,787.3259887695312,791.3552856445312,789.7435913085938,796.996337890625
105,785.3113403320312,794.5787353515625,791.3552856445312,788.5347900390625
106,788.937744140625,797.3992919921875,794.981689453125,787.3259887695312
107,788.5347900390625,796.5933837890625,791.7582397460938,789.3406372070312
108,785.7142944335938,799.4139404296875,791.7582397460938,784.908447265625
109,783.2966918945312,801.4285888671875,796.996337890625,774.4322509765625
110,778.05859375,802.2344360351562,795.3846435546875,776.4468994140625
111,775.2380981445312,802.6373901367188,787.7289428710938,776.8497924804688
112,775.6410522460938,794.981689453125,784.5054931640625,768.3883056640625
113,780.879150390625,791.3552856445312,781.2820434570312,767.1795043945312
114,787.7289428710938,796.5933837890625,782.087890625,774.8351440429688
115,783.6996459960938,794.5787353515625,788.937744140625,780.0732421875
116,784.1025390625,799.4139404296875,788.937744140625,784.1025390625
117,786.923095703125,801.025634765625,789.7435913085938,783.6996459960938
118,780.879150390625,793.3699340820312,790.1465454101562,784.908447265625
119,782.087890625,795.3846435546875,788.1318969726562,786.1171875
120,784.5054931640625,799.4139404296875,786.1171875,785.7142944335938
121,785.3113403320312,798.6080322265625,787.3259887695312,787.7289428710938
122,785.7142944335938,798.2051391601562,789.7435913085938,787.3259887695312
123,785.3113403320312,797.3992919921875,791.3552856445312,791.7582397460938
124,788.5347900390625,800.2197875976562,798.2051391601562,795.3846435546875
125,793.3699340820312,794.1758422851562,796.996337890625,796.996337890625
126,796.996337890625,792.967041015625,793.3699340820312,797.8021850585938
127,793.7728881835938,796.5933837890625,790.952392578125,794.1758422851562
128,793.3699340820312,796.1904907226562,786.923095703125,789.3406372070312
129,801.025634765625,800.6226806640625,788.1318969726562,794.1758422851562
130,799.4139404296875,800.2197875976562,789.3406372070312,801.025634765625
131,799.4139404296875,796.5933837890625,793.3699340820312,792.5640869140625
132,800.6226806640625,798.6080322265625,798.6080322265625,791.3552856445312
133,797.8021850585938,799.8168334960938,793.7728881835938,793.7728881835938
134,789.7435913085938,795.3846435546875,788.937744140625,788.5347900390625
135,785.3113403320312,788.937744140625,786.1171875,784.908447265625
136,786.5201416015625,788.5347900390625,783.2966918945312,789.3406372070312
137,790.952392578125,787.7289428710938,784.908447265625,789.7435913085938
138,797.3992919921875,793.3699340820312,786.923095703125,786.5201416015625
139,794.5787353515625,799.4139404296875,788.937744140625,788.5347900390625
140,789.7435913085938,799.010986328125,787.3259887695312,787.7289428710938
141,796.1904907226562,797.3992919921875,784.5054931640625,785.7142944335938
142,797.8021850585938,797.3992919921875,787.3259887695312,791.7582397460938
143,795.3846435546875,796.5933837890625,789.7435913085938,794.981689453125
144,792.967041015625,791.7582397460938,788.1318969726562,793.3699340820312
145,793.7728881835938,790.1465454101562,787.3259887695312,794.1758422851562
146,795.3846435546875,788.937744140625,791.7582397460938,797.8021850585938
147,796.996337890625,790.5494384765625,794.1758422851562,801.8314819335938
148,798.2051391601562,790.952392578125,794.1758422851562,797.8021850585938
149,793.7728881835938,793.7728881835938,793.3699340820312,794.1758422851562
150,791.3552856445312,794.981689453125,793.3699340820312,791.3552856445312
151,791.3552856445312,798.2051391601562,791.3552856445312,789.7435913085938
152,796.1904907226562,800.2197875976562,794.5787353515625,793.7728881835938
153,795.3846435546875,796.1904907226562,793.7728881835938,798.6080322265625
154,790.5494384765625,793.3699340820312,790.952392578125,792.1611938476562
155,788.5347900390625,785.7142944335938,791.7582397460938,787.7289428710938
156,787.7289428710938,785.7142944335938,794.5787353515625,792.1611938476562
157,788.937744140625,792.1611938476562,797.3992919921875,792.967041015625
158,794.1758422851562,794.981689453125,794.5787353515625,788.1318969726562
159,796.1904907226562,794.1758422851562,791.3552856445312,788.1318969726562
160,792.5640869140625,786.5201416015625,789.3406372070312,787.3259887695312
161,796.996337890625,784.5054931640625,792.5640869140625,787.3259887695312
162,797.8021850585938,786.1171875,792.1611938476562,786.5201416015625
163,792.1611938476562,785.7142944335938,783.6996459960938,778.05859375
164,791.3552856445312,786.1171875,784.5054931640625,786.1171875
165,785.3113403320312,786.923095703125,788.1318969726562,794.981689453125
166,782.893798828125,788.5347900390625,791.3552856445312,787.3259887695312
167,790.1465454101562,787.7289428710938,789.3406372070312,781.2820434570312
168,791.7582397460938,788.5347900390625,789.7435913085938,784.908447265625
169,786.923095703125,791.7582397460938,793.7728881835938,787.7289428710938
170,785.7142944335938,794.5787353515625,793.3699340820312,781.2820434570312
171,788.937744140625,795.7875366210938,789.3406372070312,784.908447265625
172,788.937744140625,795.3846435546875,790.952392578125,787.7289428710938
173,790.5494384765625,793.7728881835938,792.1611938476562,787.3259887695312
174,791.3552856445312,786.1171875,791.3552856445312,790.952392578125
175,781.2820434570312,782.4908447265625,789.3406372070312,785.3113403320312
176,776.0439453125,787.7289428710938,786.923095703125,786.1171875
177,776.8497924804688,787.7289428710938,788.1318969726562,789.3406372070312
178,778.8644409179688,786.923095703125,786.1171875,781.6849975585938
179,776.0439453125,794.1758422851562,788.5347900390625,781.2820434570312
180,772.0146484375,797.8021850585938,788.1318969726562,778.4615478515625
181,775.6410522460938,797.8021850585938,788.1318969726562,776.0439453125
182,778.8644409179688,800.2197875976562,790.952392578125,775.6410522460938
183,783.6996459960938,802.2344360351562,790.5494384765625,773.2234497070312
184,786.923095703125,798.6080322265625,792.1611938476562,778.4615478515625
185,780.879150390625,794.5787353515625,789.7435913085938,774.029296875
186,780.879150390625,793.3699340820312,786.5201416015625,769.1941528320312
187,783.2966918945312,789.3406372070312,784.1025390625,776.4468994140625
188,790.952392578125,786.5201416015625,786.5201416015625,784.908447265625
189,797.3992919921875,788.937744140625,790.5494384765625,783.2966918945312
190,795.3846435546875,788.5347900390625,791.7582397460938,779.6703491210938
191,790.1465454101562,784.1025390625,790.5494384765625,784.908447265625
192,783.6996459960938,782.087890625,792.1611938476562,784.908447265625
193,790.1465454101562,783.6996459960938,794.981689453125,784.1025390625
194,796.5933837890625,783.6996459960938,794.1758422851562,790.1465454101562
195,793.7728881835938,783.6996459960938,796.996337890625,792.967041015625
196,790.952392578125,787.7289428710938,799.4139404296875,793.3699340820312
197,793.3699340820312,790.1465454101562,798.6080322265625,795.7875366210938
198,794.5787353515625,790.952392578125,801.4285888671875,800.2197875976562
199,796.5933837890625,793.7728881835938,801.8314819335938,806.2637329101562
200,798.2051391601562,795.7875366210938,803.040283203125,805.4578857421875
201,795.7875366210938,796.5933837890625,804.2490844726562,800.2197875976562
202,792.5640869140625,793.7728881835938,803.4432373046875,801.025634765625
203,788.937744140625,790.952392578125,799.8168334960938,790.1465454101562
204,786.1171875,789.7435913085938,794.981689453125,778.8644409179688
205,786.5201416015625,792.5640869140625,797.8021850585938,782.087890625
206,788.5347900390625,796.996337890625,799.8168334960938,780.879150390625
207,783.6996459960938,793.3699340820312,798.6080322265625,776.4468994140625
208,780.879150390625,794.5787353515625,797.8021850585938,777.6557006835938
209,790.1465454101562,797.8021850585938,795.3846435546875,778.05859375
210,796.1904907226562,796.1904907226562,794.981689453125,779.6703491210938
211,785.3113403320312,793.3699340820312,792.967041015625,782.893798828125
212,782.087890625,793.7728881835938,792.967041015625,789.7435913085938
213,789.7435913085938,794.1758422851562,791.7582397460938,790.952392578125
214,794.1758422851562,790.1465454101562,793.7728881835938,792.967041015625
215,790.952392578125,789.7435913085938,797.8021850585938,796.1904907226562
216,789.3406372070312,794.5787353515625,795.7875366210938,792.967041015625
217,788.1318969726562,799.4139404296875,800.6226806640625,791.7582397460938
218,785.7142944335938,798.2051391601562,805.054931640625,794.5787353515625
219,790.5494384765625,796.5933837890625,801.4285888671875,796.5933837890625
220,785.7142944335938,789.3406372070312,799.010986328125,784.908447265625
221,780.4761962890625,783.6996459960938,796.996337890625,784.908447265625
222,780.0732421875,786.923095703125,795.7875366210938,782.4908447265625
223,783.2966918945312,788.5347900390625,798.2051391601562,781.2820434570312
224,785.3113403320312,784.1025390625,801.4285888671875,786.5201416015625
225,786.5201416015625,790.1465454101562,800.2197875976562,788.5347900390625
226,788.937744140625,798.6080322265625,798.6080322265625,794.981689453125
227,788.937744140625,794.981689453125,799.010986328125,788.5347900390625
228,788.1318969726562,791.7582397460938,797.3992919921875,790.1465454101562
229,791.7582397460938,788.1318969726562,795.7875366210938,793.7728881835938
230,797.8021850585938,787.3259887695312,795.7875366210938,790.952392578125
231,795.3846435546875,792.5640869140625,795.3846435546875,790.1465454101562
232,789.7435913085938,793.3699340820312,798.2051391601562,785.3113403320312
233,792.967041015625,787.7289428710938,798.6080322265625,790.952392578125
234,797.8021850585938,793.3699340820312,799.4139404296875,799.8168334960938
235,794.981689453125,794.1758422851562,797.3992919921875,796.5933837890625
236,793.7728881835938,789.7435913085938,794.1758422851562,791.7582397460938
237,791.3552856445312,790.952392578125,796.996337890625,790.952392578125
238,792.1611938476562,792.5640869140625,795.3846435546875,792.1611938476562
239,792.1611938476562,794.981689453125,798.2051391601562,787.7289428710938
240,786.923095703125,791.7582397460938,799.010986328125,786.923095703125
241,788.937744140625,791.7582397460938,794.5787353515625,788.1318969726562
242,784.908447265625,791.3552856445312,791.7582397460938,786.923095703125
243,776.4468994140625,788.1318969726562,793.7728881835938,789.3406372070312
244,775.2380981445312,786.923095703125,799.4139404296875,786.923095703125
245,781.2820434570312,786.1171875,796.5933837890625,785.7142944335938
246,776.8497924804688,792.5640869140625,794.5787353515625,786.5201416015625
247,771.6116943359375,792.1611938476562,794.981689453125,782.087890625
248,776.8497924804688,788.5347900390625,793.7728881835938,777.6557006835938
249,784.1025390625,793.3699340820312,789.3406372070312,786.923095703125
250,789.3406372070312,791.7582397460938,790.952392578125,784.908447265625
251,793.3699340820312,790.1465454101562,791.3552856445312,780.4761962890625
252,788.5347900390625,789.7435913085938,796.5933837890625,787.7289428710938
253,785.3113403320312,791.7582397460938,800.2197875976562,792.1611938476562
254,788.1318969726562,794.981689453125,791.7582397460938,790.952392578125
255,790.952392578125,791.7582397460938,791.7582397460938,791.3552856445312
256,793.7728881835938,790.1465454101562,794.1758422851562,793.3699340820312
257,792.967041015625,786.1171875,795.7875366210938,788.937744140625
258,795.7875366210938,788.5347900390625,797.3992919921875,789.7435913085938
259,795.3846435546875,791.7582397460938,792.5640869140625,790.1465454101562
260,799.8168334960938,784.908447265625,795.3846435546875,793.7728881835938
261,801.8314819335938,781.2820434570312,801.4285888671875,802.2344360351562
262,796.996337890625,792.1611938476562,801.025634765625,789.3406372070312
263,792.967041015625,798.6080322265625,800.2197875976562,783.6996459960938
264,786.923095703125,794.1758422851562,802.6373901367188,792.967041015625
265,784.5054931640625,792.1611938476562,802.6373901367188,792.1611938476562
266,785.3113403320312,790.1465454101562,801.025634765625,788.937744140625
267,782.4908447265625,785.7142944335938,794.5787353515625,780.879150390625
268,784.1025390625,788.1318969726562,793.3699340820312,784.5054931640625
269,788.5347900390625,794.5787353515625,792.5640869140625,794.5787353515625
270,791.3552856445312,792.5640869140625,790.952392578125,797.8021850585938
271,793.7728881835938,794.5787353515625,793.7728881835938,799.8168334960938
272,789.7435913085938,795.7875366210938,793.7728881835938,798.6080322265625
273,791.3552856445312,794.1758422851562,796.996337890625,794.1758422851562
274,795.3846435546875,796.1904907226562,794.1758422851562,790.1465454101562
275,799.4139404296875,796.996337890625,795.3846435546875,799.8168334960938
276,800.6226806640625,791.3552856445312,799.8168334960938,803.040283203125
277,795.7875366210938,787.3259887695312,799.010986328125,797.3992919921875
278,792.5640869140625,792.967041015625,798.2051391601562,794.1758422851562
279,792.967041015625,790.5494384765625,799.4139404296875,786.5201416015625
280,796.5933837890625,785.7142944335938,800.6226806640625,788.5347900390625
281,797.3992919921875,787.3259887695312,798.2051391601562,790.952392578125
282,794.981689453125,790.5494384765625,795.3846435546875,788.1318969726562
283,793.3699340820312,788.5347900390625,796.996337890625,792.1611938476562
284,789.7435913085938,785.3113403320312,795.3846435546875,797.3992919921875
285,788.1318969726562,792.1611938476562,790.1465454101562,794.1758422851562
286,787.7289428710938,795.7875366210938,791.3552856445312,789.3406372070312
287,788.1318969726562,794.981689453125,794.981689453125,790.5494384765625
288,788.1318969726562,790.5494384765625,797.3992919921875,789.7435913085938
289,783.6996459960938,791.3552856445312,798.2051391601562,790.1465454101562
290,778.8644409179688,791.3552856445312,795.7875366210938,785.7142944335938
291,780.4761962890625,789.3406372070312,793.7728881835938,783.2966918945312
292,785.7142944335938,790.5494384765625,793.7728881835938,787.7289428710938
293,782.893798828125,788.1318969726562,796.996337890625,796.996337890625
294,775.2380981445312,786.1171875,795.7875366210938,791.3552856445312
295,774.8351440429688,787.3259887695312,792.1611938476562,786.923095703125
296,785.3113403320312,790.1465454101562,795.7875366210938,789.3406372070312
297,790.952392578125,793.3699340820312,794.5787353515625,788.937744140625
298,795.7875366210938,795.7875366210938,792.967041015625,799.010986328125
299,799.8168334960938,800.2197875976562,795.3846435546875,798.6080322265625
300,794.981689453125,797.8021850585938,793.3699340820312,790.952392578125
301,791.3552856445312,800.2197875976562,799.8168334960938,793.7728881835938
302,790.5494384765625,803.8461303710938,802.6373901367188,792.5640869140625
303,785.7142944335938,794.5787353515625,792.5640869140625,785.7142944335938
304,782.893798828125,790.5494384765625,784.908447265625,782.893798828125
305,789.3406372070312,797.3992919921875,783.6996459960938,785.3113403320312
306,796.996337890625,801.8314819335938,783.6996459960938,786.923095703125
307,798.6080322265625,801.8314819335938,779.6703491210938,785.3113403320312
308,795.7875366210938,794.981689453125,782.893798828125,784.908447265625
309,797.3992919921875,790.952392578125,779.6703491210938,782.893798828125
310,809.084228515625,794.981689453125,779.2673950195312,785.7142944335938
311,817.5457763671875,801.025634765625,787.3259887695312,791.3552856445312
312,820.7692260742188,802.6373901367188,790.1465454101562,791.3552856445312
313,815.1282348632812,796.1904907226562,786.5201416015625,785.7142944335938
314,806.2637329101562,792.1611938476562,786.1171875,788.5347900390625
315,799.8168334960938,798.6080322265625,794.5787353515625,793.3699340820312
316,801.025634765625,799.8168334960938,799.4139404296875,798.2051391601562
317,805.8607788085938,796.5933837890625,796.5933837890625,804.2490844726562
318,800.6226806640625,790.1465454101562,794.1758422851562,808.6813354492188
319,791.3552856445312,790.1465454101562,792.967041015625,809.084228515625
320,788.1318969726562,797.3992919921875,791.7582397460938,803.8461303710938
321,790.952392578125,792.5640869140625,795.3846435546875,803.8461303710938
322,785.7142944335938,785.7142944335938,794.5787353515625,800.2197875976562
323,785.7142944335938,783.6996459960938,792.967041015625,794.5787353515625
324,784.908447265625,782.087890625,797.3992919921875,794.1758422851562
325,780.879150390625,783.2966918945312,794.5787353515625,791.3552856445312
326,788.1318969726562,788.5347900390625,793.3699340820312,786.923095703125
327,788.937744140625,794.1758422851562,794.981689453125,784.908447265625
328,787.3259887695312,788.5347900390625,792.5640869140625,787.3259887695312
329,790.1465454101562,786.1171875,795.3846435546875,792.967041015625
330,796.1904907226562,785.3113403320312,798.2051391601562,792.5640869140625
331,798.2051391601562,790.1465454101562,796.996337890625,790.952392578125
332,788.5347900390625,794.5787353515625,794.1758422851562,786.923095703125
333,788.1318969726562,790.1465454101562,791.3552856445312,788.5347900390625
334,797.3992919921875,791.7582397460938,794.981689453125,795.3846435546875
335,794.1758422851562,790.952392578125,798.2051391601562,787.3259887695312
336,790.1465454101562,788.937744140625,796.5933837890625,788.937744140625
337,795.7875366210938,789.3406372070312,790.5494384765625,792.967041015625
338,791.3552856445312,787.3259887695312,786.1171875,786.1171875
339,786.5201416015625,792.967041015625,786.5201416015625,783.6996459960938
340,785.3113403320312,792.5640869140625,788.5347900390625,785.7142944335938
341,783.6996459960938,786.923095703125,791.3552856445312,790.952392578125
342,785.3113403320312,792.967041015625,798.2051391601562,794.1758422851562
343,783.6996459960938,790.1465454101562,801.8314819335938,790.952392578125
344,777.6557006835938,783.2966918945312,795.3846435546875,784.1025390625
345,779.6703491210938,781.2820434570312,788.937744140625,786.5201416015625
346,788.5347900390625,785.7142944335938,792.5640869140625,794.1758422851562
347,786.923095703125,781.6849975585938,793.7728881835938,784.5054931640625
348,780.0732421875,777.2527465820312,792.967041015625,779.2673950195312
349,778.4615478515625,780.0732421875,792.1611938476562,778.8644409179688
350,780.0732421875,777.2527465820312,792.967041015625,775.6410522460938
351,783.6996459960938,780.879150390625,792.967041015625,774.8351440429688
352,784.908447265625,788.1318969726562,790.952392578125,778.4615478515625
353,793.3699340820312,787.3259887695312,793.3699340820312,782.893798828125
354,796.996337890625,793.3699340820312,792.1611938476562,781.6849975585938
355,788.1318969726562,799.4139404296875,788.937744140625,781.2820434570312
356,788.5347900390625,800.2197875976562,790.952392578125,785.3113403320312
357,793.7728881835938,797.8021850585938,788.5347900390625,790.1465454101562
358,796.1904907226562,798.2051391601562,782.087890625,786.5201416015625
359,796.5933837890625,796.996337890625,783.6996459960938,784.5054931640625
360,796.5933837890625,794.981689453125,786.923095703125,790.952392578125
361,799.8168334960938,794.981689453125,789.7435913085938,789.7435913085938
362,803.8461303710938,794.981689453125,794.981689453125,788.937744140625
363,805.8607788085938,790.952392578125,792.5640869140625,787.3259887695312
364,803.040283203125,790.952392578125,789.7435913085938,786.923095703125
365,795.3846435546875,790.1465454101562,791.3552856445312,788.937744140625
366,790.1465454101562,788.937744140625,794.1758422851562,786.5201416015625
367,786.1171875,792.5640869140625,794.981689453125,786.923095703125
368,787.3259887695312,793.7728881835938,796.5933837890625,794.5787353515625
369,787.3259887695312,788.1318969726562,799.4139404296875,794.1758422851562
370,776.0439453125,783.2966918945312,793.7728881835938,785.3113403320312
371,767.1795043945312,776.0439453125,791.7582397460938,781.6849975585938
372,770.4029541015625,772.0146484375,796.1904907226562,786.1171875
373,776.0439453125,780.4761962890625,797.8021850585938,790.5494384765625
374,773.2234497070312,784.1025390625,796.996337890625,788.1318969726562
375,773.6264038085938,782.893798828125,797.8021850585938,788.1318969726562
376,776.4468994140625,780.879150390625,796.996337890625,794.1758422851562
377,772.4176025390625,785.7142944335938,792.967041015625,795.3846435546875
378,769.1941528320312,789.7435913085938,790.5494384765625,793.3699340820312
379,772.4176025390625,784.1025390625,789.3406372070312,791.7582397460938
380,780.879150390625,783.6996459960938,790.952392578125,796.5933837890625
381,786.1171875,787.7289428710938,791.3552856445312,792.967041015625
382,788.5347900390625,789.3406372070312,792.5640869140625,790.5494384765625
383,795.3846435546875,790.5494384765625,792.967041015625,795.7875366210938
384,799.8168334960938,791.7582397460938,791.7582397460938,794.5787353515625
385,801.025634765625,790.5494384765625,792.5640869140625,791.3552856445312
386,802.6373901367188,791.3552856445312,795.7875366210938,789.3406372070312
387,807.4725341796875,797.8021850585938,795.3846435546875,797.3992919921875
388,806.6666870117188,796.5933837890625,798.2051391601562,796.996337890625
389,806.2637329101562,793.7728881835938,798.6080322265625,794.5787353515625
390,806.2637329101562,792.967041015625,796.5933837890625,796.1904907226562
391,798.2051391601562,792.967041015625,793.7728881835938,802.2344360351562
392,795.3846435546875,794.981689453125,794.981689453125,804.6520385742188
393,798.2051391601562,796.996337890625,797.8021850585938,801.8314819335938
394,797.3992919921875,794.981689453125,796.5933837890625,803.8461303710938
395,795.3846435546875,793.7728881835938,794.1758422851562,801.4285888671875
396,799.010986328125,795.7875366210938,796.1904907226562,800.6226806640625
397,796.5933837890625,798.2051391601562,794.5787353515625,792.967041015625
398,791.3552856445312,796.1904907226562,789.7435913085938,789.7435913085938
399,794.1758422851562,792.967041015625,790.952392578125,794.1758422851562
400,793.3699340820312,796.5933837890625,788.937744140625,790.5494384765625
401,788.5347900390625,794.5787353515625,788.1318969726562,781.6849975585938
402,791.7582397460938,792.5640869140625,792.1611938476562,781.2820434570312
403,797.3992919921875,792.1611938476562,788.937744140625,786.923095703125
404,794.5787353515625,788.1318969726562,784.908447265625,783.6996459960938
405,797.3992919921875,790.1465454101562,787.3259887695312,780.4761962890625
406,793.3699340820312,790.1465454101562,786.1171875,772.8204956054688
407,785.3113403320312,789.7435913085938,786.1171875,770.0
408,792.1611938476562,792.5640869140625,791.3552856445312,772.0146484375
409,796.1904907226562,794.1758422851562,791.3552856445312,771.6116943359375
410,791.3552856445312,794.1758422851562,787.3259887695312,777.2527465820312
411,792.967041015625,797.8021850585938,789.3406372070312,780.4761962890625
412,792.1611938476562,794.5787353515625,792.5640869140625,782.893798828125
413,788.937744140625,788.1318969726562,790.1465454101562,790.5494384765625
414,798.6080322265625,794.1758422851562,792.1611938476562,796.996337890625
415,800.2197875976562,796.5933837890625,794.1758422851562,793.3699340820312
416,794.1758422851562,796.1904907226562,792.967041015625,790.5494384765625
417,799.4139404296875,798.2051391601562,793.7728881835938,792.1611938476562
418,803.8461303710938,796.1904907226562,792.967041015625,799.4139404296875
419,801.4285888671875,796.1904907226562,789.7435913085938,800.6226806640625
420,798.2051391601562,796.996337890625,790.952392578125,796.996337890625
421,796.5933837890625,796.1904907226562,798.2051391601562,801.025634765625
422,798.6080322265625,796.1904907226562,796.996337890625,797.8021850585938
423,803.8461303710938,797.3992919921875,795.7875366210938,799.4139404296875
424,799.010986328125,800.6226806640625,792.1611938476562,800.2197875976562
425,792.5640869140625,796.1904907226562,789.7435913085938,790.5494384765625
426,795.7875366210938,793.7728881835938,793.3699340820312,786.5201416015625
427,799.4139404296875,800.2197875976562,789.3406372070312,787.7289428710938
428,805.054931640625,805.8607788085938,796.1904907226562,796.1904907226562
429,809.89013671875,805.054931640625,804.2490844726562,802.6373901367188
430,801.025634765625,800.6226806640625,795.7875366210938,798.2051391601562
431,792.1611938476562,798.6080322265625,788.937744140625,788.937744140625
432,785.7142944335938,798.2051391601562,786.5201416015625,785.7142944335938
433,786.5201416015625,795.7875366210938,786.1171875,788.1318969726562
434,787.3259887695312,795.3846435546875,788.937744140625,786.1171875
435,786.923095703125,795.3846435546875,789.7435913085938,785.3113403320312
436,788.937744140625,796.5933837890625,791.3552856445312,784.1025390625
437,792.5640869140625,793.3699340820312,791.3552856445312,782.893798828125
438,794.5787353515625,789.7435913085938,789.3406372070312,789.7435913085938
439,794.981689453125,792.1611938476562,787.7289428710938,789.7435913085938
440,798.6080322265625,793.7728881835938,790.5494384765625,790.1465454101562
441,796.5933837890625,792.967041015625,791.3552856445312,796.5933837890625
442,796.996337890625,792.967041015625,789.3406372070312,796.5933837890625
443,798.2051391601562,789.7435913085938,788.937744140625,789.7435913085938
444,796.1904907226562,789.3406372070312,790.5494384765625,790.1465454101562
445,795.7875366210938,791.7582397460938,793.7728881835938,798.2051391601562
446,795.7875366210938,792.967041015625,796.1904907226562,797.3992919921875
447,791.7582397460938,794.5787353515625,797.3992919921875,793.7728881835938
448,789.3406372070312,794.5787353515625,802.2344360351562,797.3992919921875
449,787.3259887695312,794.5787353515625,802.6373901367188,798.2051391601562
450,787.3259887695312,795.7875366210938,804.6520385742188,795.7875366210938
451,791.3552856445312,795.7875366210938,803.4432373046875,794.5787353515625
452,795.3846435546875,794.5787353515625,805.054931640625,797.8021850585938
453,796.5933837890625,798.2051391601562,805.8607788085938,800.6226806640625
454,793.7728881835938,796.5933837890625,802.6373901367188,787.7289428710938
455,787.3259887695312,790.952392578125,801.025634765625,782.4908447265625
456,790.5494384765625,796.996337890625,803.8461303710938,790.1465454101562
457,794.981689453125,800.2197875976562,804.6520385742188,791.7582397460938
458,790.952392578125,797.3992919921875,802.6373901367188,788.5347900390625
459,791.3552856445312,799.4139404296875,803.040283203125,790.5494384765625
460,793.3699340820312,800.6226806640625,802.6373901367188,794.981689453125
461,788.937744140625,794.5787353515625,800.2197875976562,795.7875366210938
462,787.7289428710938,793.3699340820312,801.025634765625,797.3992919921875
463,791.3552856445312,803.8461303710938,798.2051391601562,797.8021850585938
464,791.3552856445312,803.8461303710938,796.5933837890625,800.6226806640625
465,788.937744140625,801.025634765625,800.2197875976562,801.8314819335938
466,794.5787353515625,803.040283203125,799.010986328125,802.2344360351562
467,795.3846435546875,796.1904907226562,800.6226806640625,794.981689453125
468,793.7728881835938,790.952392578125,802.6373901367188,792.967041015625
469,791.7582397460938,799.010986328125,799.4139404296875,792.1611938476562
470,791.3552856445312,801.4285888671875,800.6226806640625,787.7289428710938
471,793.3699340820312,793.3699340820312,800.2197875976562,789.7435913085938
472,791.7582397460938,794.1758422851562,794.981689453125,790.952392578125
473,796.5933837890625,793.7728881835938,795.3846435546875,791.3552856445312
474,796.1904907226562,794.1758422851562,796.996337890625,790.952392578125
475,790.5494384765625,794.1758422851562,794.1758422851562,790.1465454101562
476,788.5347900390625,792.1611938476562,792.1611938476562,792.5640869140625
477,778.4615478515625,789.7435913085938,799.010986328125,787.3259887695312
478,778.8644409179688,790.952392578125,807.4725341796875,787.7289428710938
479,787.7289428710938,790.1465454101562,809.89013671875,788.937744140625
480,786.923095703125,790.1465454101562,803.040283203125,781.2820434570312
481,784.5054931640625,792.5640869140625,801.4285888671875,780.4761962890625
482,786.5201416015625,792.1611938476562,803.040283203125,779.2673950195312
483,780.879150390625,791.3552856445312,797.8021850585938,776.0439453125
484,776.8497924804688,790.952392578125,797.8021850585938,774.029296875
485,778.4615478515625,791.3552856445312,794.981689453125,776.4468994140625
486,773.6264038085938,787.7289428710938,790.952392578125,778.05859375
487,770.4029541015625,782.087890625,786.923095703125,775.2380981445312
488,775.6410522460938,785.3113403320312,786.1171875,772.4176025390625
489,779.2673950195312,789.7435913085938,791.3552856445312,775.2380981445312
490,782.087890625,788.5347900390625,792.967041015625,782.087890625
491,786.5201416015625,789.3406372070312,790.5494384765625,784.5054931640625
492,786.1171875,791.7582397460938,788.5347900390625,784.5054931640625
493,785.3113403320312,794.1758422851562,792.1611938476562,786.923095703125
494,792.5640869140625,794.1758422851562,793.7728881835938,794.5787353515625
495,792.967041015625,792.1611938476562,789.7435913085938,806.6666870117188
496,792.967041015625,796.5933837890625,785.3113403320312,805.054931640625
497,788.5347900390625,794.1758422851562,790.5494384765625,786.5201416015625
498,780.0732421875,787.3259887695312,795.7875366210938,784.1025390625
499,778.05859375,789.7435913085938,796.996337890625,794.5787353515625
500,780.4761962890625,792.967041015625,798.2051391601562,794.1758422851562
501,788.5347900390625,795.3846435546875,799.010986328125,794.5787353515625
502,792.967041015625,794.981689453125,799.8168334960938,796.996337890625
503,788.5347900390625,792.5640869140625,799.010986328125,797.3992919921875
504,788.937744140625,793.3699340820312,796.996337890625,794.5787353515625
505,796.996337890625,796.5933837890625,798.2051391601562,796.5933837890625
506,803.8461303710938,792.967041015625,797.3992919921875,798.2051391601562
507,799.010986328125,789.3406372070312,800.6226806640625,794.5787353515625
508,791.7582397460938,796.1904907226562,799.8168334960938,794.5787353515625
509,784.5054931640625,794.981689453125,796.996337890625,797.3992919921875
510,784.1025390625,791.3552856445312,796.996337890625,796.5933837890625
511,789.3406372070312,788.5347900390625,797.3992919921875,790.952392578125
512,790.1465454101562,782.893798828125,798.6080322265625,786.1171875
513,789.7435913085938,791.3552856445312,792.5640869140625,784.5054931640625
514,787.7289428710938,790.1465454101562,784.5054931640625,786.5201416015625
515,790.5494384765625,790.5494384765625,786.923095703125,790.1465454101562
516,791.3552856445312,791.7582397460938,790.952392578125,788.937744140625
517,794.1758422851562,787.3259887695312,791.3552856445312,794.1758422851562
518,798.6080322265625,789.3406372070312,794.981689453125,797.3992919921875
519,796.5933837890625,790.952392578125,797.3992919921875,794.5787353515625
520,795.3846435546875,790.952392578125,797.8021850585938,790.952392578125
521,801.4285888671875,786.923095703125,799.8168334960938,792.1611938476562
522,801.8314819335938,787.7289428710938,796.996337890625,793.3699340820312
523,796.5933837890625,796.996337890625,794.5787353515625,792.967041015625
524,793.3699340820312,800.2197875976562,801.025634765625,794.981689453125
525,793.3699340820312,791.7582397460938,797.3992919921875,792.5640869140625
526,794.1758422851562,784.1025390625,794.1758422851562,793.3699340820312
527,792.967041015625,785.3113403320312,795.7875366210938,787.3259887695312
528,795.7875366210938,790.952392578125,797.3992919921875,786.5201416015625
529,791.7582397460938,793.7728881835938,801.025634765625,792.967041015625
530,784.1025390625,794.5787353515625,801.8314819335938,790.5494384765625
531,782.893798828125,791.7582397460938,802.2344360351562,787.7289428710938
532,777.2527465820312,788.937744140625,799.010986328125,787.7289428710938
533,769.5970458984375,783.2966918945312,790.952392578125,781.6849975585938
534,768.7911987304688,782.087890625,789.7435913085938,775.2380981445312
535,770.0,783.2966918945312,795.7875366210938,771.6116943359375
536,778.4615478515625,782.4908447265625,792.967041015625,778.05859375
537,786.5201416015625,783.6996459960938,792.967041015625,788.5347900390625
538,779.6703491210938,790.5494384765625,800.2197875976562,784.5054931640625
539,783.2966918945312,794.1758422851562,796.5933837890625,785.7142944335938
540,788.937744140625,788.1318969726562,792.967041015625,792.967041015625
541,788.937744140625,792.967041015625,795.7875366210938,796.1904907226562
542,794.5787353515625,794.981689453125,792.1611938476562,796.5933837890625
543,796.996337890625,790.1465454101562,789.3406372070312,795.7875366210938
544,794.5787353515625,792.967041015625,793.3699340820312,796.1904907226562
545,799.8168334960938,791.3552856445312,796.5933837890625,799.8168334960938
546,802.6373901367188,791.3552856445312,799.4139404296875,801.025634765625
547,799.8168334960938,794.981689453125,796.996337890625,796.1904907226562
548,796.996337890625,794.1758422851562,792.5640869140625,793.7728881835938
549,792.5640869140625,792.5640869140625,790.952392578125,799.4139404296875
550,786.1171875,793.7728881835938,788.1318969726562,790.1465454101562
551,792.1611938476562,792.967041015625,790.1465454101562,787.3259887695312
552,798.6080322265625,792.1611938476562,796.996337890625,797.8021850585938
553,791.3552856445312,794.981689453125,798.6080322265625,799.010986328125
554,782.087890625,792.1611938476562,794.1758422851562,793.3699340820312
555,780.879150390625,792.1611938476562,789.7435913085938,791.3552856445312
556,782.893798828125,793.7728881835938,788.1318969726562,793.7728881835938
557,782.893798828125,791.7582397460938,789.3406372070312,791.3552856445312
558,782.087890625,792.967041015625,785.7142944335938,789.7435913085938
559,776.4468994140625,792.5640869140625,784.908447265625,785.3113403320312
560,774.4322509765625,794.5787353515625,791.3552856445312,787.7289428710938
561,776.8497924804688,794.1758422851562,792.967041015625,795.3846435546875
562,777.6557006835938,790.1465454101562,790.952392578125,785.7142944335938
563,784.5054931640625,789.7435913085938,794.5787353515625,784.908447265625
564,792.1611938476562,788.1318969726562,796.5933837890625,790.1465454101562
565,786.923095703125,788.5347900390625,794.1758422851562,786.5201416015625
566,782.893798828125,793.7728881835938,793.7728881835938,785.7142944335938
567,783.6996459960938,790.5494384765625,793.3699340820312,786.5201416015625
568,784.908447265625,788.1318969726562,795.7875366210938,783.6996459960938
569,784.5054931640625,794.1758422851562,798.6080322265625,785.7142944335938
570,780.0732421875,790.1465454101562,801.4285888671875,786.1171875
571,783.6996459960938,788.1318969726562,800.2197875976562,785.3113403320312
572,784.5054931640625,791.3552856445312,796.996337890625,796.5933837890625
573,780.4761962890625,791.7582397460938,797.3992919921875,792.5640869140625
574,780.879150390625,786.923095703125,795.3846435546875,786.1171875
575,780.0732421875,786.5201416015625,793.7728881835938,784.1025390625
576,778.8644409179688,788.5347900390625,788.5347900390625,777.2527465820312
577,781.2820434570312,785.7142944335938,788.5347900390625,777.2527465820312
578,790.1465454101562,787.7289428710938,791.7582397460938,779.6703491210938
579,790.5494384765625,788.1318969726562,794.1758422851562,780.879150390625
580,783.6996459960938,784.908447265625,795.7875366210938,782.893798828125
581,787.3259887695312,792.967041015625,795.7875366210938,789.7435913085938
582,785.7142944335938,801.4285888671875,799.4139404296875,791.7582397460938
583,790.1465454101562,800.6226806640625,801.8314819335938,793.7728881835938
584,794.981689453125,795.3846435546875,798.2051391601562,794.5787353515625
585,793.7728881835938,796.1904907226562,794.981689453125,790.1465454101562
586,793.7728881835938,794.981689453125,794.5787353515625,789.3406372070312
587,797.8021850585938,796.5933837890625,790.952392578125,790.952392578125
588,804.2490844726562,800.6226806640625,791.7582397460938,790.5494384765625
589,799.4139404296875,796.996337890625,790.1465454101562,788.5347900390625
590,790.5494384765625,795.3846435546875,789.3406372070312,784.908447265625
591,794.981689453125,800.6226806640625,792.1611938476562,787.7289428710938
592,801.4285888671875,800.2197875976562,795.7875366210938,792.967041015625
593,803.4432373046875,793.3699340820312,801.8314819335938,794.5787353515625
594,797.3992919921875,794.1758422851562,804.2490844726562,797.3992919921875
595,788.937744140625,794.1758422851562,805.8607788085938,806.6666870117188
596,785.7142944335938,793.7728881835938,808.2783813476562,803.4432373046875
597,780.4761962890625,795.7875366210938,807.069580078125,799.010986328125
598,782.4908447265625,790.5494384765625,808.2783813476562,807.069580078125
599,789.3406372070312,789.7435913085938,807.4725341796875,811.098876953125
600,784.908447265625,788.1318969726562,808.6813354492188,801.8314819335938
601,779.2673950195312,786.923095703125,809.084228515625,792.967041015625
602,787.3259887695312,791.7582397460938,805.054931640625,802.6373901367188
603,782.893798828125,793.7728881835938,802.6373901367188,799.010986328125
604,768.3883056640625,790.1465454101562,801.025634765625,779.6703491210938
605,769.1941528320312,790.952392578125,797.3992919921875,774.8351440429688
606,770.8058471679688,794.981689453125,790.952392578125,774.8351440429688
607,772.0146484375,792.967041015625,790.5494384765625,770.4029541015625
608,783.2966918945312,795.3846435546875,790.5494384765625,768.7911987304688
609,788.5347900390625,793.7728881835938,784.5054931640625,767.5823974609375
610,788.937744140625,791.3552856445312,784.5054931640625,774.8351440429688
611,791.3552856445312,799.010986328125,788.5347900390625,776.4468994140625
612,800.6226806640625,798.6080322265625,789.3406372070312,776.8497924804688
613,805.8607788085938,797.8021850585938,786.923095703125,776.8497924804688
614,806.2637329101562,804.6520385742188,788.937744140625,777.2527465820312
615,803.040283203125,803.8461303710938,789.3406372070312,778.05859375
616,796.5933837890625,801.025634765625,794.1758422851562,774.029296875
617,787.7289428710938,801.025634765625,798.2051391601562,778.05859375
618,776.4468994140625,804.2490844726562,793.7728881835938,775.6410522460938
619,765.1648559570312,806.6666870117188,794.981689453125,764.7619018554688
620,760.7326049804688,810.6959838867188,794.5787353515625,754.6886596679688
621,748.6447143554688,814.3223266601562,789.3406372070312,743.4066162109375
622,730.915771484375,818.3516235351562,786.5201416015625,727.6923217773438
623,722.8571166992188,831.6483764648438,799.4139404296875,721.2454223632812
624,721.6483764648438,839.7069702148438,803.040283203125,720.03662109375
625,703.91943359375,834.4688720703125,794.1758422851562,702.3076782226562
626,690.6226806640625,838.4981689453125,792.1611938476562,689.010986328125
627,682.5640869140625,852.1978149414062,788.5347900390625,676.5201416015625
628,671.2820434570312,851.7948608398438,795.7875366210938,661.6116943359375
629,672.087890625,856.6300659179688,800.6226806640625,661.6116943359375
630,667.2527465820312,858.2417602539062,797.3992919921875,660.4029541015625
631,659.5970458984375,856.6300659179688,793.3699340820312,657.1795043945312
632,662.8204956054688,860.2564086914062,796.996337890625,660.8058471679688
633,670.4761962890625,857.4359130859375,799.4139404296875,674.5054931640625
634,670.4761962890625,850.5860595703125,797.8021850585938,680.952392578125
635,678.1318969726562,850.1831665039062,799.010986328125,677.3259887695312
636,688.2051391601562,853.003662109375,799.010986328125,678.5347900390625
637,701.098876953125,855.4212646484375,803.040283203125,691.4285888671875
638,711.97802734375,851.3919677734375,800.6226806640625,697.87548828125
639,719.2307739257812,846.1538696289062,794.981689453125,702.7106323242188
640,734.945068359375,848.974365234375,793.7728881835938,720.4395751953125
641,745.018310546875,846.5567626953125,794.5787353515625,732.5274658203125
642,743.8095092773438,836.886474609375,798.6080322265625,734.1392211914062
643,758.3150024414062,829.6337280273438,798.2051391601562,743.8095092773438
644,764.3589477539062,823.99267578125,798.2051391601562,754.2857055664062
645,762.7472534179688,815.5311279296875,800.2197875976562,766.7765502929688
646,759.120849609375,807.87548828125,795.3846435546875,765.1648559570312
647,756.7033081054688,801.025634765625,796.1904907226562,763.9560546875
648,768.3883056640625,795.3846435546875,796.1904907226562,778.05859375
649,763.5531005859375,787.3259887695312,794.981689453125,774.8351440429688
650,757.5091552734375,778.4615478515625,794.5787353515625,769.1941528320312
651,768.7911987304688,768.3883056640625,791.3552856445312,778.8644409179688
652,775.2380981445312,768.3883056640625,791.3552856445312,786.923095703125
653,776.8497924804688,770.4029541015625,797.3992919921875,791.7582397460938
654,785.7142944335938,765.5677490234375,798.6080322265625,802.6373901367188
655,779.6703491210938,759.9267578125,795.7875366210938,800.6226806640625
656,773.2234497070312,754.2857055664062,797.3992919921875,804.2490844726562
657,784.5054931640625,754.2857055664062,799.8168334960938,819.1575317382812
658,798.2051391601562,757.106201171875,799.8168334960938,828.4249267578125
659,809.89013671875,758.7179565429688,802.6373901367188,837.2893676757812
660,821.1721801757812,767.1795043945312,806.2637329101562,842.12451171875
661,819.5604248046875,770.8058471679688,807.87548828125,837.2893676757812
662,826.00732421875,763.9560546875,810.2930297851562,836.886474609375
663,849.7802124023438,772.8204956054688,809.89013671875,842.12451171875
664,856.6300659179688,779.6703491210938,805.8607788085938,840.5128173828125
665,853.8095092773438,775.6410522460938,802.2344360351562,840.5128173828125
666,852.6007080078125,776.8497924804688,797.3992919921875,838.901123046875
667,851.7948608398438,777.6557006835938,798.6080322265625,835.2747192382812
668,849.7802124023438,776.4468994140625,797.8021850585938,832.4542236328125
669,845.3479614257812,773.2234497070312,796.1904907226562,830.4395751953125
670,842.930419921875,779.6703491210938,795.3846435546875,830.03662109375
671,836.886474609375,780.4761962890625,789.3406372070312,818.3516235351562
672,831.2454223632812,770.0,786.5201416015625,811.5018310546875
673,831.2454223632812,775.2380981445312,785.3113403320312,813.91943359375
674,824.3956298828125,780.4761962890625,781.2820434570312,805.8607788085938
675,821.5750732421875,772.8204956054688,784.1025390625,807.4725341796875
676,822.7838745117188,772.4176025390625,786.5201416015625,808.6813354492188
677,814.3223266601562,778.05859375,791.7582397460938,800.6226806640625
678,813.5164794921875,777.2527465820312,796.5933837890625,805.4578857421875
679,809.4871826171875,773.6264038085938,794.981689453125,816.7399291992188
680,803.8461303710938,773.6264038085938,792.1611938476562,822.7838745117188
681,803.4432373046875,772.0146484375,789.3406372070312,822.3809814453125
682,805.054931640625,769.1941528320312,788.937744140625,823.5897216796875
683,814.7252807617188,772.8204956054688,792.967041015625,827.2161254882812
684,827.6190185546875,776.0439453125,796.996337890625,832.4542236328125
685,838.09521484375,774.8351440429688,798.6080322265625,834.8717651367188
686,841.7216186523438,774.029296875,796.5933837890625,837.2893676757812
687,842.12451171875,778.4615478515625,796.5933837890625,845.7509155273438
688,845.3479614257812,784.1025390625,802.6373901367188,849.7802124023438
689,845.7509155273438,784.5054931640625,804.6520385742188,845.3479614257812
690,849.7802124023438,786.1171875,803.4432373046875,838.901123046875
691,852.1978149414062,792.1611938476562,805.8607788085938,839.3040161132812
692,846.5567626953125,793.3699340820312,807.87548828125,835.6776733398438
693,841.7216186523438,790.1465454101562,805.4578857421875,830.03662109375
694,836.4835205078125,787.3259887695312,797.3992919921875,826.8131713867188
695,824.3956298828125,785.3113403320312,796.1904907226562,820.3662719726562
696,818.7545776367188,783.6996459960938,797.8021850585938,816.7399291992188
697,811.098876953125,790.952392578125,797.8021850585938,813.113525390625
698,799.4139404296875,796.996337890625,797.3992919921875,801.4285888671875
699,795.3846435546875,794.5787353515625,797.3992919921875,793.7728881835938
700,796.5933837890625,788.5347900390625,796.5933837890625,796.996337890625
701,800.2197875976562,787.3259887695312,792.967041015625,794.5787353515625
702,801.025634765625,791.3552856445312,789.7435913085938,791.7582397460938
703,795.7875366210938,791.3552856445312,788.937744140625,790.1465454101562
704,791.7582397460938,784.5054931640625,792.5640869140625,788.937744140625
705,794.1758422851562,780.879150390625,792.967041015625,791.7582397460938
706,792.5640869140625,782.893798828125,786.1171875,790.952392578125
707,792.967041015625,778.8644409179688,782.087890625,784.908447265625
708,796.996337890625,778.8644409179688,784.908447265625,786.1171875
709,803.040283203125,778.8644409179688,790.1465454101562,792.967041015625
710,802.6373901367188,778.4615478515625,790.952392578125,793.7728881835938
711,805.8607788085938,776.0439453125,793.3699340820312,799.010986328125
712,819.1575317382812,777.2527465820312,798.2051391601562,809.89013671875
713,817.94873046875,780.879150390625,796.996337890625,817.1428833007812
714,815.1282348632812,780.879150390625,796.5933837890625,826.00732421875
715,821.97802734375,782.893798828125,800.2197875976562,835.2747192382812
716,820.3662719726562,785.7142944335938,801.4285888671875,840.5128173828125
717,819.1575317382812,791.7582397460938,800.2197875976562,838.09521484375
718,823.1868286132812,792.5640869140625,805.054931640625,834.8717651367188
719,831.2454223632812,792.967041015625,805.054931640625,830.8424682617188
720,832.05126953125,793.7728881835938,804.2490844726562,830.03662109375
721,822.7838745117188,790.5494384765625,799.8168334960938,826.4102783203125
722,820.7692260742188,789.7435913085938,795.3846435546875,820.3662719726562
723,819.96337890625,794.981689453125,795.3846435546875,812.7106323242188
724,809.4871826171875,798.6080322265625,789.3406372070312,801.8314819335938
725,808.6813354492188,802.6373901367188,787.7289428710938,800.2197875976562
726,803.8461303710938,797.8021850585938,791.3552856445312,799.4139404296875
727,793.7728881835938,790.952392578125,788.937744140625,795.3846435546875
728,791.7582397460938,794.5787353515625,787.7289428710938,788.937744140625
729,793.3699340820312,794.5787353515625,794.5787353515625,792.1611938476562
730,788.5347900390625,794.5787353515625,795.3846435546875,796.5933837890625
731,789.3406372070312,793.3699340820312,790.1465454101562,788.1318969726562
732,791.7582397460938,794.981689453125,790.952392578125,782.4908447265625
733,793.3699340820312,798.6080322265625,796.996337890625,784.908447265625
734,798.2051391601562,801.025634765625,795.7875366210938,782.087890625
735,798.2051391601562,800.2197875976562,792.5640869140625,779.6703491210938
736,798.6080322265625,799.010986328125,790.1465454101562,781.2820434570312
737,796.5933837890625,793.7728881835938,789.3406372070312,782.4908447265625
738,797.3992919921875,791.7582397460938,789.3406372070312,788.937744140625
739,794.981689453125,794.1758422851562,788.937744140625,792.5640869140625
740,793.7728881835938,793.3699340820312,783.6996459960938,791.3552856445312
741,803.040283203125,788.937744140625,782.087890625,795.3846435546875
742,806.6666870117188,781.2820434570312,784.5054931640625,795.3846435546875
743,808.2783813476562,785.3113403320312,786.1171875,795.7875366210938
744,806.6666870117188,791.3552856445312,788.5347900390625,801.8314819335938
745,799.4139404296875,797.3992919921875,789.7435913085938,801.8314819335938
746,805.054931640625,800.6226806640625,792.1611938476562,804.6520385742188
747,813.113525390625,801.4285888671875,790.1465454101562,809.084228515625
748,810.2930297851562,795.7875366210938,793.7728881835938,809.89013671875
749,810.2930297851562,788.1318969726562,795.7875366210938,806.2637329101562
750,807.4725341796875,796.5933837890625,791.3552856445312,798.6080322265625
751,809.084228515625,800.2197875976562,790.5494384765625,794.1758422851562
752,814.7252807617188,791.7582397460938,795.7875366210938,800.6226806640625
753,811.90478515625,790.1465454101562,802.2344360351562,805.4578857421875
754,800.6226806640625,785.7142944335938,800.2197875976562,796.5933837890625
755,788.1318969726562,780.0732421875,799.4139404296875,793.3699340820312
756,781.2820434570312,782.087890625,801.4285888671875,790.5494384765625
757,787.7289428710938,786.5201416015625,800.6226806640625,788.937744140625
758,789.7435913085938,792.5640869140625,796.996337890625,790.1465454101562
759,781.6849975585938,790.5494384765625,798.6080322265625,786.923095703125
760,778.8644409179688,789.3406372070312,800.6226806640625,787.3259887695312
761,782.087890625,783.2966918945312,797.3992919921875,788.1318969726562
762,792.967041015625,784.1025390625,796.5933837890625,786.1171875
763,797.3992919921875,788.937744140625,798.2051391601562,788.1318969726562
764,791.3552856445312,788.1318969726562,800.2197875976562,798.6080322265625
765,783.6996459960938,795.3846435546875,797.8021850585938,799.010986328125
766,784.1025390625,794.5787353515625,796.5933837890625,799.8168334960938
767,785.3113403320312,790.5494384765625,793.7728881835938,800.2197875976562
768,786.923095703125,790.952392578125,792.5640869140625,799.8168334960938
769,793.3699340820312,790.5494384765625,792.1611938476562,800.2197875976562
770,794.981689453125,791.7582397460938,793.7728881835938,797.3992919921875
771,798.6080322265625,794.981689453125,799.010986328125,797.3992919921875
772,801.4285888671875,796.1904907226562,799.8168334960938,802.2344360351562
773,807.87548828125,796.996337890625,799.8168334960938,813.5164794921875
774,812.3076782226562,796.5933837890625,799.4139404296875,815.93408203125
775,813.113525390625,786.5201416015625,797.3992919921875,808.2783813476562
776,814.7252807617188,793.3699340820312,799.010986328125,803.8461303710938
777,812.7106323242188,799.4139404296875,799.8168334960938,800.6226806640625
778,807.87548828125,793.3699340820312,802.2344360351562,797.3992919921875
779,803.040283203125,789.7435913085938,807.069580078125,799.010986328125
780,791.7582397460938,790.5494384765625,806.6666870117188,796.996337890625
781,784.1025390625,789.3406372070312,801.8314819335938,792.967041015625
782,790.952392578125,789.7435913085938,799.4139404296875,796.996337890625
783,797.3992919921875,789.7435913085938,801.025634765625,797.3992919921875
784,792.5640869140625,787.7289428710938,801.4285888671875,790.1465454101562
785,789.7435913085938,788.5347900390625,801.8314819335938,785.7142944335938
786,790.5494384765625,786.1171875,801.025634765625,794.5787353515625
787,784.1025390625,781.2820434570312,796.5933837890625,799.8168334960938
788,779.6703491210938,784.908447265625,799.8168334960938,790.5494384765625
789,779.2673950195312,785.3113403320312,804.2490844726562,782.087890625
790,774.4322509765625,782.893798828125,802.2344360351562,778.8644409179688
791,770.0,787.7289428710938,800.2197875976562,775.6410522460938
792,776.4468994140625,789.7435913085938,796.996337890625,780.879150390625
793,780.4761962890625,788.937744140625,796.5933837890625,790.1465454101562
794,772.4176025390625,785.3113403320312,798.2051391601562,789.7435913085938
795,767.1795043945312,782.893798828125,796.1904907226562,788.1318969726562
796,770.8058471679688,785.3113403320312,794.5787353515625,786.923095703125
797,779.6703491210938,779.6703491210938,791.7582397460938,788.5347900390625
798,785.3113403320312,778.4615478515625,793.7728881835938,790.1465454101562
799,793.7728881835938,787.7289428710938,794.981689453125,791.7582397460938
800,802.6373901367188,792.1611938476562,792.967041015625,793.7728881835938
801,803.8461303710938,795.3846435546875,792.1611938476562,792.967041015625
802,807.4725341796875,794.981689453125,797.8021850585938,801.8314819335938
803,812.3076782226562,794.1758422851562,802.6373901367188,808.2783813476562
804,811.098876953125,797.8021850585938,801.025634765625,802.6373901367188
805,804.6520385742188,803.040283203125,801.4285888671875,799.8168334960938
806,790.1465454101562,797.8021850585938,802.6373901367188,796.5933837890625
807,792.1611938476562,793.7728881835938,800.2197875976562,794.981689453125
808,795.3846435546875,793.7728881835938,800.6226806640625,794.5787353515625
809,786.5201416015625,790.5494384765625,800.2197875976562,789.7435913085938
810,776.4468994140625,783.2966918945312,799.8168334960938,784.908447265625
811,766.7765502929688,788.937744140625,805.054931640625,788.1318969726562
812,765.5677490234375,794.981689453125,803.4432373046875,787.7289428710938
813,765.970703125,789.7435913085938,800.2197875976562,786.1171875
814,764.3589477539062,782.893798828125,801.4285888671875,787.3259887695312
815,764.3589477539062,781.6849975585938,799.8168334960938,781.6849975585938
816,766.7765502929688,779.6703491210938,797.3992919921875,783.6996459960938
817,770.4029541015625,774.8351440429688,790.1465454101562,782.087890625
818,776.0439453125,778.8644409179688,796.1904907226562,782.087890625
819,778.05859375,779.2673950195312,800.2197875976562,787.7289428710938
820,770.8058471679688,777.2527465820312,794.1758422851562,788.937744140625
821,764.7619018554688,780.879150390625,792.5640869140625,787.7289428710938
822,771.2088012695312,779.2673950195312,792.1611938476562,792.1611938476562
823,778.8644409179688,778.4615478515625,791.3552856445312,791.7582397460938
824,784.1025390625,779.6703491210938,788.1318969726562,788.937744140625
825,786.5201416015625,783.6996459960938,785.3113403320312,796.5933837890625
826,789.3406372070312,787.3259887695312,784.908447265625,797.3992919921875
827,795.3846435546875,790.1465454101562,788.5347900390625,793.3699340820312
828,800.6226806640625,791.3552856445312,791.3552856445312,794.981689453125
829,805.4578857421875,787.3259887695312,787.3259887695312,795.3846435546875
830,807.069580078125,783.6996459960938,786.5201416015625,792.967041015625
831,799.4139404296875,784.908447265625,786.923095703125,785.7142944335938
832,794.981689453125,788.937744140625,785.3113403320312,779.6703491210938
833,795.3846435546875,786.923095703125,784.1025390625,780.879150390625
834,791.3552856445312,783.2966918945312,783.6996459960938,775.6410522460938
835,792.1611938476562,786.923095703125,784.908447265625,774.4322509765625
836,787.7289428710938,792.1611938476562,790.1465454101562,786.1171875
837,777.2527465820312,786.5201416015625,794.5787353515625,794.981689453125
838,773.6264038085938,781.6849975585938,793.3699340820312,794.1758422851562
839,769.1941528320312,788.1318969726562,793.7728881835938,786.5201416015625
840,767.1795043945312,790.5494384765625,792.5640869140625,783.2966918945312
841,770.8058471679688,787.7289428710938,788.1318969726562,787.7289428710938
842,773.6264038085938,785.7142944335938,792.1611938476562,791.3552856445312
843,779.2673950195312,786.923095703125,797.8021850585938,793.3699340820312
844,786.1171875,786.923095703125,797.3992919921875,794.981689453125
845,780.0732421875,789.3406372070312,794.981689453125,791.7582397460938
846,777.6557006835938,793.7728881835938,796.1904907226562,789.3406372070312
847,776.0439453125,785.3113403320312,796.5933837890625,788.937744140625
848,772.8204956054688,779.6703491210938,796.1904907226562,792.5640869140625
849,774.029296875,788.5347900390625,796.996337890625,800.2197875976562
850,773.6264038085938,792.5640869140625,796.5933837890625,800.2197875976562
851,773.6264038085938,788.937744140625,799.010986328125,797.8021850585938
852,786.923095703125,791.7582397460938,802.2344360351562,801.8314819335938
853,792.967041015625,794.5787353515625,799.4139404296875,801.8314819335938
854,792.967041015625,791.3552856445312,796.1904907226562,803.4432373046875
855,801.8314819335938,795.7875366210938,794.981689453125,806.6666870117188
856,805.054931640625,795.3846435546875,792.5640869140625,802.6373901367188
857,805.054931640625,798.2051391601562,797.3992919921875,801.8314819335938
858,809.084228515625,799.010986328125,796.996337890625,801.4285888671875
859,808.6813354492188,798.6080322265625,796.1904907226562,796.996337890625
860,801.025634765625,799.4139404296875,797.8021850585938,799.8168334960938
861,797.8021850585938,798.2051391601562,802.2344360351562,794.1758422851562
862,794.981689453125,794.5787353515625,801.4285888671875,794.1758422851562
863,792.967041015625,791.3552856445312,798.6080322265625,797.8021850585938
864,796.996337890625,792.967041015625,801.4285888671875,797.8021850585938
865,792.1611938476562,787.3259887695312,803.8461303710938,794.5787353515625
866,782.893798828125,784.908447265625,804.6520385742188,786.1171875
867,783.2966918945312,786.1171875,802.6373901367188,786.923095703125
868,792.5640869140625,788.5347900390625,799.4139404296875,796.5933837890625
869,794.5787353515625,794.5787353515625,800.2197875976562,790.1465454101562
870,794.981689453125,796.1904907226562,803.8461303710938,788.1318969726562
871,793.3699340820312,794.5787353515625,801.025634765625,799.010986328125
872,789.3406372070312,794.1758422851562,801.4285888671875,803.040283203125
873,796.5933837890625,791.7582397460938,803.4432373046875,795.7875366210938
874,799.010986328125,784.5054931640625,800.6226806640625,792.1611938476562
875,792.5640869140625,786.1171875,797.8021850585938,789.7435913085938
876,788.1318969726562,784.908447265625,798.6080322265625,783.6996459960938
877,787.3259887695312,782.087890625,804.2490844726562,788.1318969726562
878,786.1171875,786.923095703125,802.6373901367188,794.981689453125
879,782.087890625,794.1758422851562,798.6080322265625,796.5933837890625
880,784.908447265625,798.2051391601562,797.8021850585938,797.3992919921875
881,788.1318969726562,796.1904907226562,799.010986328125,796.5933837890625
882,782.893798828125,794.981689453125,799.010986328125,791.3552856445312
883,782.087890625,797.3992919921875,798.2051391601562,789.3406372070312
884,786.5201416015625,787.7289428710938,803.4432373046875,793.3699340820312
885,786.923095703125,782.087890625,805.4578857421875,792.1611938476562
886,789.3406372070312,788.937744140625,804.2490844726562,792.1611938476562
887,788.937744140625,789.3406372070312,799.8168334960938,789.7435913085938
888,780.0732421875,783.2966918945312,800.6226806640625,787.7289428710938
889,781.2820434570312,784.1025390625,802.2344360351562,789.3406372070312
890,786.923095703125,785.3113403320312,796.996337890625,794.1758422851562
891,784.1025390625,788.937744140625,795.7875366210938,795.7875366210938
892,780.879150390625,790.952392578125,794.5787353515625,784.1025390625
893,782.087890625,787.3259887695312,794.1758422851562,777.2527465820312
894,785.7142944335938,790.1465454101562,795.3846435546875,779.6703491210938
895,789.7435913085938,796.1904907226562,795.3846435546875,780.4761962890625
896,796.996337890625,794.981689453125,796.5933837890625,782.4908447265625
897,799.010986328125,796.5933837890625,798.2051391601562,788.5347900390625
898,797.8021850585938,799.4139404296875,794.981689453125,792.967041015625
899,796.1904907226562,794.1758422851562,795.3846435546875,789.7435913085938
900,798.2051391601562,795.3846435546875,797.3992919921875,791.3552856445312
901,797.3992919921875,798.2051391601562,796.996337890625,794.1758422851562
902,793.3699340820312,794.5787353515625,794.981689453125,795.3846435546875
903,786.5201416015625,792.967041015625,797.8021850585938,792.5640869140625
904,785.3113403320312,794.981689453125,798.6080322265625,790.952392578125
905,786.923095703125,788.1318969726562,797.3992919921875,797.8021850585938
906,780.879150390625,779.6703491210938,796.996337890625,797.3992919921875
907,775.2380981445312,784.5054931640625,796.996337890625,790.5494384765625
908,775.6410522460938,789.3406372070312,795.7875366210938,792.1611938476562
909,780.0732421875,782.087890625,797.8021850585938,802.2344360351562
910,776.8497924804688,783.6996459960938,803.040283203125,809.4871826171875
911,778.05859375,792.5640869140625,804.6520385742188,803.4432373046875
912,786.1171875,790.952392578125,800.6226806640625,798.2051391601562
913,782.893798828125,788.1318969726562,799.4139404296875,799.4139404296875
914,785.3113403320312,795.7875366210938,801.4285888671875,796.1904907226562
915,797.3992919921875,797.3992919921875,801.8314819335938,794.1758422851562
916,803.040283203125,797.3992919921875,801.4285888671875,797.3992919921875
917,799.8168334960938,799.010986328125,795.7875366210938,789.3406372070312
918,801.025634765625,802.6373901367188,792.1611938476562,788.1318969726562
919,804.2490844726562,800.6226806640625,793.7728881835938,791.7582397460938
920,807.4725341796875,796.5933837890625,793.3699340820312,784.908447265625
921,803.040283203125,794.981689453125,791.3552856445312,782.4908447265625
922,796.5933837890625,796.5933837890625,789.3406372070312,783.6996459960938
923,792.967041015625,799.4139404296875,790.1465454101562,777.2527465820312
924,787.7289428710938,791.7582397460938,789.3406372070312,767.9853515625
925,786.5201416015625,793.7728881835938,786.923095703125,770.0
926,791.7582397460938,800.6226806640625,786.5201416015625,780.0732421875
927,794.981689453125,798.2051391601562,787.3259887695312,784.1025390625
928,783.6996459960938,791.3552856445312,783.6996459960938,779.6703491210938
929,775.6410522460938,790.1465454101562,782.087890625,780.4761962890625
930,779.2673950195312,791.3552856445312,787.7289428710938,786.923095703125
931,786.5201416015625,791.7582397460938,792.967041015625,794.1758422851562
932,788.5347900390625,786.923095703125,791.3552856445312,789.3406372070312
933,786.5201416015625,787.3259887695312,790.5494384765625,790.5494384765625
934,784.5054931640625,786.923095703125,790.5494384765625,788.5347900390625
935,784.1025390625,784.5054931640625,789.7435913085938,785.7142944335938
936,789.3406372070312,788.5347900390625,793.3699340820312,792.1611938476562
937,796.996337890625,786.5201416015625,796.5933837890625,797.3992919921875
938,794.5787353515625,784.908447265625,795.3846435546875,792.5640869140625
939,794.5787353515625,791.3552856445312,793.7728881835938,796.1904907226562
940,799.4139404296875,797.3992919921875,791.7582397460938,799.8168334960938
941,794.981689453125,794.1758422851562,793.7728881835938,794.1758422851562
942,800.2197875976562,792.1611938476562,797.8021850585938,796.996337890625
943,803.4432373046875,799.010986328125,797.8021850585938,799.8168334960938
944,795.3846435546875,797.8021850585938,798.6080322265625,798.6080322265625
945,794.1758422851562,797.3992919921875,798.2051391601562,798.6080322265625
946,797.3992919921875,794.5787353515625,797.8021850585938,794.1758422851562
947,802.6373901367188,791.3552856445312,796.1904907226562,785.3113403320312
948,803.8461303710938,793.3699340820312,793.3699340820312,779.2673950195312
949,795.7875366210938,792.5640869140625,793.3699340820312,778.4615478515625
950,794.1758422851562,795.7875366210938,794.1758422851562,778.4615478515625
951,802.2344360351562,796.996337890625,797.3992919921875,781.6849975585938
952,800.2197875976562,795.3846435546875,799.4139404296875,785.3113403320312
953,787.3259887695312,791.7582397460938,795.3846435546875,787.7289428710938
954,776.8497924804688,789.3406372070312,792.5640869140625,786.5201416015625
955,775.2380981445312,795.3846435546875,797.3992919921875,790.952392578125
956,778.4615478515625,798.6080322265625,799.8168334960938,801.4285888671875
957,781.6849975585938,796.996337890625,798.2051391601562,790.1465454101562
958,782.087890625,794.1758422851562,800.2197875976562,784.5054931640625
959,779.6703491210938,791.3552856445312,799.010986328125,788.1318969726562
960,784.908447265625,790.952392578125,799.010986328125,787.3259887695312
961,786.5201416015625,794.1758422851562,799.4139404296875,784.908447265625
962,787.3259887695312,792.5640869140625,797.3992919921875,782.4908447265625
963,794.5787353515625,788.1318969726562,797.3992919921875,788.1318969726562
964,797.8021850585938,796.996337890625,792.5640869140625,793.7728881835938
965,794.981689453125,805.4578857421875,788.1318969726562,793.7728881835938
966,792.1611938476562,807.4725341796875,790.5494384765625,790.1465454101562
967,793.7728881835938,801.8314819335938,792.1611938476562,790.5494384765625
968,789.7435913085938,795.7875366210938,792.5640869140625,786.1171875
969,794.981689453125,791.3552856445312,796.996337890625,782.087890625
970,792.967041015625,791.3552856445312,801.4285888671875,782.4908447265625
971,788.1318969726562,792.967041015625,799.010986328125,786.5201416015625
972,792.1611938476562,792.5640869140625,794.5787353515625,787.3259887695312
973,794.981689453125,796.1904907226562,794.981689453125,790.1465454101562
974,791.7582397460938,799.8168334960938,796.5933837890625,790.952392578125
975,784.1025390625,791.7582397460938,795.7875366210938,783.6996459960938
976,785.3113403320312,787.3259887695312,791.7582397460938,784.5054931640625
977,787.3259887695312,791.3552856445312,792.1611938476562,784.1025390625
978,790.5494384765625,795.7875366210938,798.2051391601562,788.937744140625
979,790.1465454101562,798.6080322265625,796.996337890625,790.1465454101562
980,789.3406372070312,796.5933837890625,791.7582397460938,785.7142944335938
981,792.1611938476562,793.3699340820312,794.5787353515625,792.5640869140625
982,793.3699340820312,784.5054931640625,796.1904907226562,796.996337890625
983,792.967041015625,790.952392578125,795.7875366210938,796.1904907226562
984,795.7875366210938,798.2051391601562,794.981689453125,788.5347900390625
985,798.6080322265625,794.5787353515625,793.7728881835938,786.923095703125
986,800.2197875976562,791.7582397460938,798.6080322265625,791.3552856445312
987,795.3846435546875,794.981689453125,798.2051391601562,788.937744140625
988,793.3699340820312,799.8168334960938,800.6226806640625,787.3259887695312
989,794.1758422851562,797.8021850585938,800.2197875976562,789.3406372070312
990,793.3699340820312,794.981689453125,796.5933837890625,790.5494384765625
991,788.937744140625,795.3846435546875,797.3992919921875,788.5347900390625
992,787.7289428710938,791.7582397460938,799.010986328125,788.937744140625
993,793.3699340820312,790.952392578125,796.996337890625,790.952392578125
994,790.5494384765625,792.967041015625,794.5787353515625,789.7435913085938
995,775.2380981445312,788.937744140625,792.5640869140625,782.893798828125
996,781.6849975585938,785.7142944335938,794.5787353515625,778.4615478515625
997,794.5787353515625,792.967041015625,801.8314819335938,791.3552856445312
998,788.5347900390625,793.7728881835938,800.6226806640625,799.010986328125
999,778.05859375,785.3113403320312,792.1611938476562,787.7289428710938
1000,779.2673950195312,782.893798828125,791.3552856445312,782.893798828125
1001,784.5054931640625,780.879150390625,794.981689453125,784.1025390625
1002,792.1611938476562,784.908447265625,795.7875366210938,788.5347900390625
1003,797.3992919921875,792.1611938476562,799.8168334960938,794.981689453125
1004,796.1904907226562,795.3846435546875,805.054931640625,794.5787353515625
1005,793.7728881835938,795.7875366210938,801.8314819335938,792.967041015625
1006,792.5640869140625,796.996337890625,798.2051391601562,795.7875366210938
1007,793.7728881835938,794.981689453125,800.2197875976562,791.7582397460938
1008,799.010986328125,787.7289428710938,800.6226806640625,790.1465454101562
1009,799.010986328125,796.1904907226562,799.8168334960938,788.937744140625
1010,788.937744140625,797.8021850585938,799.010986328125,786.923095703125
1011,788.937744140625,799.8168334960938,797.3992919921875,794.1758422851562
1012,791.7582397460938,802.2344360351562,795.3846435546875,797.8021850585938
1013,788.1318969726562,794.5787353515625,796.5933837890625,797.3992919921875
1014,788.937744140625,794.5787353515625,799.010986328125,795.7875366210938
1015,790.952392578125,797.3992919921875,796.1904907226562,792.1611938476562
1016,786.923095703125,791.3552856445312,795.3846435546875,787.3259887695312
1017,790.5494384765625,789.7435913085938,798.6080322265625,794.1758422851562
1018,794.5787353515625,791.7582397460938,800.2197875976562,799.8168334960938
1019,794.5787353515625,788.1318969726562,799.010986328125,790.952392578125
1020,792.5640869140625,788.5347900390625,797.8021850585938,791.3552856445312
1021,792.5640869140625,796.1904907226562,795.7875366210938,797.3992919921875
1022,792.5640869140625,796.1904907226562,795.7875366210938,797.3992919921875
1023,786.5201416015625,788.937744140625,796.1904907226562,797.8021850585938
1024,790.952392578125,789.3406372070312,800.6226806640625,801.4285888671875
1025,791.7582397460938,794.5787353515625,803.4432373046875,799.4139404296875
1026,787.7289428710938,796.5933837890625,803.4432373046875,794.5787353515625
1027,788.5347900390625,791.7582397460938,801.4285888671875,788.937744140625
1028,797.3992919921875,792.5640869140625,801.4285888671875,792.1611938476562
1029,803.040283203125,795.3846435546875,803.8461303710938,803.4432373046875
1030,796.1904907226562,792.967041015625,801.025634765625,794.1758422851562
1031,795.7875366210938,788.937744140625,798.6080322265625,785.7142944335938
1032,794.1758422851562,789.7435913085938,799.010986328125,788.937744140625
1033,794.1758422851562,796.5933837890625,803.4432373046875,793.7728881835938
1034,799.010986328125,803.4432373046875,805.054931640625,792.967041015625
1035,794.5787353515625,803.4432373046875,800.6226806640625,788.5347900390625
1036,788.5347900390625,802.6373901367188,800.6226806640625,786.1171875
1037,792.5640869140625,803.040283203125,799.4139404296875,784.5054931640625
1038,794.5787353515625,802.6373901367188,796.996337890625,784.1025390625
1039,794.1758422851562,806.2637329101562,798.2051391601562,788.1318969726562
1040,799.010986328125,805.4578857421875,792.967041015625,791.7582397460938
1041,794.1758422851562,803.040283203125,792.1611938476562,789.3406372070312
1042,791.7582397460938,801.025634765625,795.3846435546875,794.981689453125
1043,792.967041015625,796.5933837890625,792.5640869140625,794.1758422851562
1044,796.5933837890625,797.3992919921875,790.952392578125,790.5494384765625
1045,799.4139404296875,800.6226806640625,795.3846435546875,786.1171875
1046,796.996337890625,799.4139404296875,794.1758422851562,783.6996459960938
1047,796.5933837890625,792.967041015625,788.937744140625,787.3259887695312
1048,802.2344360351562,796.5933837890625,790.5494384765625,796.5933837890625
1049,805.8607788085938,804.6520385742188,792.5640869140625,800.6226806640625
1050,803.4432373046875,803.040283203125,794.5787353515625,794.1758422851562
1051,807.4725341796875,805.8607788085938,798.6080322265625,794.1758422851562
1052,806.6666870117188,801.025634765625,799.010986328125,800.6226806640625
1053,799.010986328125,790.1465454101562,801.025634765625,796.1904907226562
1054,797.8021850585938,794.5787353515625,800.2197875976562,790.1465454101562
1055,800.6226806640625,794.5787353515625,796.996337890625,789.7435913085938
1056,799.4139404296875,790.952392578125,797.8021850585938,789.3406372070312
1057,796.1904907226562,794.5787353515625,796.996337890625,790.1465454101562
1058,791.7582397460938,795.7875366210938,797.3992919921875,790.1465454101562
1059,790.5494384765625,797.3992919921875,796.996337890625,786.1171875
1060,787.7289428710938,797.8021850585938,797.8021850585938,783.6996459960938
1061,789.3406372070312,797.8021850585938,797.8021850585938,786.923095703125
1062,791.3552856445312,796.5933837890625,794.5787353515625,782.087890625
1063,784.5054931640625,795.3846435546875,793.7728881835938,778.4615478515625
1064,783.6996459960938,792.967041015625,791.7582397460938,786.923095703125
1065,787.3259887695312,788.5347900390625,794.1758422851562,786.923095703125
1066,786.923095703125,785.3113403320312,792.967041015625,780.0732421875
1067,783.2966918945312,789.7435913085938,789.7435913085938,778.8644409179688
1068,780.0732421875,796.5933837890625,790.5494384765625,771.6116943359375
1069,778.4615478515625,796.5933837890625,785.7142944335938,766.7765502929688
1070,778.8644409179688,791.7582397460938,785.3113403320312,772.0146484375
1071,782.087890625,791.7582397460938,789.3406372070312,776.4468994140625
1072,784.1025390625,796.5933837890625,790.5494384765625,775.2380981445312
1073,788.937744140625,794.5787353515625,789.7435913085938,778.4615478515625
1074,794.981689453125,795.7875366210938,794.1758422851562,785.7142944335938
1075,798.2051391601562,799.4139404296875,800.2197875976562,793.7728881835938
1076,794.1758422851562,805.054931640625,801.025634765625,794.5787353515625
1077,789.7435913085938,803.4432373046875,794.981689453125,784.1025390625
1078,793.7728881835938,802.6373901367188,795.3846435546875,786.5201416015625
1079,798.6080322265625,805.8607788085938,794.981689453125,792.5640869140625
1080,803.8461303710938,805.8607788085938,792.967041015625,790.5494384765625
1081,805.4578857421875,804.2490844726562,798.2051391601562,788.937744140625
1082,801.4285888671875,804.6520385742188,795.3846435546875,790.1465454101562
1083,796.5933837890625,802.6373901367188,793.3699340820312,790.952392578125
1084,801.025634765625,798.2051391601562,799.4139404296875,791.7582397460938
1085,805.4578857421875,796.996337890625,798.2051391601562,794.1758422851562
1086,801.025634765625,794.5787353515625,796.996337890625,791.3552856445312
1087,796.1904907226562,796.996337890625,798.2051391601562,793.7728881835938
1088,796.996337890625,801.4285888671875,798.2051391601562,794.1758422851562
1089,801.025634765625,799.010986328125,800.6226806640625,793.7728881835938
1090,795.3846435546875,796.1904907226562,799.4139404296875,798.2051391601562
1091,784.1025390625,796.1904907226562,798.6080322265625,789.3406372070312
1092,786.1171875,796.5933837890625,803.040283203125,786.923095703125
1093,790.5494384765625,796.5933837890625,804.6520385742188,788.937744140625
1094,796.5933837890625,794.5787353515625,804.2490844726562,787.7289428710938
1095,788.5347900390625,795.3846435546875,803.8461303710938,790.5494384765625
1096,779.6703491210938,793.7728881835938,803.040283203125,792.5640869140625
1097,778.4615478515625,785.7142944335938,798.2051391601562,788.937744140625
1098,776.0439453125,783.2966918945312,795.7875366210938,789.7435913085938
1099,782.4908447265625,787.7289428710938,799.8168334960938,788.5347900390625
1100,785.7142944335938,790.952392578125,803.4432373046875,788.5347900390625
1101,788.5347900390625,791.3552856445312,803.4432373046875,794.981689453125
1102,792.967041015625,794.5787353515625,799.8168334960938,798.6080322265625
1103,794.1758422851562,796.996337890625,798.6080322265625,789.7435913085938
1104,796.996337890625,792.1611938476562,794.1758422851562,789.3406372070312
1105,798.6080322265625,790.1465454101562,791.3552856445312,793.3699340820312
1106,792.967041015625,789.7435913085938,791.7582397460938,786.923095703125
1107,785.7142944335938,790.5494384765625,794.981689453125,778.8644409179688
1108,788.1318969726562,788.937744140625,796.1904907226562,780.4761962890625
1109,793.3699340820312,788.5347900390625,794.1758422851562,786.1171875
1110,793.3699340820312,796.5933837890625,792.5640869140625,786.1171875
1111,799.8168334960938,801.4285888671875,795.7875366210938,792.1611938476562
1112,801.025634765625,801.8314819335938,798.2051391601562,794.5787353515625
1113,792.5640869140625,800.6226806640625,796.1904907226562,793.7728881835938
1114,795.7875366210938,805.054931640625,796.5933837890625,793.3699340820312
1115,801.4285888671875,803.4432373046875,796.1904907226562,785.3113403320312
1116,791.7582397460938,796.996337890625,788.5347900390625,778.8644409179688
1117,787.7289428710938,796.996337890625,786.923095703125,779.6703491210938
1118,790.952392578125,801.8314819335938,791.3552856445312,784.1025390625
1119,787.7289428710938,802.6373901367188,795.3846435546875,787.7289428710938
1120,785.3113403320312,799.010986328125,794.5787353515625,790.1465454101562
1121,784.908447265625,794.1758422851562,796.996337890625,790.1465454101562
1122,783.2966918945312,793.7728881835938,797.3992919921875,785.3113403320312
1123,786.923095703125,797.3992919921875,799.010986328125,780.4761962890625
1124,791.7582397460938,800.2197875976562,800.6226806640625,787.7289428710938
1125,788.1318969726562,805.8607788085938,793.7728881835938,798.6080322265625
1126,788.1318969726562,801.4285888671875,796.1904907226562,796.996337890625
1127,788.5347900390625,795.3846435546875,798.2051391601562,791.3552856445312
1128,780.0732421875,795.7875366210938,794.1758422851562,789.3406372070312
1129,778.4615478515625,796.996337890625,800.6226806640625,793.7728881835938
1130,778.8644409179688,800.2197875976562,802.6373901367188,797.8021850585938
1131,778.4615478515625,799.010986328125,801.4285888671875,800.2197875976562
1132,785.3113403320312,795.3846435546875,801.025634765625,800.6226806640625
1133,793.3699340820312,794.5787353515625,799.4139404296875,797.3992919921875
1134,793.3699340820312,797.3992919921875,796.996337890625,794.1758422851562
1135,791.3552856445312,801.025634765625,796.1904907226562,795.7875366210938
1136,796.996337890625,801.4285888671875,797.8021850585938,804.2490844726562
1137,801.025634765625,799.010986328125,797.8021850585938,801.8314819335938
1138,802.2344360351562,794.981689453125,796.5933837890625,788.1318969726562
1139,805.8607788085938,789.7435913085938,796.5933837890625,788.5347900390625
1140,806.6666870117188,792.1611938476562,793.7728881835938,796.1904907226562
1141,809.4871826171875,790.5494384765625,794.5787353515625,793.3699340820312
1142,810.2930297851562,789.7435913085938,795.7875366210938,786.923095703125
1143,795.7875366210938,788.937744140625,794.1758422851562,780.0732421875
1144,788.1318969726562,790.5494384765625,794.5787353515625,782.4908447265625
1145,784.5054931640625,794.1758422851562,798.2051391601562,785.7142944335938
1146,776.4468994140625,792.5640869140625,798.2051391601562,785.3113403320312
1147,777.2527465820312,792.967041015625,793.3699340820312,786.1171875
1148,780.4761962890625,792.5640869140625,792.967041015625,792.967041015625
1149,774.4322509765625,797.3992919921875,793.3699340820312,782.893798828125
1150,768.7911987304688,795.3846435546875,790.5494384765625,770.8058471679688
1151,773.2234497070312,790.5494384765625,793.3699340820312,776.4468994140625
1152,775.6410522460938,795.7875366210938,796.1904907226562,778.8644409179688
1153,772.8204956054688,798.6080322265625,795.7875366210938,781.2820434570312
1154,772.8204956054688,799.010986328125,792.5640869140625,781.2820434570312
1155,782.4908447265625,795.7875366210938,790.952392578125,786.1171875
1156,786.1171875,792.1611938476562,791.7582397460938,788.1318969726562
1157,787.3259887695312,788.1318969726562,794.5787353515625,787.3259887695312
1158,790.1465454101562,788.937744140625,793.7728881835938,789.7435913085938
1159,792.5640869140625,792.1611938476562,796.1904907226562,795.3846435546875
1160,799.010986328125,798.2051391601562,803.8461303710938,801.8314819335938
1161,804.2490844726562,802.6373901367188,801.4285888671875,796.5933837890625
1162,806.6666870117188,795.7875366210938,797.8021850585938,792.1611938476562
1163,807.87548828125,794.5787353515625,794.981689453125,794.1758422851562
1164,809.89013671875,799.4139404296875,794.981689453125,796.996337890625
1165,810.2930297851562,796.996337890625,794.5787353515625,795.3846435546875
1166,810.6959838867188,797.8021850585938,793.7728881835938,797.8021850585938
1167,808.6813354492188,800.2197875976562,796.5933837890625,796.5933837890625
1168,803.8461303710938,801.8314819335938,797.8021850585938,792.967041015625
1169,795.3846435546875,800.2197875976562,795.7875366210938,791.7582397460938
1170,793.7728881835938,799.010986328125,793.7728881835938,794.1758422851562
1171,795.7875366210938,800.6226806640625,796.996337890625,799.4139404296875
1172,792.1611938476562,798.6080322265625,794.1758422851562,791.7582397460938
1173,789.3406372070312,792.5640869140625,791.7582397460938,787.3259887695312
1174,787.3259887695312,790.1465454101562,792.1611938476562,787.3259887695312
1175,785.3113403320312,792.1611938476562,792.5640869140625,786.1171875
1176,789.3406372070312,793.7728881835938,794.5787353515625,786.923095703125
1177,794.981689453125,794.5787353515625,794.981689453125,786.5201416015625
1178,792.1611938476562,797.3992919921875,797.8021850585938,787.3259887695312
1179,786.5201416015625,798.6080322265625,797.8021850585938,792.967041015625
1180,787.3259887695312,799.8168334960938,798.6080322265625,790.5494384765625
1181,790.1465454101562,796.1904907226562,803.4432373046875,793.3699340820312
1182,793.7728881835938,794.5787353515625,801.4285888671875,801.4285888671875
1183,791.3552856445312,797.3992919921875,797.8021850585938,792.1611938476562
1184,795.3846435546875,803.040283203125,796.996337890625,793.7728881835938
1185,797.8021850585938,801.4285888671875,795.7875366210938,795.7875366210938
1186,796.1904907226562,799.8168334960938,794.1758422851562,795.3846435546875
1187,804.2490844726562,803.4432373046875,799.010986328125,797.8021850585938
1188,808.6813354492188,805.054931640625,800.6226806640625,796.5933837890625
1189,812.7106323242188,801.4285888671875,794.5787353515625,796.996337890625
1190,811.90478515625,796.996337890625,793.3699340820312,798.6080322265625
1191,807.069580078125,797.8021850585938,794.5787353515625,799.4139404296875
1192,805.4578857421875,794.981689453125,795.3846435546875,792.5640869140625
1193,801.025634765625,793.3699340820312,794.981689453125,785.7142944335938
1194,802.6373901367188,795.3846435546875,791.3552856445312,782.4908447265625
1195,799.010986328125,795.3846435546875,790.952392578125,778.8644409179688
1196,796.1904907226562,795.3846435546875,792.1611938476562,778.4615478515625
1197,799.010986328125,795.7875366210938,790.952392578125,784.5054931640625
1198,799.8168334960938,796.996337890625,794.981689453125,791.3552856445312
1199,795.7875366210938,797.3992919921875,795.3846435546875,785.3113403320312
1200,789.3406372070312,799.4139404296875,796.5933837890625,786.1171875
1201,788.5347900390625,797.3992919921875,796.996337890625,789.7435913085938
1202,790.5494384765625,790.1465454101562,794.1758422851562,790.5494384765625
1203,788.5347900390625,788.937744140625,791.3552856445312,791.7582397460938
1204,787.3259887695312,790.952392578125,791.7582397460938,792.967041015625
1205,789.7435913085938,793.3699340820312,794.1758422851562,787.7289428710938
1206,792.1611938476562,798.2051391601562,794.981689453125,783.6996459960938
1207,789.7435913085938,796.996337890625,796.1904907226562,786.1171875
1208,790.952392578125,790.5494384765625,797.8021850585938,793.7728881835938
1209,787.3259887695312,791.3552856445312,798.2051391601562,796.996337890625
1210,785.3113403320312,795.3846435546875,794.1758422851562,792.967041015625
1211,797.3992919921875,794.5787353515625,793.3699340820312,793.7728881835938
1212,798.6080322265625,792.5640869140625,794.981689453125,794.5787353515625
1213,790.1465454101562,786.1171875,790.5494384765625,788.5347900390625
1214,790.5494384765625,780.4761962890625,792.1611938476562,783.2966918945312
1215,789.7435913085938,787.3259887695312,794.5787353515625,780.879150390625
1216,790.5494384765625,796.5933837890625,790.1465454101562,790.5494384765625
1217,794.1758422851562,792.967041015625,791.3552856445312,799.010986328125
1218,792.5640869140625,787.7289428710938,791.7582397460938,787.7289428710938
1219,787.7289428710938,786.923095703125,788.5347900390625,775.2380981445312
1220,786.923095703125,788.937744140625,792.1611938476562,782.4908447265625
1221,787.3259887695312,790.5494384765625,792.5640869140625,790.5494384765625
1222,783.2966918945312,788.5347900390625,786.923095703125,782.4908447265625
1223,786.923095703125,790.952392578125,787.3259887695312,783.6996459960938
1224,790.5494384765625,792.967041015625,792.967041015625,784.5054931640625
1225,782.087890625,790.5494384765625,790.5494384765625,777.6557006835938
1226,776.8497924804688,787.7289428710938,791.7582397460938,778.4615478515625
1227,786.5201416015625,792.1611938476562,792.967041015625,786.1171875
1228,794.981689453125,794.5787353515625,792.1611938476562,789.3406372070312
1229,792.967041015625,791.3552856445312,792.1611938476562,788.5347900390625
1230,790.5494384765625,793.7728881835938,789.7435913085938,789.3406372070312
1231,790.952392578125,791.3552856445312,792.5640869140625,795.3846435546875
1232,790.952392578125,796.996337890625,792.1611938476562,798.6080322265625
1233,792.967041015625,804.6520385742188,792.1611938476562,794.1758422851562
1234,790.1465454101562,800.6226806640625,793.7728881835938,791.3552856445312
1235,785.3113403320312,796.996337890625,792.5640869140625,786.5201416015625
1236,791.7582397460938,796.996337890625,794.5787353515625,789.3406372070312
1237,796.1904907226562,795.3846435546875,794.1758422851562,792.1611938476562
1238,799.4139404296875,796.1904907226562,794.1758422851562,792.967041015625
1239,794.1758422851562,799.4139404296875,790.5494384765625,794.981689453125
1240,790.1465454101562,801.025634765625,785.7142944335938,794.5787353515625
1241,791.7582397460938,800.6226806640625,790.1465454101562,791.7582397460938
1242,792.5640869140625,797.3992919921875,794.1758422851562,789.3406372070312
1243,802.6373901367188,803.040283203125,794.5787353515625,799.8168334960938
1244,803.8461303710938,803.040283203125,795.3846435546875,804.6520385742188
1245,797.3992919921875,799.4139404296875,793.3699340820312,794.981689453125
1246,796.5933837890625,798.2051391601562,788.937744140625,787.3259887695312
1247,794.1758422851562,794.1758422851562,788.1318969726562,787.7289428710938
1248,797.8021850585938,795.7875366210938,792.967041015625,799.010986328125
1249,799.4139404296875,796.996337890625,797.3992919921875,802.6373901367188
1250,792.967041015625,792.1611938476562,799.8168334960938,800.2197875976562
1251,787.7289428710938,784.908447265625,793.7728881835938,795.7875366210938
1252,788.5347900390625,784.5054931640625,788.937744140625,798.2051391601562
1253,792.967041015625,790.952392578125,795.7875366210938,801.4285888671875
1254,791.3552856445312,788.5347900390625,795.7875366210938,792.5640869140625
1255,786.1171875,786.923095703125,795.3846435546875,790.1465454101562
1256,784.1025390625,787.7289428710938,795.7875366210938,792.967041015625
1257,786.1171875,786.923095703125,794.5787353515625,795.3846435546875
1258,791.7582397460938,790.1465454101562,795.7875366210938,798.2051391601562
1259,788.5347900390625,789.3406372070312,792.1611938476562,800.6226806640625
1260,784.1025390625,787.3259887695312,792.1611938476562,796.5933837890625
1261,784.5054931640625,787.3259887695312,792.967041015625,791.3552856445312
1262,786.1171875,789.3406372070312,794.981689453125,794.5787353515625
1263,793.3699340820312,794.981689453125,798.2051391601562,797.3992919921875
1264,794.981689453125,793.3699340820312,794.5787353515625,795.3846435546875
1265,799.010986328125,792.967041015625,792.1611938476562,796.1904907226562
1266,801.4285888671875,791.3552856445312,799.010986328125,801.8314819335938
1267,794.981689453125,785.7142944335938,799.4139404296875,799.010986328125
1268,797.8021850585938,786.5201416015625,795.7875366210938,790.5494384765625
1269,799.4139404296875,784.908447265625,793.3699340820312,785.7142944335938
1270,791.3552856445312,782.087890625,792.967041015625,785.3113403320312
1271,789.7435913085938,786.1171875,795.7875366210938,786.5201416015625
1272,790.1465454101562,786.5201416015625,799.4139404296875,785.7142944335938
1273,792.1611938476562,790.1465454101562,798.6080322265625,786.923095703125
1274,790.952392578125,793.7728881835938,795.3846435546875,790.5494384765625
1275,788.1318969726562,789.3406372070312,797.8021850585938,790.5494384765625
1276,791.3552856445312,788.5347900390625,801.025634765625,794.1758422851562
1277,792.1611938476562,790.1465454101562,798.2051391601562,795.7875366210938
1278,792.967041015625,791.3552856445312,794.1758422851562,794.5787353515625
1279,794.981689453125,796.1904907226562,793.3699340820312,796.1904907226562
1280,794.1758422851562,794.1758422851562,794.5787353515625,797.3992919921875
1281,791.3552856445312,789.7435913085938,794.5787353515625,798.2051391601562
1282,794.981689453125,792.1611938476562,795.3846435546875,800.2197875976562
1283,794.981689453125,794.981689453125,793.7728881835938,801.4285888671875
1284,790.5494384765625,795.7875366210938,791.3552856445312,795.7875366210938
1285,792.5640869140625,797.3992919921875,793.3699340820312,790.952392578125
1286,792.5640869140625,792.5640869140625,793.3699340820312,784.908447265625
1287,787.7289428710938,788.937744140625,790.952392578125,783.2966918945312
1288,789.3406372070312,790.1465454101562,787.7289428710938,784.1025390625
1289,792.967041015625,790.952392578125,787.3259887695312,780.879150390625
1290,786.923095703125,788.5347900390625,782.4908447265625,778.8644409179688
1291,783.6996459960938,788.937744140625,776.0439453125,777.6557006835938
1292,782.4908447265625,794.1758422851562,777.6557006835938,777.6557006835938
1293,780.879150390625,788.1318969726562,782.4908447265625,787.7289428710938
1294,783.6996459960938,788.5347900390625,784.908447265625,790.5494384765625
1295,780.4761962890625,796.1904907226562,788.937744140625,782.893798828125
1296,779.6703491210938,791.7582397460938,790.5494384765625,782.087890625
1297,780.4761962890625,788.5347900390625,792.5640869140625,781.2820434570312
1298,784.908447265625,792.967041015625,798.2051391601562,782.087890625
1299,786.5201416015625,786.923095703125,798.6080322265625,785.3113403320312
1300,786.5201416015625,789.3406372070312,797.8021850585938,783.2966918945312
1301,790.5494384765625,801.025634765625,798.6080322265625,781.6849975585938
1302,786.1171875,795.7875366210938,801.8314819335938,781.2820434570312
1303,785.3113403320312,796.1904907226562,797.8021850585938,779.6703491210938
1304,788.937744140625,801.4285888671875,796.996337890625,783.6996459960938
1305,796.1904907226562,801.4285888671875,801.8314819335938,790.1465454101562
1306,798.6080322265625,801.4285888671875,797.8021850585938,785.7142944335938
1307,796.1904907226562,800.2197875976562,792.967041015625,778.05859375
1308,795.7875366210938,798.2051391601562,792.5640869140625,781.6849975585938
1309,793.7728881835938,797.8021850585938,790.952392578125,788.1318969726562
1310,790.1465454101562,799.010986328125,791.3552856445312,786.5201416015625
1311,790.1465454101562,799.8168334960938,790.952392578125,781.6849975585938
1312,790.952392578125,799.4139404296875,791.7582397460938,779.6703491210938
1313,792.1611938476562,799.010986328125,792.1611938476562,780.0732421875
1314,796.1904907226562,799.4139404296875,792.5640869140625,782.087890625
1315,792.1611938476562,795.7875366210938,789.7435913085938,780.0732421875
1316,788.937744140625,794.981689453125,787.3259887695312,786.1171875
1317,784.908447265625,797.3992919921875,786.923095703125,786.5201416015625
1318,783.2966918945312,795.7875366210938,785.7142944335938,774.4322509765625
1319,788.1318969726562,794.5787353515625,788.5347900390625,782.4908447265625
1320,789.7435913085938,794.5787353515625,792.5640869140625,789.3406372070312
1321,787.3259887695312,794.981689453125,794.5787353515625,788.1318969726562
1322,789.3406372070312,796.996337890625,794.981689453125,788.5347900390625
1323,790.952392578125,803.040283203125,796.996337890625,790.5494384765625
1324,790.5494384765625,796.996337890625,797.8021850585938,792.1611938476562
1325,788.1318969726562,788.937744140625,790.952392578125,786.1171875
1326,792.5640869140625,792.967041015625,789.7435913085938,786.923095703125
1327,800.6226806640625,793.7728881835938,792.5640869140625,796.5933837890625
1328,803.8461303710938,794.5787353515625,792.1611938476562,807.069580078125
1329,802.2344360351562,795.7875366210938,793.3699340820312,804.6520385742188
1330,800.2197875976562,799.8168334960938,792.5640869140625,798.2051391601562
1331,802.6373901367188,797.3992919921875,791.3552856445312,805.4578857421875
1332,808.2783813476562,791.7582397460938,788.5347900390625,805.8607788085938
1333,801.025634765625,794.1758422851562,790.5494384765625,795.7875366210938
1334,795.7875366210938,793.7728881835938,791.7582397460938,798.2051391601562
1335,793.7728881835938,790.1465454101562,789.7435913085938,796.5933837890625
1336,791.7582397460938,791.3552856445312,788.937744140625,788.5347900390625
1337,786.923095703125,791.7582397460938,786.5201416015625,784.5054931640625
1338,780.4761962890625,788.5347900390625,785.3113403320312,780.879150390625
1339,788.937744140625,790.952392578125,786.923095703125,788.1318969726562
1340,786.5201416015625,790.5494384765625,791.7582397460938,795.3846435546875
1341,780.4761962890625,787.7289428710938,791.3552856445312,788.937744140625
1342,783.2966918945312,787.3259887695312,790.952392578125,785.3113403320312
1343,786.1171875,788.1318969726562,791.3552856445312,781.2820434570312
1344,787.7289428710938,789.7435913085938,793.3699340820312,777.6557006835938
1345,794.5787353515625,792.1611938476562,796.1904907226562,779.6703491210938
1346,798.6080322265625,792.5640869140625,792.1611938476562,783.2966918945312
1347,785.7142944335938,792.5640869140625,790.952392578125,786.1171875
1348,777.2527465820312,794.5787353515625,796.996337890625,782.087890625
1349,782.087890625,793.7728881835938,797.3992919921875,780.879150390625
1350,791.7582397460938,788.5347900390625,794.981689453125,784.908447265625
1351,799.8168334960938,791.3552856445312,799.4139404296875,790.5494384765625
1352,795.3846435546875,799.010986328125,798.6080322265625,788.1318969726562
1353,791.7582397460938,795.3846435546875,794.1758422851562,781.6849975585938
1354,791.3552856445312,789.7435913085938,793.3699340820312,788.1318969726562
1355,796.5933837890625,796.1904907226562,792.1611938476562,798.6080322265625
1356,797.8021850585938,801.025634765625,794.5787353515625,797.3992919921875
1357,795.7875366210938,794.981689453125,799.010986328125,793.3699340820312
1358,793.3699340820312,796.996337890625,801.025634765625,794.5787353515625
1359,793.7728881835938,803.040283203125,799.010986328125,794.5787353515625
1360,799.010986328125,801.8314819335938,797.8021850585938,789.7435913085938
1361,800.2197875976562,800.2197875976562,796.5933837890625,793.3699340820312
1362,800.2197875976562,805.4578857421875,796.996337890625,798.6080322265625
1363,797.8021850585938,806.6666870117188,798.6080322265625,799.010986328125
1364,793.3699340820312,799.010986328125,798.6080322265625,794.1758422851562
1365,790.5494384765625,795.3846435546875,794.5787353515625,793.7728881835938
1366,784.5054931640625,792.967041015625,794.5787353515625,801.8314819335938
1367,780.879150390625,794.5787353515625,795.3846435546875,798.2051391601562
1368,791.3552856445312,790.952392578125,790.5494384765625,794.1758422851562
1369,788.937744140625,784.908447265625,789.7435913085938,798.2051391601562
1370,783.2966918945312,788.937744140625,792.5640869140625,794.5787353515625
1371,785.7142944335938,791.3552856445312,790.5494384765625,794.5787353515625
1372,780.0732421875,790.5494384765625,791.7582397460938,795.3846435546875
1373,783.6996459960938,794.981689453125,798.6080322265625,794.981689453125
1374,796.1904907226562,796.5933837890625,796.1904907226562,790.1465454101562
1375,803.040283203125,790.952392578125,793.3699340820312,784.5054931640625
1376,799.8168334960938,784.908447265625,789.7435913085938,783.2966918945312
1377,799.010986328125,788.1318969726562,788.1318969726562,786.5201416015625
1378,803.040283203125,797.3992919921875,791.7582397460938,790.5494384765625
1379,797.8021850585938,795.7875366210938,794.1758422851562,786.5201416015625
1380,791.3552856445312,791.7582397460938,791.7582397460938,784.908447265625
1381,799.4139404296875,793.7728881835938,792.967041015625,790.5494384765625
1382,804.2490844726562,800.2197875976562,801.025634765625,793.7728881835938
1383,797.3992919921875,805.054931640625,800.2197875976562,787.7289428710938
1384,801.025634765625,804.2490844726562,794.5787353515625,787.3259887695312
1385,801.8314819335938,800.6226806640625,792.5640869140625,788.1318969726562
1386,799.8168334960938,797.3992919921875,792.5640869140625,786.5201416015625
1387,800.2197875976562,797.8021850585938,793.3699340820312,786.5201416015625
1388,797.3992919921875,805.8607788085938,791.3552856445312,786.1171875
1389,799.8168334960938,809.084228515625,790.1465454101562,790.952392578125
1390,799.8168334960938,802.6373901367188,789.7435913085938,794.1758422851562
1391,798.6080322265625,801.025634765625,792.5640869140625,791.7582397460938
1392,799.010986328125,801.8314819335938,797.8021850585938,798.6080322265625
1393,791.3552856445312,803.040283203125,796.996337890625,799.010986328125
1394,786.1171875,804.6520385742188,792.5640869140625,801.8314819335938
1395,788.1318969726562,804.2490844726562,796.1904907226562,812.7106323242188
1396,791.3552856445312,801.4285888671875,801.8314819335938,820.7692260742188
1397,790.1465454101562,794.1758422851562,801.025634765625,817.5457763671875
1398,792.5640869140625,795.3846435546875,803.040283203125,811.098876953125
1399,797.8021850585938,802.6373901367188,806.6666870117188,811.90478515625
1400,788.937744140625,796.1904907226562,803.8461303710938,806.2637329101562
1401,785.7142944335938,790.1465454101562,799.8168334960938,805.8607788085938
1402,787.7289428710938,790.952392578125,801.8314819335938,799.010986328125
1403,783.6996459960938,790.1465454101562,803.040283203125,794.1758422851562
1404,779.2673950195312,789.7435913085938,803.4432373046875,793.7728881835938
1405,783.6996459960938,787.3259887695312,799.4139404296875,790.5494384765625
1406,788.937744140625,786.1171875,794.1758422851562,784.908447265625
1407,791.3552856445312,789.3406372070312,795.7875366210938,779.6703491210938
1408,790.5494384765625,794.5787353515625,793.7728881835938,777.2527465820312
1409,789.3406372070312,795.3846435546875,789.3406372070312,772.4176025390625
1410,791.3552856445312,796.1904907226562,784.908447265625,768.7911987304688
1411,793.7728881835938,796.5933837890625,785.3113403320312,770.4029541015625
1412,793.7728881835938,790.5494384765625,784.908447265625,774.029296875
1413,794.1758422851562,792.967041015625,782.4908447265625,774.8351440429688
1414,792.967041015625,798.6080322265625,782.087890625,770.8058471679688
1415,796.996337890625,792.967041015625,781.2820434570312,775.2380981445312
1416,805.054931640625,795.3846435546875,786.5201416015625,780.4761962890625
1417,805.054931640625,795.3846435546875,786.5201416015625,782.087890625
1418,802.6373901367188,792.967041015625,786.923095703125,787.3259887695312
1419,798.6080322265625,799.4139404296875,793.3699340820312,801.025634765625
1420,788.937744140625,799.8168334960938,793.3699340820312,803.040283203125
1421,784.1025390625,795.3846435546875,790.5494384765625,796.1904907226562
1422,788.5347900390625,789.7435913085938,786.923095703125,799.4139404296875
1423,788.5347900390625,789.7435913085938,790.5494384765625,801.025634765625
1424,780.4761962890625,787.3259887695312,799.010986328125,802.6373901367188
1425,776.8497924804688,782.893798828125,801.4285888671875,803.040283203125
1426,780.4761962890625,779.6703491210938,801.4285888671875,801.8314819335938
1427,789.3406372070312,783.2966918945312,803.8461303710938,805.8607788085938
1428,784.1025390625,788.1318969726562,800.2197875976562,803.8461303710938
1429,771.6116943359375,784.5054931640625,797.3992919921875,797.3992919921875
1430,775.6410522460938,786.5201416015625,799.4139404296875,795.7875366210938
1431,782.893798828125,789.7435913085938,800.6226806640625,797.3992919921875
1432,782.4908447265625,788.937744140625,802.6373901367188,797.8021850585938
1433,776.8497924804688,790.952392578125,799.010986328125,787.7289428710938
1434,777.6557006835938,793.3699340820312,792.967041015625,779.6703491210938
1435,784.908447265625,794.981689453125,791.3552856445312,786.1171875
1436,794.5787353515625,798.6080322265625,793.7728881835938,789.7435913085938
1437,803.040283203125,797.3992919921875,794.5787353515625,784.5054931640625
1438,805.8607788085938,792.1611938476562,788.5347900390625,786.5201416015625
1439,801.4285888671875,796.996337890625,782.893798828125,787.7289428710938
1440,809.4871826171875,805.4578857421875,788.5347900390625,785.7142944335938
1441,821.1721801757812,807.4725341796875,788.5347900390625,786.5201416015625
1442,819.96337890625,807.87548828125,781.2820434570312,791.7582397460938
1443,809.4871826171875,803.040283203125,784.1025390625,790.952392578125
1444,807.069580078125,803.040283203125,789.3406372070312,790.5494384765625
1445,804.6520385742188,799.8168334960938,787.3259887695312,792.967041015625
1446,801.025634765625,795.3846435546875,787.3259887695312,800.2197875976562
1447,800.2197875976562,799.010986328125,793.7728881835938,807.4725341796875
1448,791.7582397460938,801.025634765625,792.1611938476562,801.8314819335938
1449,791.7582397460938,796.996337890625,790.5494384765625,803.8461303710938
1450,790.1465454101562,792.967041015625,794.981689453125,809.084228515625
1451,783.6996459960938,791.7582397460938,796.1904907226562,807.4725341796875
1452,780.0732421875,794.1758422851562,794.5787353515625,804.2490844726562
1453,776.8497924804688,790.1465454101562,794.1758422851562,799.4139404296875
1454,774.029296875,786.5201416015625,790.5494384765625,796.1904907226562
1455,773.6264038085938,786.923095703125,794.1758422851562,796.996337890625
1456,775.6410522460938,788.937744140625,798.2051391601562,803.8461303710938
1457,779.6703491210938,795.7875366210938,797.3992919921875,800.2197875976562
1458,789.7435913085938,797.8021850585938,797.8021850585938,803.8461303710938
1459,791.7582397460938,800.2197875976562,800.2197875976562,812.7106323242188
1460,783.2966918945312,796.1904907226562,800.6226806640625,803.040283203125
1461,783.2966918945312,789.7435913085938,799.4139404296875,795.3846435546875
1462,788.1318969726562,793.3699340820312,800.2197875976562,791.7582397460938
1463,790.952392578125,789.7435913085938,800.2197875976562,792.1611938476562
1464,793.3699340820312,785.3113403320312,794.5787353515625,784.5054931640625
1465,793.7728881835938,788.937744140625,789.3406372070312,781.2820434570312
1466,794.5787353515625,791.7582397460938,792.5640869140625,788.937744140625
1467,798.6080322265625,796.5933837890625,790.5494384765625,784.1025390625
1468,804.6520385742188,796.5933837890625,787.7289428710938,780.0732421875
1469,812.7106323242188,789.7435913085938,792.5640869140625,785.3113403320312
1470,808.6813354492188,795.7875366210938,793.3699340820312,783.2966918945312
1471,800.2197875976562,794.1758422851562,793.3699340820312,783.6996459960938
1472,800.2197875976562,795.3846435546875,791.3552856445312,788.937744140625
1473,804.2490844726562,801.025634765625,786.5201416015625,795.3846435546875
1474,799.010986328125,794.1758422851562,786.923095703125,801.4285888671875
1475,792.5640869140625,794.5787353515625,793.3699340820312,798.2051391601562
1476,788.937744140625,796.996337890625,797.3992919921875,799.4139404296875
1477,785.7142944335938,794.5787353515625,797.8021850585938,801.025634765625
1478,780.879150390625,789.3406372070312,796.5933837890625,796.5933837890625
1479,774.8351440429688,784.908447265625,794.1758422851562,794.5787353515625
1480,774.4322509765625,782.087890625,796.5933837890625,796.5933837890625
1481,774.029296875,784.1025390625,797.3992919921875,795.3846435546875
1482,778.4615478515625,790.5494384765625,797.8021850585938,795.3846435546875
1483,781.2820434570312,787.3259887695312,796.5933837890625,787.7289428710938
1484,776.8497924804688,784.908447265625,795.3846435546875,784.5054931640625
1485,774.8351440429688,788.1318969726562,792.1611938476562,786.5201416015625
1486,778.05859375,793.7728881835938,790.5494384765625,784.908447265625
1487,785.7142944335938,794.981689453125,789.7435913085938,781.2820434570312
1488,788.5347900390625,791.3552856445312,788.937744140625,783.6996459960938
1489,787.7289428710938,795.3846435546875,790.5494384765625,784.908447265625
1490,797.8021850585938,799.8168334960938,788.1318969726562,783.6996459960938
1491,803.8461303710938,801.4285888671875,787.7289428710938,784.1025390625
1492,803.8461303710938,801.4285888671875,787.7289428710938,784.908447265625
1493,807.4725341796875,802.6373901367188,784.908447265625,788.5347900390625
1494,815.5311279296875,807.069580078125,790.5494384765625,798.2051391601562
1495,812.3076782226562,804.6520385742188,792.1611938476562,796.5933837890625
1496,802.2344360351562,796.5933837890625,786.923095703125,790.952392578125
1497,801.4285888671875,797.3992919921875,790.5494384765625,795.7875366210938
1498,797.8021850585938,798.6080322265625,794.981689453125,796.5933837890625
1499,799.010986328125,799.4139404296875,795.7875366210938,796.996337890625
1500,802.2344360351562,798.6080322265625,796.1904907226562,796.5933837890625
1501,799.4139404296875,795.7875366210938,793.7728881835938,795.7875366210938
1502,792.967041015625,790.952392578125,793.7728881835938,798.6080322265625
1503,794.1758422851562,788.937744140625,796.1904907226562,799.4139404296875
1504,800.6226806640625,791.3552856445312,798.6080322265625,804.6520385742188
1505,794.1758422851562,792.1611938476562,799.8168334960938,805.4578857421875
1506,789.3406372070312,792.967041015625,799.8168334960938,801.025634765625
1507,783.2966918945312,796.996337890625,796.5933837890625,795.7875366210938
1508,781.2820434570312,791.7582397460938,792.967041015625,792.967041015625
1509,787.7289428710938,790.952392578125,792.967041015625,794.5787353515625
1510,782.893798828125,796.1904907226562,792.5640869140625,786.1171875
1511,782.4908447265625,798.2051391601562,795.7875366210938,786.5201416015625
1512,782.4908447265625,797.8021850585938,797.8021850585938,788.1318969726562
1513,783.6996459960938,794.981689453125,797.3992919921875,784.908447265625
1514,792.5640869140625,797.3992919921875,802.2344360351562,782.893798828125
1515,796.996337890625,796.1904907226562,803.8461303710938,783.6996459960938
1516,794.981689453125,793.3699340820312,799.8168334960938,783.2966918945312
1517,792.1611938476562,793.3699340820312,796.996337890625,782.4908447265625
1518,795.3846435546875,794.1758422851562,794.981689453125,781.6849975585938
1519,801.025634765625,796.996337890625,795.3846435546875,790.1465454101562
1520,803.040283203125,799.8168334960938,792.1611938476562,799.010986328125
1521,805.8607788085938,805.8607788085938,793.3699340820312,794.981689453125
1522,803.040283203125,806.6666870117188,795.7875366210938,790.5494384765625
1523,796.996337890625,806.6666870117188,794.1758422851562,795.3846435546875
1524,796.996337890625,805.054931640625,794.1758422851562,799.010986328125
1525,796.1904907226562,800.6226806640625,795.3846435546875,794.1758422851562
1526,792.5640869140625,800.2197875976562,797.3992919921875,791.3552856445312
1527,789.3406372070312,801.025634765625,796.1904907226562,789.3406372070312
1528,790.1465454101562,796.996337890625,803.040283203125,790.1465454101562
1529,791.3552856445312,795.3846435546875,803.8461303710938,788.937744140625
1530,783.2966918945312,795.7875366210938,799.010986328125,785.3113403320312
1531,778.8644409179688,796.996337890625,796.1904907226562,788.937744140625
1532,781.6849975585938,797.8021850585938,790.5494384765625,785.7142944335938
1533,777.6557006835938,789.7435913085938,789.3406372070312,777.6557006835938
1534,776.4468994140625,790.952392578125,789.3406372070312,781.6849975585938
1535,782.893798828125,799.010986328125,789.7435913085938,784.1025390625
1536,785.7142944335938,801.8314819335938,790.1465454101562,783.2966918945312
1537,784.1025390625,799.8168334960938,792.967041015625,779.2673950195312
1538,788.5347900390625,801.8314819335938,793.3699340820312,780.879150390625
1539,794.1758422851562,805.054931640625,794.981689453125,785.3113403320312
1540,794.5787353515625,801.4285888671875,793.3699340820312,781.2820434570312
1541,797.3992919921875,801.025634765625,791.7582397460938,783.2966918945312
1542,799.8168334960938,803.040283203125,794.1758422851562,788.937744140625
1543,802.2344360351562,805.054931640625,798.6080322265625,794.981689453125
1544,803.040283203125,805.054931640625,799.8168334960938,793.3699340820312
1545,805.4578857421875,797.8021850585938,795.3846435546875,792.967041015625
1546,806.2637329101562,793.7728881835938,798.6080322265625,801.025634765625
1547,796.5933837890625,792.967041015625,800.6226806640625,796.1904907226562
1548,795.3846435546875,793.7728881835938,795.3846435546875,790.952392578125
1549,798.2051391601562,791.7582397460938,795.7875366210938,794.981689453125
1550,794.981689453125,791.7582397460938,798.2051391601562,794.1758422851562
1551,796.996337890625,798.6080322265625,800.6226806640625,794.5787353515625
1552,793.3699340820312,796.5933837890625,804.6520385742188,789.7435913085938
1553,787.3259887695312,792.967041015625,804.2490844726562,786.1171875
1554,795.3846435546875,793.7728881835938,805.4578857421875,794.981689453125
1555,797.3992919921875,794.981689453125,804.2490844726562,796.996337890625
1556,794.5787353515625,795.7875366210938,803.4432373046875,791.3552856445312
1557,800.2197875976562,794.981689453125,806.6666870117188,790.1465454101562
1558,800.2197875976562,796.996337890625,806.2637329101562,793.7728881835938
1559,794.1758422851562,797.3992919921875,808.2783813476562,798.2051391601562
1560,792.967041015625,797.8021850585938,807.069580078125,798.2051391601562
1561,794.1758422851562,802.2344360351562,802.2344360351562,799.4139404296875
1562,792.1611938476562,805.054931640625,802.2344360351562,792.5640869140625
1563,786.923095703125,801.025634765625,799.010986328125,784.908447265625
1564,789.3406372070312,797.3992919921875,796.1904907226562,784.908447265625
1565,789.7435913085938,793.3699340820312,796.5933837890625,780.0732421875
1566,786.5201416015625,794.5787353515625,792.5640869140625,785.7142944335938
1567,784.5054931640625,798.6080322265625,796.996337890625,787.3259887695312
1568,776.4468994140625,797.8021850585938,801.4285888671875,777.2527465820312
1569,778.05859375,796.5933837890625,799.8168334960938,782.4908447265625
1570,781.2820434570312,796.5933837890625,801.025634765625,789.7435913085938
1571,775.6410522460938,793.7728881835938,799.4139404296875,783.6996459960938
1572,776.0439453125,787.3259887695312,796.5933837890625,780.879150390625
1573,778.05859375,784.908447265625,796.996337890625,786.5201416015625
1574,779.2673950195312,788.937744140625,799.010986328125,791.3552856445312
1575,779.2673950195312,786.923095703125,796.5933837890625,786.5201416015625
1576,786.923095703125,786.5201416015625,796.1904907226562,784.908447265625
1577,789.3406372070312,791.7582397460938,797.3992919921875,786.5201416015625
1578,785.3113403320312,792.967041015625,798.2051391601562,783.2966918945312
1579,784.1025390625,794.1758422851562,797.8021850585938,782.087890625
1580,787.7289428710938,796.5933837890625,797.8021850585938,782.087890625
1581,797.8021850585938,795.3846435546875,800.2197875976562,791.7582397460938
1582,797.3992919921875,798.6080322265625,799.4139404296875,797.8021850585938
1583,786.5201416015625,800.6226806640625,796.5933837890625,788.1318969726562
1584,783.2966918945312,799.8168334960938,790.5494384765625,779.2673950195312
1585,790.952392578125,800.6226806640625,791.7582397460938,780.4761962890625
