timestamp,RAW_TP9,RAW_AF7,RAW_AF8,RAW_TP10
1,798.6080322265625,800.6226806640625,798.2051391601562,805.054931640625
2,796.5933837890625,802.2344360351562,800.6226806640625,801.8314819335938
3,795.3846435546875,794.981689453125,794.981689453125,802.6373901367188
4,793.7728881835938,785.3113403320312,793.7728881835938,794.5787353515625
5,790.952392578125,788.5347900390625,796.996337890625,783.6996459960938
6,791.3552856445312,796.1904907226562,796.1904907226562,788.1318969726562
7,789.7435913085938,797.3992919921875,799.4139404296875,801.8314819335938
8,788.1318969726562,797.8021850585938,801.025634765625,801.8314819335938
9,790.1465454101562,794.1758422851562,801.8314819335938,799.8168334960938
10,790.952392578125,790.5494384765625,799.8168334960938,804.2490844726562
11,791.3552856445312,793.3699340820312,793.7728881835938,801.025634765625
12,796.1904907226562,797.8021850585938,797.3992919921875,797.3992919921875
13,799.8168334960938,792.5640869140625,800.2197875976562,795.3846435546875
14,796.5933837890625,790.5494384765625,796.1904907226562,793.7728881835938
15,791.3552856445312,792.967041015625,794.1758422851562,794.981689453125
16,787.3259887695312,795.3846435546875,796.5933837890625,791.3552856445312
17,788.937744140625,790.5494384765625,798.6080322265625,776.8497924804688
18,790.5494384765625,781.6849975585938,795.7875366210938,775.2380981445312
19,789.7435913085938,782.893798828125,788.1318969726562,785.3113403320312
20,786.5201416015625,791.7582397460938,792.1611938476562,779.2673950195312
21,787.3259887695312,794.981689453125,801.8314819335938,779.6703491210938
22,791.7582397460938,785.7142944335938,796.996337890625,786.1171875
23,798.2051391601562,785.7142944335938,795.3846435546875,786.5201416015625
24,799.8168334960938,791.3552856445312,791.3552856445312,786.1171875
25,800.2197875976562,796.1904907226562,790.952392578125,791.7582397460938
26,790.952392578125,796.5933837890625,794.1758422851562,790.1465454101562
27,787.7289428710938,794.5787353515625,793.3699340820312,794.5787353515625
28,794.1758422851562,794.981689453125,791.3552856445312,802.2344360351562
29,790.5494384765625,799.8168334960938,793.3699340820312,794.1758422851562
30,784.1025390625,798.2051391601562,794.5787353515625,785.7142944335938
31,783.2966918945312,798.2051391601562,794.5787353515625,785.3113403320312
32,780.879150390625,798.6080322265625,796.996337890625,784.5054931640625
33,784.1025390625,796.996337890625,796.5933837890625,791.7582397460938
34,787.3259887695312,796.996337890625,790.1465454101562,796.1904907226562
35,779.2673950195312,799.010986328125,789.7435913085938,788.5347900390625
36,779.2673950195312,799.8168334960938,790.952392578125,786.1171875
37,787.3259887695312,792.967041015625,786.1171875,787.3259887695312
38,794.1758422851562,789.7435913085938,793.7728881835938,797.3992919921875
39,794.5787353515625,794.1758422851562,799.8168334960938,800.6226806640625
40,790.1465454101562,802.2344360351562,796.996337890625,796.1904907226562
41,788.1318969726562,795.7875366210938,791.7582397460938,798.2051391601562
42,785.3113403320312,788.937744140625,790.1465454101562,805.054931640625
43,786.5201416015625,794.5787353515625,792.5640869140625,804.2490844726562
44,788.937744140625,799.4139404296875,792.1611938476562,796.5933837890625
45,788.937744140625,798.6080322265625,792.1611938476562,788.5347900390625
46,788.1318969726562,789.3406372070312,788.937744140625,783.6996459960938
47,792.1611938476562,785.7142944335938,790.952392578125,789.7435913085938
48,796.1904907226562,795.3846435546875,795.7875366210938,790.5494384765625
49,798.2051391601562,794.5787353515625,791.7582397460938,787.7289428710938
50,795.7875366210938,793.3699340820312,801.4285888671875,797.3992919921875
51,794.1758422851562,798.2051391601562,806.2637329101562,797.8021850585938
52,795.3846435546875,799.8168334960938,798.6080322265625,792.967041015625
53,796.996337890625,799.4139404296875,792.1611938476562,799.010986328125
54,789.7435913085938,792.5640869140625,793.3699340820312,794.1758422851562
55,785.7142944335938,788.5347900390625,801.025634765625,788.937744140625
56,788.5347900390625,785.3113403320312,797.8021850585938,792.5640869140625
57,794.1758422851562,784.1025390625,794.5787353515625,792.967041015625
58,799.010986328125,790.952392578125,796.5933837890625,792.1611938476562
59,799.010986328125,790.1465454101562,798.2051391601562,794.5787353515625
60,797.3992919921875,787.3259887695312,795.7875366210938,796.5933837890625
61,792.1611938476562,787.7289428710938,791.7582397460938,795.7875366210938
62,788.1318969726562,793.3699340820312,794.1758422851562,793.3699340820312
63,786.1171875,793.7728881835938,799.010986328125,795.7875366210938
64,792.1611938476562,786.5201416015625,795.7875366210938,800.6226806640625
65,796.1904907226562,782.087890625,790.1465454101562,800.6226806640625
66,792.5640869140625,786.923095703125,790.5494384765625,788.5347900390625
67,790.1465454101562,790.952392578125,796.5933837890625,784.908447265625
68,789.3406372070312,792.5640869140625,799.8168334960938,790.952392578125
69,787.3259887695312,793.7728881835938,798.6080322265625,788.1318969726562
70,790.952392578125,791.7582397460938,795.7875366210938,787.3259887695312
71,788.5347900390625,790.5494384765625,797.8021850585938,789.3406372070312
72,787.3259887695312,790.1465454101562,795.7875366210938,787.7289428710938
73,789.7435913085938,795.3846435546875,796.5933837890625,791.7582397460938
74,794.1758422851562,799.4139404296875,801.025634765625,795.7875366210938
75,792.1611938476562,791.3552856445312,800.6226806640625,787.7289428710938
76,789.3406372070312,787.7289428710938,791.3552856445312,786.923095703125
77,790.5494384765625,791.3552856445312,787.3259887695312,795.7875366210938
78,786.923095703125,792.967041015625,788.5347900390625,790.1465454101562
79,790.5494384765625,789.3406372070312,793.7728881835938,788.1318969726562
80,796.5933837890625,791.7582397460938,798.6080322265625,799.4139404296875
81,796.5933837890625,790.5494384765625,796.5933837890625,800.2197875976562
82,793.3699340820312,788.5347900390625,794.5787353515625,792.5640869140625
83,787.3259887695312,787.7289428710938,790.5494384765625,788.5347900390625
84,787.7289428710938,790.5494384765625,790.5494384765625,788.5347900390625
85,793.7728881835938,795.7875366210938,791.7582397460938,789.3406372070312
86,796.5933837890625,793.7728881835938,787.3259887695312,790.5494384765625
87,788.1318969726562,790.952392578125,788.5347900390625,792.967041015625
88,783.2966918945312,788.5347900390625,789.3406372070312,797.3992919921875
89,789.3406372070312,789.7435913085938,790.5494384765625,795.3846435546875
90,794.1758422851562,792.5640869140625,792.5640869140625,793.3699340820312
91,789.3406372070312,787.7289428710938,794.5787353515625,792.1611938476562
92,785.7142944335938,790.1465454101562,798.6080322265625,788.937744140625
93,790.1465454101562,792.967041015625,799.8168334960938,784.908447265625
94,795.3846435546875,796.996337890625,799.4139404296875,784.1025390625
95,796.1904907226562,796.1904907226562,796.5933837890625,788.1318969726562
96,794.5787353515625,793.7728881835938,792.5640869140625,791.3552856445312
97,796.5933837890625,799.4139404296875,792.967041015625,789.3406372070312
98,798.6080322265625,799.010986328125,791.7582397460938,788.937744140625
99,802.6373901367188,797.8021850585938,791.3552856445312,801.4285888671875
100,801.4285888671875,799.8168334960938,797.8021850585938,804.2490844726562
101,796.996337890625,795.7875366210938,801.025634765625,790.952392578125
102,794.981689453125,791.3552856445312,792.967041015625,782.087890625
103,790.5494384765625,791.7582397460938,789.3406372070312,786.1171875
104,790.5494384765625,794.1758422851562,796.1904907226562,791.7582397460938
105,797.8021850585938,796.1904907226562,803.040283203125,796.1904907226562
106,793.3699340820312,797.8021850585938,801.4285888671875,798.2051391601562
107,786.1171875,799.010986328125,798.6080322265625,791.7582397460938
108,789.3406372070312,795.7875366210938,797.8021850585938,786.5201416015625
109,790.1465454101562,797.8021850585938,797.8021850585938,785.7142944335938
110,782.4908447265625,796.1904907226562,792.967041015625,785.3113403320312
111,781.2820434570312,792.967041015625,785.3113403320312,785.3113403320312
112,786.923095703125,789.7435913085938,786.5201416015625,790.952392578125
113,795.3846435546875,779.2673950195312,794.1758422851562,796.1904907226562
114,796.996337890625,784.1025390625,794.1758422851562,794.1758422851562
115,792.967041015625,792.967041015625,784.5054931640625,796.5933837890625
116,789.7435913085938,799.8168334960938,788.1318969726562,792.1611938476562
117,783.2966918945312,794.5787353515625,794.1758422851562,780.0732421875
118,788.5347900390625,794.5787353515625,790.952392578125,783.6996459960938
119,793.3699340820312,807.069580078125,791.3552856445312,790.5494384765625
120,789.3406372070312,806.6666870117188,791.7582397460938,791.7582397460938
121,791.3552856445312,803.8461303710938,789.7435913085938,796.996337890625
122,793.3699340820312,800.6226806640625,787.3259887695312,799.8168334960938
123,797.3992919921875,795.7875366210938,791.7582397460938,793.7728881835938
124,801.025634765625,796.1904907226562,797.3992919921875,787.3259887695312
125,797.8021850585938,796.5933837890625,794.5787353515625,789.7435913085938
126,795.3846435546875,785.3113403320312,792.967041015625,797.3992919921875
127,794.981689453125,782.4908447265625,790.952392578125,796.5933837890625
128,794.1758422851562,792.967041015625,794.5787353515625,789.3406372070312
129,793.7728881835938,788.937744140625,796.5933837890625,787.7289428710938
130,797.8021850585938,787.7289428710938,794.5787353515625,794.1758422851562
131,793.3699340820312,795.7875366210938,794.981689453125,790.5494384765625
132,786.5201416015625,792.5640869140625,796.5933837890625,786.1171875
133,790.5494384765625,789.3406372070312,797.3992919921875,788.5347900390625
134,786.5201416015625,789.7435913085938,800.6226806640625,786.923095703125
135,784.1025390625,789.7435913085938,793.3699340820312,792.967041015625
136,791.3552856445312,790.5494384765625,790.952392578125,799.010986328125
137,791.3552856445312,789.3406372070312,798.2051391601562,797.3992919921875
138,789.3406372070312,788.1318969726562,796.996337890625,803.4432373046875
139,788.1318969726562,791.3552856445312,797.3992919921875,793.7728881835938
140,786.923095703125,785.3113403320312,796.996337890625,789.7435913085938
141,786.5201416015625,784.5054931640625,787.7289428710938,786.923095703125
142,783.6996459960938,794.1758422851562,788.1318969726562,774.8351440429688
143,785.7142944335938,793.3699340820312,793.3699340820312,775.6410522460938
144,787.7289428710938,789.3406372070312,790.1465454101562,776.8497924804688
145,786.923095703125,787.7289428710938,786.923095703125,780.879150390625
146,790.952392578125,788.5347900390625,786.1171875,789.3406372070312
147,793.7728881835938,789.3406372070312,786.1171875,795.3846435546875
148,794.1758422851562,789.3406372070312,789.3406372070312,799.010986328125
149,795.3846435546875,786.923095703125,794.981689453125,804.2490844726562
150,791.7582397460938,787.7289428710938,793.3699340820312,801.4285888671875
151,793.3699340820312,792.1611938476562,789.3406372070312,792.1611938476562
152,795.3846435546875,787.3259887695312,790.952392578125,788.937744140625
153,789.3406372070312,786.5201416015625,789.3406372070312,790.1465454101562
154,794.981689453125,793.3699340820312,790.1465454101562,794.1758422851562
155,796.996337890625,795.3846435546875,794.1758422851562,792.1611938476562
156,794.5787353515625,795.3846435546875,792.1611938476562,788.937744140625
157,797.3992919921875,796.5933837890625,790.952392578125,789.7435913085938
158,795.3846435546875,795.3846435546875,791.3552856445312,782.893798828125
159,792.1611938476562,792.5640869140625,789.3406372070312,780.4761962890625
160,794.1758422851562,790.5494384765625,788.5347900390625,788.1318969726562
161,803.4432373046875,793.7728881835938,791.3552856445312,802.2344360351562
162,799.010986328125,794.1758422851562,792.5640869140625,796.1904907226562
163,788.5347900390625,790.5494384765625,796.1904907226562,782.893798828125
164,794.981689453125,794.5787353515625,794.981689453125,786.923095703125
165,800.6226806640625,801.025634765625,799.4139404296875,792.5640869140625
166,805.8607788085938,799.8168334960938,806.2637329101562,794.5787353515625
167,811.5018310546875,792.5640869140625,797.3992919921875,793.7728881835938
168,807.069580078125,791.3552856445312,792.5640869140625,789.7435913085938
169,796.5933837890625,796.1904907226562,793.7728881835938,788.937744140625
170,807.4725341796875,796.996337890625,799.8168334960938,800.6226806640625
171,811.90478515625,791.3552856445312,804.6520385742188,803.040283203125
172,803.040283203125,790.5494384765625,799.8168334960938,806.2637329101562
173,799.010986328125,789.7435913085938,798.2051391601562,811.5018310546875
174,798.6080322265625,790.5494384765625,801.8314819335938,807.4725341796875
175,797.3992919921875,783.6996459960938,798.2051391601562,804.6520385742188
176,790.1465454101562,775.6410522460938,789.3406372070312,805.4578857421875
177,791.3552856445312,786.5201416015625,788.5347900390625,796.1904907226562
178,796.1904907226562,798.6080322265625,792.967041015625,788.1318969726562
179,792.5640869140625,794.981689453125,795.3846435546875,788.937744140625
180,789.7435913085938,790.1465454101562,795.7875366210938,792.967041015625
181,790.5494384765625,789.7435913085938,794.5787353515625,791.3552856445312
182,793.7728881835938,786.5201416015625,788.937744140625,784.1025390625
183,793.3699340820312,786.923095703125,792.5640869140625,788.1318969726562
184,788.1318969726562,790.952392578125,796.996337890625,791.7582397460938
185,784.908447265625,788.937744140625,791.3552856445312,780.879150390625
186,794.5787353515625,788.1318969726562,791.3552856445312,784.1025390625
187,799.010986328125,788.937744140625,795.3846435546875,788.937744140625
188,791.3552856445312,787.7289428710938,792.1611938476562,788.5347900390625
189,787.7289428710938,788.937744140625,793.3699340820312,786.5201416015625
190,786.923095703125,794.1758422851562,794.5787353515625,783.2966918945312
191,784.1025390625,793.3699340820312,788.937744140625,780.0732421875
192,784.5054931640625,794.1758422851562,791.3552856445312,781.6849975585938
193,787.3259887695312,794.5787353515625,794.981689453125,789.3406372070312
194,788.1318969726562,792.967041015625,790.5494384765625,794.1758422851562
195,789.3406372070312,794.1758422851562,789.3406372070312,795.7875366210938
196,791.3552856445312,795.3846435546875,792.5640869140625,801.025634765625
197,796.996337890625,796.5933837890625,799.010986328125,805.4578857421875
198,801.025634765625,796.996337890625,801.4285888671875,808.6813354492188
199,796.5933837890625,791.7582397460938,794.981689453125,808.6813354492188
200,792.1611938476562,791.3552856445312,787.3259887695312,792.5640869140625
201,791.3552856445312,794.5787353515625,787.3259887695312,789.7435913085938
202,793.3699340820312,790.5494384765625,790.5494384765625,802.2344360351562
203,793.3699340820312,794.5787353515625,792.5640869140625,803.040283203125
204,786.923095703125,801.4285888671875,793.3699340820312,793.3699340820312
205,787.7289428710938,799.010986328125,793.7728881835938,792.1611938476562
206,796.996337890625,796.996337890625,795.7875366210938,799.010986328125
207,804.2490844726562,792.1611938476562,794.1758422851562,797.3992919921875
208,806.2637329101562,796.5933837890625,797.3992919921875,797.8021850585938
209,799.8168334960938,797.8021850585938,797.3992919921875,795.3846435546875
210,792.1611938476562,797.3992919921875,792.967041015625,791.3552856445312
211,794.5787353515625,798.6080322265625,793.7728881835938,795.7875366210938
212,797.3992919921875,798.6080322265625,794.5787353515625,789.7435913085938
213,792.967041015625,792.967041015625,794.1758422851562,786.1171875
214,794.5787353515625,788.5347900390625,794.981689453125,798.2051391601562
215,790.5494384765625,788.1318969726562,801.8314819335938,807.069580078125
216,776.8497924804688,787.3259887695312,799.8168334960938,798.6080322265625
217,778.8644409179688,788.937744140625,794.981689453125,795.7875366210938
218,789.7435913085938,788.1318969726562,795.7875366210938,799.4139404296875
219,782.4908447265625,785.3113403320312,794.1758422851562,794.5787353515625
220,780.879150390625,787.3259887695312,792.967041015625,794.981689453125
221,790.1465454101562,784.5054931640625,792.1611938476562,791.7582397460938
222,790.5494384765625,782.087890625,792.1611938476562,793.3699340820312
223,787.3259887695312,785.3113403320312,793.7728881835938,790.5494384765625
224,782.893798828125,786.1171875,795.3846435546875,782.893798828125
225,783.2966918945312,788.1318969726562,796.1904907226562,782.087890625
226,789.3406372070312,793.3699340820312,796.1904907226562,785.7142944335938
227,794.5787353515625,794.5787353515625,798.2051391601562,793.3699340820312
228,795.3846435546875,796.5933837890625,801.8314819335938,802.6373901367188
229,796.5933837890625,796.996337890625,796.1904907226562,805.4578857421875
230,801.4285888671875,795.3846435546875,793.3699340820312,800.2197875976562
231,797.3992919921875,792.5640869140625,793.3699340820312,791.3552856445312
232,790.952392578125,786.5201416015625,786.5201416015625,787.3259887695312
233,796.996337890625,789.3406372070312,785.7142944335938,787.7289428710938
234,796.996337890625,792.5640869140625,789.3406372070312,790.1465454101562
235,792.1611938476562,795.7875366210938,793.7728881835938,784.908447265625
236,791.7582397460938,797.3992919921875,798.6080322265625,781.6849975585938
237,796.996337890625,796.996337890625,793.7728881835938,786.5201416015625
238,798.6080322265625,799.8168334960938,788.937744140625,788.1318969726562
239,791.7582397460938,801.4285888671875,789.7435913085938,788.1318969726562
240,788.1318969726562,796.1904907226562,791.3552856445312,791.7582397460938
241,794.1758422851562,792.5640869140625,792.5640869140625,796.1904907226562
242,799.4139404296875,795.7875366210938,791.3552856445312,796.996337890625
243,799.4139404296875,792.967041015625,789.3406372070312,795.7875366210938
244,796.1904907226562,790.952392578125,793.3699340820312,792.1611938476562
245,793.3699340820312,794.1758422851562,790.952392578125,796.5933837890625
246,796.996337890625,797.8021850585938,791.7582397460938,807.4725341796875
247,797.3992919921875,797.3992919921875,796.996337890625,796.1904907226562
248,796.5933837890625,796.1904907226562,799.010986328125,793.7728881835938
249,794.5787353515625,793.7728881835938,801.4285888671875,798.2051391601562
250,792.967041015625,796.996337890625,799.8168334960938,791.7582397460938
251,790.952392578125,794.981689453125,796.5933837890625,788.5347900390625
252,787.3259887695312,791.7582397460938,794.981689453125,782.4908447265625
253,790.952392578125,799.8168334960938,799.4139404296875,782.087890625
254,788.937744140625,803.4432373046875,802.2344360351562,788.5347900390625
255,788.5347900390625,798.6080322265625,798.2051391601562,790.5494384765625
256,799.010986328125,786.5201416015625,794.1758422851562,799.4139404296875
257,810.2930297851562,782.087890625,794.981689453125,813.113525390625
258,796.5933837890625,797.8021850585938,796.5933837890625,793.7728881835938
259,784.5054931640625,805.8607788085938,796.5933837890625,776.0439453125
260,788.937744140625,801.8314819335938,795.7875366210938,780.4761962890625
261,790.952392578125,791.3552856445312,793.7728881835938,787.3259887695312
262,796.996337890625,796.996337890625,793.3699340820312,797.8021850585938
263,806.2637329101562,795.3846435546875,793.7728881835938,807.87548828125
264,799.8168334960938,787.7289428710938,792.5640869140625,809.084228515625
265,785.7142944335938,794.981689453125,789.3406372070312,799.4139404296875
266,789.7435913085938,799.4139404296875,791.3552856445312,794.5787353515625
267,794.1758422851562,800.6226806640625,795.3846435546875,793.3699340820312
268,792.967041015625,796.5933837890625,791.3552856445312,798.2051391601562
269,790.5494384765625,791.3552856445312,788.5347900390625,803.040283203125
270,787.3259887695312,790.1465454101562,792.967041015625,793.3699340820312
271,786.1171875,790.952392578125,792.967041015625,788.1318969726562
272,785.7142944335938,792.5640869140625,789.3406372070312,789.3406372070312
273,781.2820434570312,789.7435913085938,788.5347900390625,785.7142944335938
274,784.908447265625,789.3406372070312,792.1611938476562,785.7142944335938
275,788.937744140625,790.5494384765625,793.7728881835938,787.7289428710938
276,780.879150390625,785.7142944335938,793.3699340820312,788.937744140625
277,779.2673950195312,786.923095703125,791.7582397460938,786.5201416015625
278,785.3113403320312,796.5933837890625,792.5640869140625,784.5054931640625
279,790.952392578125,796.996337890625,793.3699340820312,796.1904907226562
280,792.1611938476562,796.5933837890625,791.3552856445312,807.069580078125
281,789.7435913085938,799.4139404296875,792.1611938476562,801.8314819335938
282,799.010986328125,799.010986328125,795.7875366210938,799.010986328125
283,807.87548828125,799.4139404296875,796.5933837890625,794.981689453125
284,804.6520385742188,799.4139404296875,794.5787353515625,793.3699340820312
285,805.054931640625,797.3992919921875,795.3846435546875,797.8021850585938
286,805.8607788085938,795.3846435546875,796.996337890625,799.4139404296875
287,806.2637329101562,795.3846435546875,792.1611938476562,800.6226806640625
288,807.4725341796875,791.7582397460938,791.3552856445312,800.6226806640625
289,804.2490844726562,785.7142944335938,795.3846435546875,801.025634765625
290,798.2051391601562,792.967041015625,795.3846435546875,801.4285888671875
291,796.1904907226562,792.1611938476562,795.3846435546875,801.025634765625
292,796.5933837890625,788.5347900390625,795.3846435546875,803.040283203125
293,792.5640869140625,790.1465454101562,793.3699340820312,797.3992919921875
294,795.7875366210938,791.7582397460938,792.5640869140625,795.3846435546875
295,797.3992919921875,790.952392578125,793.3699340820312,799.8168334960938
296,790.952392578125,786.1171875,797.8021850585938,795.3846435546875
297,786.1171875,788.937744140625,801.025634765625,787.7289428710938
298,789.7435913085938,795.3846435546875,795.3846435546875,790.1465454101562
299,797.3992919921875,792.967041015625,790.5494384765625,792.967041015625
300,795.7875366210938,786.923095703125,792.1611938476562,782.893798828125
301,788.937744140625,781.2820434570312,793.3699340820312,782.087890625
302,790.5494384765625,783.6996459960938,789.3406372070312,786.5201416015625
303,790.5494384765625,790.5494384765625,786.1171875,785.7142944335938
304,789.3406372070312,792.1611938476562,788.937744140625,789.3406372070312
305,790.5494384765625,789.3406372070312,794.5787353515625,792.5640869140625
306,788.5347900390625,788.937744140625,797.8021850585938,792.5640869140625
307,788.5347900390625,791.7582397460938,794.1758422851562,803.4432373046875
308,786.5201416015625,789.3406372070312,791.3552856445312,798.2051391601562
309,783.2966918945312,786.5201416015625,791.3552856445312,788.1318969726562
310,787.7289428710938,790.5494384765625,794.981689453125,799.010986328125
311,792.1611938476562,793.3699340820312,801.025634765625,808.2783813476562
312,797.3992919921875,792.1611938476562,800.2197875976562,808.6813354492188
313,801.8314819335938,793.7728881835938,795.7875366210938,806.6666870117188
314,796.5933837890625,799.4139404296875,794.5787353515625,800.6226806640625
315,786.1171875,796.5933837890625,793.7728881835938,790.952392578125
316,785.7142944335938,790.5494384765625,789.3406372070312,789.3406372070312
317,792.5640869140625,799.010986328125,791.3552856445312,795.7875366210938
318,789.3406372070312,801.025634765625,786.923095703125,798.2051391601562
319,794.1758422851562,802.2344360351562,784.908447265625,801.8314819335938
320,803.040283203125,800.6226806640625,795.3846435546875,801.025634765625
321,796.5933837890625,789.7435913085938,794.5787353515625,795.3846435546875
322,792.967041015625,788.5347900390625,791.3552856445312,792.1611938476562
323,790.952392578125,794.1758422851562,797.8021850585938,794.5787353515625
324,790.1465454101562,795.7875366210938,801.8314819335938,797.3992919921875
325,790.5494384765625,792.967041015625,795.7875366210938,796.996337890625
326,789.3406372070312,790.5494384765625,796.1904907226562,796.5933837890625
327,792.5640869140625,788.937744140625,794.981689453125,797.3992919921875
328,796.5933837890625,787.3259887695312,794.5787353515625,800.2197875976562
329,796.996337890625,790.5494384765625,799.4139404296875,799.8168334960938
330,799.4139404296875,792.967041015625,799.8168334960938,799.4139404296875
331,794.5787353515625,799.8168334960938,800.6226806640625,791.3552856445312
332,793.7728881835938,802.2344360351562,802.2344360351562,791.3552856445312
333,796.996337890625,796.5933837890625,800.6226806640625,796.5933837890625
334,795.7875366210938,799.4139404296875,795.7875366210938,798.6080322265625
335,799.010986328125,800.6226806640625,796.5933837890625,800.6226806640625
336,798.6080322265625,797.3992919921875,799.8168334960938,803.4432373046875
337,794.981689453125,794.981689453125,796.996337890625,800.6226806640625
338,796.1904907226562,791.7582397460938,795.7875366210938,801.4285888671875
339,801.8314819335938,791.3552856445312,804.2490844726562,811.90478515625
340,801.4285888671875,796.1904907226562,802.6373901367188,813.91943359375
341,806.2637329101562,795.3846435546875,798.2051391601562,816.7399291992188
342,804.6520385742188,794.981689453125,797.3992919921875,814.3223266601562
343,799.8168334960938,801.4285888671875,791.3552856445312,796.996337890625
344,802.6373901367188,803.8461303710938,793.3699340820312,798.6080322265625
345,806.2637329101562,801.8314819335938,796.996337890625,803.8461303710938
346,807.069580078125,797.8021850585938,797.8021850585938,797.3992919921875
347,803.4432373046875,792.1611938476562,796.1904907226562,791.7582397460938
348,799.4139404296875,796.5933837890625,793.7728881835938,786.1171875
349,798.2051391601562,803.8461303710938,799.4139404296875,786.1171875
350,799.010986328125,799.4139404296875,799.8168334960938,790.1465454101562
351,795.7875366210938,794.1758422851562,797.8021850585938,792.967041015625
352,790.1465454101562,794.1758422851562,796.5933837890625,795.3846435546875
353,786.1171875,792.967041015625,794.5787353515625,802.6373901367188
354,777.6557006835938,788.1318969726562,798.6080322265625,794.981689453125
355,781.6849975585938,793.7728881835938,796.5933837890625,789.3406372070312
356,792.967041015625,796.5933837890625,793.3699340820312,794.981689453125
357,788.5347900390625,791.3552856445312,792.1611938476562,788.937744140625
358,785.7142944335938,786.5201416015625,791.7582397460938,782.893798828125
359,790.5494384765625,784.5054931640625,795.7875366210938,783.2966918945312
360,794.981689453125,785.3113403320312,799.4139404296875,788.1318969726562
361,796.5933837890625,792.5640869140625,798.2051391601562,790.5494384765625
362,793.7728881835938,795.7875366210938,796.5933837890625,786.923095703125
363,789.7435913085938,784.908447265625,795.7875366210938,784.1025390625
364,791.3552856445312,785.3113403320312,793.3699340820312,794.981689453125
365,792.5640869140625,792.1611938476562,794.5787353515625,799.4139404296875
366,789.3406372070312,787.7289428710938,794.981689453125,789.3406372070312
367,789.7435913085938,787.3259887695312,792.967041015625,790.5494384765625
368,787.3259887695312,790.1465454101562,792.1611938476562,792.1611938476562
369,784.908447265625,790.1465454101562,788.937744140625,793.3699340820312
370,790.1465454101562,791.3552856445312,790.952392578125,795.3846435546875
371,794.1758422851562,792.967041015625,792.5640869140625,794.5787353515625
372,796.996337890625,796.996337890625,790.1465454101562,795.3846435546875
373,797.8021850585938,797.3992919921875,791.7582397460938,793.7728881835938
374,796.1904907226562,790.952392578125,792.1611938476562,792.1611938476562
375,794.981689453125,786.923095703125,790.952392578125,791.3552856445312
376,794.981689453125,784.908447265625,789.7435913085938,797.8021850585938
377,794.5787353515625,792.1611938476562,795.7875366210938,799.010986328125
378,794.5787353515625,796.1904907226562,797.3992919921875,793.3699340820312
379,794.5787353515625,796.5933837890625,791.7582397460938,794.5787353515625
380,799.4139404296875,797.8021850585938,792.967041015625,799.4139404296875
381,801.025634765625,797.8021850585938,793.3699340820312,791.3552856445312
382,802.2344360351562,796.5933837890625,792.1611938476562,786.1171875
383,805.4578857421875,794.5787353515625,792.967041015625,789.3406372070312
384,803.040283203125,792.5640869140625,795.3846435546875,790.5494384765625
385,802.2344360351562,796.5933837890625,802.2344360351562,794.5787353515625
386,802.2344360351562,794.1758422851562,801.4285888671875,800.2197875976562
387,802.2344360351562,793.7728881835938,799.8168334960938,807.87548828125
388,795.7875366210938,795.7875366210938,801.4285888671875,801.4285888671875
389,796.5933837890625,797.3992919921875,798.2051391601562,794.1758422851562
390,797.8021850585938,797.3992919921875,791.3552856445312,788.937744140625
391,798.6080322265625,793.7728881835938,789.3406372070312,786.1171875
392,803.4432373046875,793.7728881835938,793.3699340820312,788.937744140625
393,793.3699340820312,792.1611938476562,795.3846435546875,785.3113403320312
394,789.3406372070312,792.5640869140625,790.1465454101562,788.1318969726562
395,795.3846435546875,793.3699340820312,790.5494384765625,788.937744140625
396,793.7728881835938,791.7582397460938,794.981689453125,786.923095703125
397,794.1758422851562,794.981689453125,793.7728881835938,792.5640869140625
398,790.1465454101562,791.7582397460938,788.1318969726562,794.1758422851562
399,783.6996459960938,788.5347900390625,788.937744140625,790.952392578125
400,790.5494384765625,796.1904907226562,790.5494384765625,796.5933837890625
401,797.3992919921875,801.025634765625,791.3552856445312,801.025634765625
402,797.8021850585938,801.025634765625,794.981689453125,801.4285888671875
403,794.1758422851562,796.5933837890625,794.981689453125,810.6959838867188
404,791.7582397460938,796.5933837890625,796.996337890625,803.4432373046875
405,793.3699340820312,794.981689453125,796.1904907226562,793.7728881835938
406,793.3699340820312,790.5494384765625,790.1465454101562,798.6080322265625
407,792.1611938476562,790.1465454101562,784.1025390625,801.4285888671875
408,791.3552856445312,796.1904907226562,786.5201416015625,801.4285888671875
409,793.7728881835938,796.5933837890625,789.3406372070312,801.8314819335938
410,792.5640869140625,789.7435913085938,789.7435913085938,797.3992919921875
411,791.3552856445312,795.7875366210938,789.7435913085938,796.5933837890625
412,796.1904907226562,794.981689453125,786.1171875,790.1465454101562
413,793.7728881835938,785.3113403320312,786.5201416015625,786.5201416015625
414,794.5787353515625,786.1171875,788.937744140625,794.5787353515625
415,793.7728881835938,786.1171875,788.5347900390625,794.981689453125
416,788.1318969726562,786.5201416015625,788.5347900390625,793.7728881835938
417,790.952392578125,789.3406372070312,789.7435913085938,796.1904907226562
418,796.5933837890625,796.996337890625,788.5347900390625,793.3699340820312
419,797.8021850585938,801.8314819335938,792.5640869140625,789.7435913085938
420,801.4285888671875,799.4139404296875,792.1611938476562,789.7435913085938
421,801.8314819335938,794.1758422851562,790.952392578125,787.7289428710938
422,798.2051391601562,791.7582397460938,790.1465454101562,792.5640869140625
423,798.6080322265625,790.1465454101562,785.7142944335938,794.5787353515625
424,798.6080322265625,792.5640869140625,788.937744140625,788.5347900390625
425,796.996337890625,790.952392578125,790.1465454101562,783.6996459960938
426,805.4578857421875,782.4908447265625,793.3699340820312,794.981689453125
427,805.8607788085938,784.908447265625,798.2051391601562,799.4139404296875
428,799.010986328125,794.981689453125,796.5933837890625,794.5787353515625
429,797.8021850585938,797.3992919921875,798.6080322265625,796.1904907226562
430,795.3846435546875,799.8168334960938,798.6080322265625,795.7875366210938
431,788.5347900390625,794.1758422851562,794.981689453125,790.5494384765625
432,788.5347900390625,790.5494384765625,796.5933837890625,791.3552856445312
433,789.3406372070312,795.7875366210938,798.2051391601562,794.981689453125
434,781.6849975585938,794.1758422851562,794.5787353515625,788.5347900390625
435,786.1171875,784.908447265625,794.5787353515625,783.2966918945312
436,791.3552856445312,784.908447265625,799.010986328125,782.893798828125
437,791.7582397460938,790.1465454101562,795.7875366210938,788.5347900390625
438,796.1904907226562,792.1611938476562,796.5933837890625,792.5640869140625
439,792.1611938476562,791.3552856445312,792.967041015625,788.1318969726562
440,789.7435913085938,782.087890625,783.2966918945312,786.1171875
441,785.3113403320312,777.6557006835938,787.7289428710938,781.6849975585938
442,783.2966918945312,792.5640869140625,794.1758422851562,779.2673950195312
443,786.5201416015625,798.2051391601562,794.1758422851562,780.0732421875
444,783.2966918945312,792.967041015625,794.1758422851562,786.1171875
445,782.4908447265625,791.3552856445312,791.3552856445312,790.952392578125
446,778.4615478515625,785.7142944335938,788.937744140625,779.6703491210938
447,778.4615478515625,785.7142944335938,793.7728881835938,776.8497924804688
448,784.5054931640625,790.5494384765625,797.8021850585938,780.879150390625
449,786.1171875,786.923095703125,794.981689453125,781.2820434570312
450,779.6703491210938,785.7142944335938,791.3552856445312,768.7911987304688
451,782.4908447265625,791.7582397460938,791.3552856445312,776.4468994140625
452,792.1611938476562,796.996337890625,791.7582397460938,791.7582397460938
453,790.1465454101562,789.7435913085938,792.1611938476562,782.4908447265625
454,790.1465454101562,782.4908447265625,790.952392578125,781.2820434570312
455,796.996337890625,786.5201416015625,791.3552856445312,788.1318969726562
456,796.996337890625,790.5494384765625,794.981689453125,786.5201416015625
457,792.1611938476562,794.1758422851562,796.1904907226562,786.1171875
458,790.1465454101562,794.981689453125,794.981689453125,788.1318969726562
459,782.4908447265625,791.7582397460938,792.1611938476562,782.893798828125
460,776.0439453125,790.952392578125,792.967041015625,782.087890625
461,780.0732421875,791.7582397460938,789.7435913085938,780.879150390625
462,780.879150390625,790.952392578125,786.5201416015625,778.8644409179688
463,782.893798828125,788.5347900390625,794.5787353515625,784.5054931640625
464,793.3699340820312,789.3406372070312,794.981689453125,790.1465454101562
465,788.937744140625,791.7582397460938,789.3406372070312,783.2966918945312
466,781.2820434570312,786.5201416015625,791.3552856445312,782.4908447265625
467,786.923095703125,780.4761962890625,790.952392578125,786.923095703125
468,792.5640869140625,785.7142944335938,796.1904907226562,787.7289428710938
469,792.967041015625,791.7582397460938,802.2344360351562,797.8021850585938
470,791.7582397460938,795.7875366210938,800.2197875976562,799.010986328125
471,794.1758422851562,788.937744140625,799.8168334960938,798.2051391601562
472,792.967041015625,784.5054931640625,795.3846435546875,807.4725341796875
473,786.923095703125,794.981689453125,793.3699340820312,804.2490844726562
474,788.1318969726562,799.4139404296875,797.8021850585938,798.6080322265625
475,792.1611938476562,796.996337890625,799.4139404296875,796.5933837890625
476,788.937744140625,795.7875366210938,797.3992919921875,795.3846435546875
477,794.5787353515625,786.5201416015625,799.8168334960938,810.2930297851562
478,801.4285888671875,784.908447265625,796.1904907226562,817.94873046875
479,786.5201416015625,801.025634765625,790.5494384765625,802.6373901367188
480,780.0732421875,803.040283203125,793.3699340820312,789.3406372070312
481,790.1465454101562,798.2051391601562,792.967041015625,788.937744140625
482,798.2051391601562,799.4139404296875,789.7435913085938,792.967041015625
483,802.6373901367188,796.5933837890625,786.1171875,795.3846435546875
484,796.1904907226562,796.996337890625,786.1171875,784.908447265625
485,790.1465454101562,800.6226806640625,785.7142944335938,778.8644409179688
486,787.3259887695312,798.6080322265625,782.893798828125,778.4615478515625
487,791.7582397460938,800.6226806640625,783.2966918945312,778.4615478515625
488,794.1758422851562,798.2051391601562,789.3406372070312,782.087890625
489,789.7435913085938,798.2051391601562,790.5494384765625,779.2673950195312
490,790.1465454101562,801.025634765625,786.923095703125,782.4908447265625
491,790.952392578125,800.2197875976562,784.908447265625,792.1611938476562
492,785.3113403320312,799.4139404296875,788.5347900390625,790.1465454101562
493,783.2966918945312,795.7875366210938,790.1465454101562,786.5201416015625
494,788.937744140625,799.8168334960938,788.1318969726562,788.5347900390625
495,787.7289428710938,798.2051391601562,793.7728881835938,781.6849975585938
496,789.3406372070312,795.3846435546875,799.010986328125,783.2966918945312
497,790.5494384765625,792.1611938476562,799.4139404296875,794.1758422851562
498,789.3406372070312,788.1318969726562,796.1904907226562,792.5640869140625
499,793.7728881835938,792.5640869140625,792.1611938476562,801.4285888671875
500,794.5787353515625,788.5347900390625,792.5640869140625,806.2637329101562
501,794.981689453125,791.3552856445312,790.1465454101562,793.7728881835938
502,795.7875366210938,795.7875366210938,790.1465454101562,789.7435913085938
503,787.7289428710938,793.7728881835938,790.5494384765625,794.1758422851562
504,784.5054931640625,796.1904907226562,792.1611938476562,794.981689453125
505,794.5787353515625,799.4139404296875,794.981689453125,794.1758422851562
506,798.2051391601562,799.010986328125,794.981689453125,792.967041015625
507,794.981689453125,793.7728881835938,797.8021850585938,791.3552856445312
508,798.6080322265625,790.952392578125,791.3552856445312,794.1758422851562
509,802.2344360351562,788.1318969726562,791.7582397460938,799.4139404296875
510,797.3992919921875,784.5054931640625,797.3992919921875,803.040283203125
511,793.7728881835938,790.5494384765625,794.5787353515625,803.040283203125
512,797.8021850585938,799.8168334960938,794.5787353515625,803.040283203125
513,801.8314819335938,796.996337890625,796.1904907226562,800.6226806640625
514,799.8168334960938,790.952392578125,792.5640869140625,790.5494384765625
515,793.7728881835938,796.996337890625,792.967041015625,782.893798828125
516,790.1465454101562,796.996337890625,794.5787353515625,778.4615478515625
517,794.981689453125,796.1904907226562,792.967041015625,775.6410522460938
518,798.6080322265625,799.4139404296875,791.7582397460938,776.8497924804688
519,796.996337890625,797.3992919921875,787.3259887695312,780.879150390625
520,794.5787353515625,794.5787353515625,788.1318969726562,784.1025390625
521,789.7435913085938,789.7435913085938,794.5787353515625,785.3113403320312
522,788.1318969726562,788.1318969726562,795.3846435546875,794.1758422851562
523,791.3552856445312,796.5933837890625,795.7875366210938,797.3992919921875
524,790.5494384765625,796.1904907226562,792.5640869140625,788.937744140625
525,792.5640869140625,792.5640869140625,790.1465454101562,788.5347900390625
526,791.7582397460938,795.3846435546875,790.952392578125,792.5640869140625
527,790.1465454101562,796.996337890625,789.3406372070312,790.5494384765625
528,790.952392578125,788.5347900390625,790.1465454101562,791.3552856445312
529,790.1465454101562,781.2820434570312,790.1465454101562,796.5933837890625
530,787.3259887695312,784.1025390625,788.1318969726562,793.3699340820312
531,788.937744140625,790.5494384765625,789.3406372070312,790.952392578125
532,788.5347900390625,796.996337890625,789.7435913085938,786.5201416015625
533,793.3699340820312,799.010986328125,795.3846435546875,787.7289428710938
534,791.3552856445312,798.6080322265625,798.6080322265625,795.3846435546875
535,784.1025390625,794.981689453125,794.1758422851562,786.5201416015625
536,786.923095703125,787.3259887695312,792.5640869140625,784.5054931640625
537,794.1758422851562,786.923095703125,799.010986328125,797.3992919921875
538,796.1904907226562,789.7435913085938,798.6080322265625,794.981689453125
539,794.981689453125,792.967041015625,793.3699340820312,788.1318969726562
540,797.8021850585938,794.5787353515625,794.1758422851562,795.3846435546875
541,796.1904907226562,795.7875366210938,795.7875366210938,800.2197875976562
542,788.5347900390625,793.3699340820312,795.3846435546875,796.5933837890625
543,792.5640869140625,791.3552856445312,792.1611938476562,797.8021850585938
544,799.4139404296875,788.1318969726562,795.7875366210938,798.2051391601562
545,797.3992919921875,786.1171875,795.7875366210938,798.2051391601562
546,795.3846435546875,790.5494384765625,789.7435913085938,790.1465454101562
547,799.010986328125,794.5787353515625,790.5494384765625,788.1318969726562
548,797.8021850585938,797.8021850585938,794.981689453125,792.5640869140625
549,796.996337890625,801.4285888671875,791.7582397460938,790.1465454101562
550,804.6520385742188,803.8461303710938,793.7728881835938,792.1611938476562
551,810.2930297851562,802.6373901367188,798.6080322265625,799.4139404296875
552,807.069580078125,800.2197875976562,797.3992919921875,803.8461303710938
553,805.8607788085938,800.6226806640625,796.1904907226562,805.8607788085938
554,807.069580078125,799.010986328125,794.1758422851562,799.010986328125
555,810.2930297851562,793.3699340820312,795.7875366210938,787.7289428710938
556,811.098876953125,791.7582397460938,801.4285888671875,793.7728881835938
557,811.90478515625,796.1904907226562,803.4432373046875,799.4139404296875
558,808.2783813476562,799.010986328125,801.4285888671875,793.3699340820312
559,802.6373901367188,793.7728881835938,800.6226806640625,792.1611938476562
560,805.4578857421875,796.5933837890625,800.2197875976562,799.4139404296875
561,809.89013671875,805.4578857421875,798.6080322265625,799.8168334960938
562,801.8314819335938,806.2637329101562,800.6226806640625,795.3846435546875
563,795.3846435546875,800.6226806640625,802.2344360351562,799.010986328125
564,796.1904907226562,795.3846435546875,795.7875366210938,799.010986328125
565,795.7875366210938,795.7875366210938,795.3846435546875,792.5640869140625
566,789.7435913085938,790.1465454101562,796.996337890625,789.7435913085938
567,793.3699340820312,788.1318969726562,792.5640869140625,794.1758422851562
568,799.010986328125,794.981689453125,794.5787353515625,796.5933837890625
569,791.7582397460938,791.7582397460938,796.1904907226562,789.7435913085938
570,792.5640869140625,792.1611938476562,792.967041015625,788.5347900390625
571,793.7728881835938,795.7875366210938,793.7728881835938,796.1904907226562
572,791.3552856445312,797.8021850585938,794.5787353515625,796.996337890625
573,787.7289428710938,795.7875366210938,796.996337890625,789.3406372070312
574,788.937744140625,785.3113403320312,793.3699340820312,785.3113403320312
575,796.996337890625,786.1171875,791.7582397460938,790.952392578125
576,801.025634765625,790.952392578125,797.3992919921875,799.8168334960938
577,797.3992919921875,793.7728881835938,798.2051391601562,796.1904907226562
578,794.5787353515625,793.7728881835938,793.7728881835938,798.2051391601562
579,793.7728881835938,793.3699340820312,793.7728881835938,798.6080322265625
580,788.937744140625,794.981689453125,790.952392578125,784.1025390625
581,789.3406372070312,796.1904907226562,792.1611938476562,775.2380981445312
582,792.1611938476562,791.7582397460938,794.5787353515625,777.6557006835938
583,788.937744140625,792.967041015625,791.7582397460938,785.7142944335938
584,785.7142944335938,796.996337890625,796.5933837890625,784.5054931640625
585,784.908447265625,794.1758422851562,798.2051391601562,783.6996459960938
586,784.908447265625,785.7142944335938,792.5640869140625,788.1318969726562
587,784.1025390625,785.7142944335938,794.981689453125,786.1171875
588,782.087890625,792.5640869140625,792.5640869140625,790.1465454101562
589,785.3113403320312,795.3846435546875,793.7728881835938,792.5640869140625
590,786.1171875,795.7875366210938,799.4139404296875,792.5640869140625
591,788.1318969726562,794.981689453125,796.996337890625,795.7875366210938
592,792.1611938476562,797.3992919921875,791.7582397460938,794.1758422851562
593,790.952392578125,796.5933837890625,790.1465454101562,793.7728881835938
594,788.1318969726562,790.5494384765625,795.7875366210938,793.3699340820312
595,787.7289428710938,789.7435913085938,801.025634765625,792.967041015625
596,793.3699340820312,790.5494384765625,802.2344360351562,792.5640869140625
597,792.5640869140625,793.3699340820312,799.010986328125,788.5347900390625
598,789.7435913085938,795.7875366210938,790.952392578125,792.5640869140625
599,789.3406372070312,794.981689453125,790.1465454101562,792.5640869140625
600,793.3699340820312,794.981689453125,790.5494384765625,787.7289428710938
601,799.010986328125,792.1611938476562,790.1465454101562,790.5494384765625
602,792.1611938476562,785.7142944335938,788.1318969726562,789.7435913085938
603,790.5494384765625,792.1611938476562,788.937744140625,797.3992919921875
604,790.1465454101562,795.7875366210938,792.1611938476562,793.3699340820312
605,784.5054931640625,785.7142944335938,791.3552856445312,782.893798828125
606,781.6849975585938,782.4908447265625,785.3113403320312,787.7289428710938
607,782.4908447265625,784.908447265625,788.1318969726562,789.7435913085938
608,786.1171875,790.5494384765625,792.1611938476562,784.908447265625
609,792.967041015625,801.4285888671875,792.967041015625,789.3406372070312
610,791.7582397460938,798.6080322265625,796.1904907226562,790.1465454101562
611,787.3259887695312,795.7875366210938,802.2344360351562,790.1465454101562
612,788.937744140625,794.1758422851562,798.6080322265625,797.3992919921875
613,790.5494384765625,785.7142944335938,791.7582397460938,796.1904907226562
614,794.981689453125,787.7289428710938,795.7875366210938,802.2344360351562
615,798.6080322265625,791.7582397460938,797.8021850585938,802.2344360351562
616,797.8021850585938,789.3406372070312,794.5787353515625,791.3552856445312
617,804.2490844726562,787.7289428710938,797.3992919921875,791.3552856445312
618,807.4725341796875,788.5347900390625,797.3992919921875,794.981689453125
619,794.5787353515625,792.1611938476562,792.1611938476562,785.3113403320312
620,791.3552856445312,791.7582397460938,790.952392578125,784.908447265625
621,794.1758422851562,796.1904907226562,794.1758422851562,792.967041015625
622,796.5933837890625,801.025634765625,797.8021850585938,797.3992919921875
623,795.7875366210938,795.3846435546875,798.6080322265625,796.5933837890625
624,791.7582397460938,791.3552856445312,793.7728881835938,796.1904907226562
625,790.5494384765625,786.5201416015625,791.3552856445312,799.010986328125
626,791.7582397460938,788.1318969726562,793.7728881835938,802.2344360351562
627,794.5787353515625,794.981689453125,791.7582397460938,800.6226806640625
628,789.3406372070312,794.5787353515625,792.5640869140625,794.5787353515625
629,786.923095703125,794.981689453125,794.5787353515625,795.7875366210938
630,791.3552856445312,796.1904907226562,788.937744140625,801.025634765625
631,784.1025390625,798.6080322265625,788.937744140625,796.5933837890625
632,778.4615478515625,799.4139404296875,791.3552856445312,787.7289428710938
633,783.6996459960938,794.5787353515625,792.967041015625,790.1465454101562
634,781.6849975585938,790.952392578125,792.5640869140625,792.967041015625
635,777.6557006835938,792.967041015625,791.3552856445312,787.7289428710938
636,784.908447265625,796.5933837890625,792.967041015625,792.5640869140625
637,789.3406372070312,792.1611938476562,792.967041015625,796.1904907226562
638,782.4908447265625,792.5640869140625,793.7728881835938,792.967041015625
639,787.7289428710938,799.4139404296875,793.7728881835938,793.7728881835938
640,792.967041015625,798.2051391601562,792.967041015625,797.8021850585938
641,790.5494384765625,792.967041015625,796.1904907226562,803.040283203125
642,787.3259887695312,794.981689453125,793.7728881835938,794.981689453125
643,788.5347900390625,793.3699340820312,790.1465454101562,784.1025390625
644,792.5640869140625,785.7142944335938,793.7728881835938,792.5640869140625
645,795.7875366210938,791.3552856445312,799.8168334960938,796.5933837890625
646,796.5933837890625,796.1904907226562,799.8168334960938,790.1465454101562
647,792.967041015625,790.1465454101562,794.981689453125,790.952392578125
648,791.3552856445312,788.1318969726562,792.1611938476562,792.967041015625
649,791.3552856445312,789.7435913085938,789.7435913085938,786.923095703125
650,795.7875366210938,790.952392578125,788.1318969726562,787.3259887695312
651,801.4285888671875,791.7582397460938,790.5494384765625,795.3846435546875
652,803.040283203125,793.7728881835938,793.7728881835938,797.8021850585938
653,803.4432373046875,797.3992919921875,794.5787353515625,796.1904907226562
654,797.3992919921875,798.2051391601562,794.981689453125,788.937744140625
655,790.952392578125,796.996337890625,791.3552856445312,782.893798828125
656,790.5494384765625,791.3552856445312,790.1465454101562,785.7142944335938
657,788.1318969726562,786.923095703125,789.7435913085938,792.967041015625
658,788.937744140625,789.7435913085938,796.1904907226562,793.7728881835938
659,792.5640869140625,792.5640869140625,798.6080322265625,794.981689453125
660,795.3846435546875,791.7582397460938,792.1611938476562,800.6226806640625
661,797.3992919921875,790.952392578125,794.1758422851562,798.2051391601562
662,795.7875366210938,792.1611938476562,796.1904907226562,792.967041015625
663,790.952392578125,795.7875366210938,794.981689453125,792.967041015625
664,792.967041015625,796.1904907226562,796.1904907226562,797.3992919921875
665,794.981689453125,799.4139404296875,793.7728881835938,793.3699340820312
666,794.1758422851562,802.6373901367188,790.1465454101562,789.7435913085938
667,795.7875366210938,798.6080322265625,793.7728881835938,792.1611938476562
668,794.5787353515625,793.3699340820312,797.8021850585938,792.1611938476562
669,788.5347900390625,790.952392578125,795.7875366210938,788.5347900390625
670,783.6996459960938,787.7289428710938,793.3699340820312,784.1025390625
671,789.3406372070312,790.1465454101562,791.3552856445312,786.5201416015625
672,797.3992919921875,794.5787353515625,791.3552856445312,788.937744140625
673,797.8021850585938,791.3552856445312,796.5933837890625,789.7435913085938
674,789.3406372070312,792.1611938476562,794.981689453125,789.3406372070312
675,784.5054931640625,792.5640869140625,791.7582397460938,788.937744140625
676,786.1171875,789.3406372070312,794.5787353515625,786.923095703125
677,788.937744140625,793.7728881835938,799.8168334960938,783.6996459960938
678,797.3992919921875,792.1611938476562,802.2344360351562,787.7289428710938
679,794.981689453125,786.923095703125,799.010986328125,792.967041015625
680,784.5054931640625,792.5640869140625,801.8314819335938,788.937744140625
681,785.3113403320312,801.4285888671875,804.6520385742188,787.3259887695312
682,793.3699340820312,799.4139404296875,800.6226806640625,793.7728881835938
683,801.8314819335938,798.2051391601562,800.2197875976562,795.7875366210938
684,799.4139404296875,796.996337890625,803.4432373046875,794.981689453125
685,792.967041015625,793.7728881835938,802.6373901367188,801.8314819335938
686,793.7728881835938,798.6080322265625,800.2197875976562,804.2490844726562
687,799.010986328125,801.025634765625,799.010986328125,801.8314819335938
688,805.4578857421875,792.967041015625,797.3992919921875,803.4432373046875
689,805.4578857421875,787.3259887695312,796.5933837890625,806.6666870117188
690,803.4432373046875,796.1904907226562,796.1904907226562,807.87548828125
691,801.8314819335938,799.010986328125,798.2051391601562,802.2344360351562
692,802.2344360351562,796.1904907226562,801.4285888671875,791.7582397460938
693,799.8168334960938,796.5933837890625,801.4285888671875,790.1465454101562
694,799.010986328125,796.996337890625,799.8168334960938,795.3846435546875
695,798.6080322265625,797.8021850585938,801.8314819335938,796.5933837890625
696,796.996337890625,797.8021850585938,807.4725341796875,799.010986328125
697,795.7875366210938,786.1171875,806.2637329101562,797.8021850585938
698,797.3992919921875,786.923095703125,803.4432373046875,803.8461303710938
699,794.5787353515625,794.1758422851562,796.5933837890625,798.2051391601562
700,789.7435913085938,793.3699340820312,795.7875366210938,790.5494384765625
701,791.7582397460938,799.8168334960938,800.6226806640625,793.7728881835938
702,796.996337890625,799.4139404296875,796.1904907226562,794.5787353515625
703,796.996337890625,796.1904907226562,792.967041015625,793.3699340820312
704,796.1904907226562,800.6226806640625,803.040283203125,799.010986328125
705,797.3992919921875,798.6080322265625,807.87548828125,802.2344360351562
706,797.3992919921875,794.1758422851562,800.6226806640625,797.3992919921875
707,787.3259887695312,791.3552856445312,797.3992919921875,791.7582397460938
708,779.6703491210938,790.5494384765625,796.5933837890625,791.3552856445312
709,788.937744140625,787.3259887695312,796.996337890625,795.7875366210938
710,791.7582397460938,784.1025390625,799.4139404296875,790.952392578125
711,791.3552856445312,786.5201416015625,800.2197875976562,793.3699340820312
712,796.996337890625,789.3406372070312,799.4139404296875,799.010986328125
713,796.1904907226562,794.1758422851562,798.6080322265625,791.3552856445312
714,786.5201416015625,794.1758422851562,796.5933837890625,782.087890625
715,781.2820434570312,789.3406372070312,790.5494384765625,777.2527465820312
716,777.2527465820312,784.5054931640625,786.1171875,778.8644409179688
717,777.6557006835938,781.6849975585938,789.3406372070312,786.1171875
718,783.6996459960938,781.6849975585938,789.7435913085938,799.010986328125
719,782.893798828125,781.2820434570312,794.1758422851562,795.3846435546875
720,777.2527465820312,784.5054931640625,793.7728881835938,786.1171875
721,778.05859375,787.7289428710938,790.5494384765625,787.7289428710938
722,785.3113403320312,781.6849975585938,790.5494384765625,787.3259887695312
723,790.5494384765625,788.937744140625,790.952392578125,791.3552856445312
724,789.7435913085938,796.5933837890625,790.1465454101562,794.5787353515625
725,789.7435913085938,790.952392578125,792.1611938476562,802.2344360351562
726,792.5640869140625,792.5640869140625,800.6226806640625,813.113525390625
727,792.1611938476562,794.5787353515625,801.8314819335938,803.8461303710938
728,791.3552856445312,790.1465454101562,799.010986328125,795.7875366210938
729,792.1611938476562,789.3406372070312,798.6080322265625,790.5494384765625
730,796.1904907226562,789.3406372070312,796.1904907226562,784.908447265625
731,798.2051391601562,787.7289428710938,796.996337890625,786.5201416015625
732,796.1904907226562,789.7435913085938,798.6080322265625,787.7289428710938
733,798.6080322265625,792.5640869140625,792.1611938476562,794.1758422851562
734,800.6226806640625,787.3259887695312,794.5787353515625,799.4139404296875
735,796.996337890625,784.1025390625,797.3992919921875,801.8314819335938
736,797.8021850585938,793.7728881835938,794.5787353515625,803.040283203125
737,802.2344360351562,798.6080322265625,793.7728881835938,805.054931640625
738,799.8168334960938,795.7875366210938,790.952392578125,797.3992919921875
739,796.996337890625,802.2344360351562,788.1318969726562,790.952392578125
740,790.5494384765625,806.6666870117188,785.3113403320312,793.3699340820312
741,786.923095703125,800.6226806640625,786.923095703125,793.7728881835938
742,788.1318969726562,794.981689453125,786.1171875,794.5787353515625
743,790.1465454101562,794.5787353515625,786.923095703125,795.7875366210938
744,792.1611938476562,797.3992919921875,783.2966918945312,791.3552856445312
745,796.996337890625,795.7875366210938,780.4761962890625,784.1025390625
746,798.6080322265625,793.7728881835938,786.1171875,786.923095703125
747,799.4139404296875,796.1904907226562,787.3259887695312,788.937744140625
748,799.010986328125,791.7582397460938,783.6996459960938,786.5201416015625
749,794.5787353515625,780.879150390625,786.1171875,788.1318969726562
750,796.996337890625,783.6996459960938,789.7435913085938,789.3406372070312
751,796.996337890625,794.1758422851562,787.7289428710938,794.1758422851562
752,790.952392578125,801.025634765625,788.937744140625,794.981689453125
753,794.1758422851562,804.6520385742188,791.3552856445312,793.7728881835938
754,799.8168334960938,801.8314819335938,790.1465454101562,794.1758422851562
755,798.6080322265625,799.010986328125,786.5201416015625,799.8168334960938
756,794.981689453125,800.2197875976562,784.5054931640625,803.8461303710938
757,794.5787353515625,797.8021850585938,787.3259887695312,797.8021850585938
758,791.3552856445312,790.5494384765625,790.1465454101562,787.7289428710938
759,792.967041015625,786.5201416015625,789.7435913085938,786.923095703125
760,793.7728881835938,784.1025390625,787.7289428710938,794.981689453125
761,789.3406372070312,783.2966918945312,794.5787353515625,795.7875366210938
762,788.5347900390625,791.3552856445312,794.981689453125,782.4908447265625
763,790.1465454101562,797.3992919921875,789.7435913085938,776.8497924804688
764,788.5347900390625,792.967041015625,790.5494384765625,785.7142944335938
765,790.5494384765625,792.1611938476562,792.967041015625,789.3406372070312
766,788.5347900390625,798.6080322265625,793.3699340820312,790.1465454101562
767,783.2966918945312,794.5787353515625,794.1758422851562,791.7582397460938
768,786.5201416015625,792.5640869140625,796.996337890625,797.8021850585938
769,787.7289428710938,792.967041015625,795.3846435546875,793.3699340820312
770,783.2966918945312,786.1171875,788.937744140625,790.5494384765625
771,787.7289428710938,788.1318969726562,788.1318969726562,790.952392578125
772,790.952392578125,792.1611938476562,793.7728881835938,788.5347900390625
773,784.908447265625,790.5494384765625,795.7875366210938,782.087890625
774,783.2966918945312,789.3406372070312,790.5494384765625,777.2527465820312
775,788.5347900390625,792.1611938476562,792.5640869140625,786.5201416015625
776,788.937744140625,795.3846435546875,792.967041015625,788.5347900390625
777,780.879150390625,794.1758422851562,786.5201416015625,784.908447265625
778,776.4468994140625,792.1611938476562,787.7289428710938,788.1318969726562
779,777.2527465820312,784.908447265625,789.7435913085938,782.893798828125
780,773.2234497070312,784.908447265625,790.1465454101562,779.6703491210938
781,774.8351440429688,790.5494384765625,791.3552856445312,782.893798828125
782,783.6996459960938,794.5787353515625,790.1465454101562,784.1025390625
783,791.7582397460938,792.967041015625,791.3552856445312,789.3406372070312
784,789.3406372070312,794.5787353515625,799.010986328125,789.7435913085938
785,786.5201416015625,791.7582397460938,796.996337890625,792.1611938476562
786,785.3113403320312,785.3113403320312,794.1758422851562,796.1904907226562
787,786.1171875,789.7435913085938,796.1904907226562,799.4139404296875
788,792.5640869140625,792.1611938476562,795.7875366210938,794.981689453125
789,788.5347900390625,783.6996459960938,794.1758422851562,784.5054931640625
790,785.3113403320312,785.3113403320312,794.5787353515625,784.908447265625
791,786.5201416015625,789.3406372070312,793.3699340820312,788.1318969726562
792,788.937744140625,788.1318969726562,798.2051391601562,785.3113403320312
793,790.1465454101562,795.7875366210938,799.010986328125,787.3259887695312
794,790.1465454101562,798.2051391601562,796.5933837890625,789.7435913085938
795,785.3113403320312,795.7875366210938,796.5933837890625,786.923095703125
796,783.2966918945312,797.8021850585938,794.1758422851562,787.3259887695312
797,788.5347900390625,796.996337890625,794.1758422851562,788.937744140625
798,795.7875366210938,799.8168334960938,802.2344360351562,796.1904907226562
799,800.6226806640625,803.8461303710938,807.4725341796875,801.8314819335938
800,801.4285888671875,803.8461303710938,811.5018310546875,797.3992919921875
801,796.996337890625,802.2344360351562,808.6813354492188,789.7435913085938
802,794.1758422851562,792.1611938476562,800.2197875976562,781.2820434570312
803,796.1904907226562,784.1025390625,796.5933837890625,779.6703491210938
804,793.7728881835938,795.3846435546875,797.3992919921875,782.893798828125
805,789.7435913085938,801.4285888671875,798.6080322265625,783.6996459960938
806,791.7582397460938,797.8021850585938,800.6226806640625,793.3699340820312
807,794.5787353515625,793.7728881835938,801.4285888671875,796.5933837890625
808,795.7875366210938,796.996337890625,801.4285888671875,794.1758422851562
809,789.3406372070312,793.7728881835938,796.5933837890625,793.3699340820312
810,793.3699340820312,789.7435913085938,792.5640869140625,796.5933837890625
811,801.025634765625,787.7289428710938,800.2197875976562,796.996337890625
812,794.981689453125,786.1171875,801.8314819335938,790.5494384765625
813,794.1758422851562,794.981689453125,798.2051391601562,794.1758422851562
814,794.981689453125,792.5640869140625,799.4139404296875,799.4139404296875
815,794.5787353515625,793.7728881835938,803.8461303710938,796.1904907226562
816,793.7728881835938,803.040283203125,802.6373901367188,794.5787353515625
817,792.967041015625,805.4578857421875,799.4139404296875,790.952392578125
818,793.3699340820312,809.89013671875,801.8314819335938,790.5494384765625
819,788.937744140625,802.2344360351562,802.2344360351562,796.1904907226562
820,795.3846435546875,791.3552856445312,799.8168334960938,801.025634765625
821,804.2490844726562,787.3259887695312,795.3846435546875,805.4578857421875
822,798.2051391601562,788.1318969726562,798.2051391601562,805.4578857421875
823,792.1611938476562,794.1758422851562,800.6226806640625,799.8168334960938
824,792.5640869140625,792.1611938476562,794.1758422851562,799.4139404296875
825,795.7875366210938,782.893798828125,794.1758422851562,808.2783813476562
826,800.2197875976562,790.952392578125,797.3992919921875,807.069580078125
827,801.8314819335938,799.010986328125,794.5787353515625,801.8314819335938
828,798.6080322265625,788.937744140625,789.3406372070312,799.010986328125
829,792.1611938476562,788.1318969726562,788.5347900390625,791.3552856445312
830,794.1758422851562,795.3846435546875,794.5787353515625,792.5640869140625
831,798.2051391601562,792.5640869140625,796.1904907226562,798.2051391601562
832,796.5933837890625,793.7728881835938,798.2051391601562,801.025634765625
833,799.010986328125,799.4139404296875,799.8168334960938,813.5164794921875
834,798.2051391601562,799.8168334960938,797.3992919921875,812.3076782226562
835,798.6080322265625,800.6226806640625,799.8168334960938,807.87548828125
836,800.2197875976562,793.3699340820312,800.2197875976562,803.4432373046875
837,796.996337890625,787.3259887695312,799.8168334960938,793.3699340820312
838,795.3846435546875,790.952392578125,804.2490844726562,791.3552856445312
839,796.996337890625,801.025634765625,803.8461303710938,790.5494384765625
840,797.3992919921875,802.2344360351562,798.2051391601562,792.1611938476562
841,798.2051391601562,799.4139404296875,799.4139404296875,792.5640869140625
842,800.6226806640625,793.3699340820312,801.8314819335938,790.5494384765625
843,800.2197875976562,799.4139404296875,801.025634765625,793.7728881835938
844,798.6080322265625,800.2197875976562,794.5787353515625,797.8021850585938
845,794.981689453125,794.5787353515625,786.923095703125,795.7875366210938
846,790.952392578125,794.5787353515625,788.1318969726562,784.908447265625
847,788.937744140625,792.967041015625,794.1758422851562,779.6703491210938
848,788.937744140625,790.1465454101562,793.3699340820312,778.4615478515625
849,793.3699340820312,791.3552856445312,790.952392578125,779.6703491210938
850,794.5787353515625,787.7289428710938,792.967041015625,783.2966918945312
851,793.3699340820312,788.937744140625,794.981689453125,784.908447265625
852,796.1904907226562,795.7875366210938,796.996337890625,792.1611938476562
853,797.3992919921875,796.1904907226562,800.2197875976562,799.010986328125
854,792.967041015625,794.1758422851562,795.7875366210938,798.6080322265625
855,787.7289428710938,795.3846435546875,790.1465454101562,794.5787353515625
856,789.3406372070312,795.3846435546875,788.1318969726562,802.6373901367188
857,790.952392578125,795.3846435546875,792.967041015625,802.2344360351562
858,790.5494384765625,797.3992919921875,801.025634765625,800.2197875976562
859,790.1465454101562,801.025634765625,797.8021850585938,795.3846435546875
860,788.937744140625,803.8461303710938,794.1758422851562,783.2966918945312
861,791.7582397460938,798.2051391601562,795.7875366210938,784.908447265625
862,791.7582397460938,791.7582397460938,791.3552856445312,784.1025390625
863,794.981689453125,791.7582397460938,790.1465454101562,788.1318969726562
864,799.4139404296875,797.8021850585938,793.7728881835938,792.1611938476562
865,796.5933837890625,794.1758422851562,789.7435913085938,792.5640869140625
866,795.3846435546875,794.1758422851562,785.7142944335938,793.3699340820312
867,793.3699340820312,797.8021850585938,786.5201416015625,790.952392578125
868,792.5640869140625,796.996337890625,785.7142944335938,786.1171875
869,796.1904907226562,798.2051391601562,788.937744140625,783.2966918945312
870,794.981689453125,798.2051391601562,792.1611938476562,786.923095703125
871,786.923095703125,792.5640869140625,794.981689453125,792.967041015625
872,785.7142944335938,795.7875366210938,797.3992919921875,795.3846435546875
873,791.7582397460938,793.7728881835938,797.3992919921875,789.7435913085938
874,787.7289428710938,786.1171875,798.6080322265625,781.2820434570312
875,786.1171875,784.1025390625,794.981689453125,782.893798828125
876,789.7435913085938,787.3259887695312,792.1611938476562,783.6996459960938
877,787.3259887695312,796.5933837890625,793.7728881835938,779.2673950195312
878,785.3113403320312,797.3992919921875,792.1611938476562,784.1025390625
879,791.3552856445312,788.937744140625,792.967041015625,787.7289428710938
880,797.3992919921875,782.4908447265625,799.4139404296875,786.923095703125
881,793.3699340820312,785.3113403320312,800.2197875976562,791.7582397460938
882,788.1318969726562,791.7582397460938,797.3992919921875,795.7875366210938
883,787.3259887695312,789.7435913085938,794.1758422851562,802.2344360351562
884,784.908447265625,788.1318969726562,793.3699340820312,795.7875366210938
885,780.0732421875,793.3699340820312,796.5933837890625,784.908447265625
886,782.087890625,798.2051391601562,797.8021850585938,787.7289428710938
887,786.5201416015625,792.967041015625,794.981689453125,791.3552856445312
888,786.1171875,788.5347900390625,793.7728881835938,787.3259887695312
889,790.1465454101562,794.5787353515625,797.8021850585938,783.2966918945312
890,791.7582397460938,794.981689453125,794.981689453125,786.1171875
891,786.923095703125,795.7875366210938,794.5787353515625,788.937744140625
892,788.1318969726562,795.7875366210938,795.3846435546875,791.3552856445312
893,787.7289428710938,790.5494384765625,795.3846435546875,794.1758422851562
894,790.1465454101562,796.1904907226562,794.981689453125,800.6226806640625
895,794.5787353515625,803.8461303710938,792.967041015625,803.8461303710938
896,796.996337890625,802.6373901367188,791.7582397460938,795.3846435546875
897,798.6080322265625,798.2051391601562,793.3699340820312,788.937744140625
898,799.8168334960938,795.7875366210938,798.6080322265625,793.7728881835938
899,802.2344360351562,794.5787353515625,805.4578857421875,797.8021850585938
900,803.040283203125,797.3992919921875,801.025634765625,798.6080322265625
901,803.4432373046875,801.8314819335938,793.3699340820312,799.8168334960938
902,799.010986328125,799.8168334960938,789.3406372070312,797.3992919921875
903,796.996337890625,795.3846435546875,787.7289428710938,790.952392578125
904,791.3552856445312,790.1465454101562,790.5494384765625,789.7435913085938
905,789.7435913085938,790.5494384765625,794.5787353515625,796.1904907226562
906,792.5640869140625,794.5787353515625,794.1758422851562,796.996337890625
907,790.952392578125,793.7728881835938,794.5787353515625,791.7582397460938
908,799.4139404296875,792.967041015625,794.5787353515625,793.3699340820312
909,801.8314819335938,788.1318969726562,793.7728881835938,790.5494384765625
910,799.010986328125,785.3113403320312,797.3992919921875,790.952392578125
911,800.2197875976562,786.1171875,798.6080322265625,793.3699340820312
912,796.1904907226562,791.7582397460938,797.8021850585938,785.3113403320312
913,791.7582397460938,798.2051391601562,796.996337890625,783.2966918945312
914,791.3552856445312,795.3846435546875,795.7875366210938,792.967041015625
915,792.1611938476562,786.1171875,792.967041015625,792.5640869140625
916,792.5640869140625,783.6996459960938,786.1171875,788.1318969726562
917,793.3699340820312,783.2966918945312,780.4761962890625,794.1758422851562
918,793.7728881835938,780.4761962890625,784.1025390625,793.3699340820312
919,797.3992919921875,791.3552856445312,789.3406372070312,788.5347900390625
920,798.2051391601562,796.5933837890625,790.952392578125,787.7289428710938
921,794.981689453125,790.952392578125,787.7289428710938,782.087890625
922,795.3846435546875,789.7435913085938,781.2820434570312,776.8497924804688
923,802.6373901367188,788.5347900390625,781.2820434570312,785.7142944335938
924,806.6666870117188,787.7289428710938,783.2966918945312,796.1904907226562
925,806.6666870117188,798.2051391601562,786.923095703125,801.025634765625
926,805.8607788085938,807.069580078125,792.5640869140625,803.4432373046875
927,806.2637329101562,800.2197875976562,796.996337890625,802.6373901367188
928,808.6813354492188,799.010986328125,797.8021850585938,808.6813354492188
929,806.2637329101562,803.040283203125,798.6080322265625,815.5311279296875
930,800.2197875976562,796.5933837890625,799.010986328125,807.069580078125
931,798.2051391601562,796.1904907226562,800.2197875976562,798.2051391601562
932,799.8168334960938,798.6080322265625,798.6080322265625,799.8168334960938
933,799.8168334960938,791.7582397460938,795.7875366210938,800.2197875976562
934,801.4285888671875,792.967041015625,796.1904907226562,795.7875366210938
935,800.6226806640625,795.7875366210938,793.3699340820312,789.3406372070312
936,794.5787353515625,788.1318969726562,788.937744140625,787.3259887695312
937,788.1318969726562,790.5494384765625,790.1465454101562,788.937744140625
938,785.7142944335938,797.3992919921875,790.5494384765625,788.5347900390625
939,791.7582397460938,793.7728881835938,797.3992919921875,794.5787353515625
940,793.7728881835938,787.7289428710938,800.6226806640625,795.3846435546875
941,794.981689453125,790.1465454101562,800.2197875976562,788.1318969726562
942,788.1318969726562,790.5494384765625,794.981689453125,785.3113403320312
943,780.0732421875,786.1171875,792.5640869140625,782.4908447265625
944,783.6996459960938,789.7435913085938,797.3992919921875,780.4761962890625
945,784.5054931640625,788.5347900390625,795.3846435546875,784.1025390625
946,782.4908447265625,781.6849975585938,792.1611938476562,791.7582397460938
947,781.2820434570312,786.5201416015625,792.5640869140625,792.5640869140625
948,786.923095703125,789.7435913085938,786.923095703125,803.8461303710938
949,790.1465454101562,794.5787353515625,786.1171875,808.6813354492188
950,788.5347900390625,796.5933837890625,788.937744140625,798.6080322265625
951,787.3259887695312,787.7289428710938,792.1611938476562,802.6373901367188
952,789.3406372070312,788.937744140625,791.3552856445312,807.069580078125
953,797.3992919921875,795.7875366210938,786.923095703125,792.5640869140625
954,800.6226806640625,795.7875366210938,789.3406372070312,781.2820434570312
955,800.6226806640625,794.5787353515625,790.952392578125,784.908447265625
956,797.8021850585938,795.7875366210938,791.3552856445312,795.3846435546875
957,794.5787353515625,796.5933837890625,794.1758422851562,792.5640869140625
958,795.3846435546875,796.1904907226562,792.967041015625,788.1318969726562
959,798.2051391601562,794.981689453125,790.5494384765625,793.7728881835938
960,797.8021850585938,798.2051391601562,794.981689453125,790.952392578125
961,794.5787353515625,799.010986328125,795.3846435546875,790.1465454101562
962,791.7582397460938,796.5933837890625,788.1318969726562,791.3552856445312
963,792.1611938476562,796.5933837890625,787.3259887695312,790.5494384765625
964,791.7582397460938,790.1465454101562,789.3406372070312,789.3406372070312
965,792.5640869140625,786.5201416015625,788.937744140625,790.5494384765625
966,795.3846435546875,793.3699340820312,791.7582397460938,792.1611938476562
967,789.3406372070312,793.7728881835938,790.952392578125,796.996337890625
968,784.1025390625,794.1758422851562,788.5347900390625,799.4139404296875
969,787.3259887695312,799.8168334960938,796.5933837890625,788.5347900390625
970,788.937744140625,796.5933837890625,796.996337890625,787.3259887695312
971,784.5054931640625,787.7289428710938,792.1611938476562,783.6996459960938
972,779.6703491210938,786.5201416015625,796.1904907226562,781.6849975585938
973,780.0732421875,788.937744140625,793.7728881835938,781.2820434570312
974,784.908447265625,786.5201416015625,791.7582397460938,782.4908447265625
975,785.3113403320312,789.3406372070312,794.5787353515625,786.1171875
976,785.3113403320312,793.3699340820312,791.3552856445312,783.6996459960938
977,787.7289428710938,793.3699340820312,791.7582397460938,784.1025390625
978,784.908447265625,789.7435913085938,786.923095703125,779.6703491210938
979,785.7142944335938,793.7728881835938,783.2966918945312,777.2527465820312
980,788.5347900390625,798.2051391601562,785.7142944335938,786.5201416015625
981,792.1611938476562,796.996337890625,786.923095703125,791.7582397460938
982,788.937744140625,794.981689453125,788.5347900390625,789.7435913085938
983,786.923095703125,789.3406372070312,785.7142944335938,787.3259887695312
984,790.1465454101562,782.893798828125,784.5054931640625,785.7142944335938
985,793.3699340820312,782.4908447265625,788.937744140625,791.3552856445312
986,795.7875366210938,787.3259887695312,783.6996459960938,800.2197875976562
987,795.7875366210938,788.5347900390625,778.05859375,804.2490844726562
988,789.7435913085938,790.1465454101562,784.1025390625,803.8461303710938
989,789.3406372070312,791.7582397460938,787.3259887695312,790.952392578125
990,790.952392578125,790.1465454101562,784.908447265625,788.5347900390625
991,787.7289428710938,791.7582397460938,787.7289428710938,795.3846435546875
992,785.3113403320312,791.3552856445312,789.3406372070312,789.3406372070312
993,783.6996459960938,793.3699340820312,784.5054931640625,788.1318969726562
994,782.087890625,790.5494384765625,787.3259887695312,791.3552856445312
995,786.5201416015625,789.3406372070312,796.1904907226562,791.3552856445312
996,783.6996459960938,794.1758422851562,795.7875366210938,784.5054931640625
997,782.4908447265625,795.7875366210938,792.5640869140625,780.4761962890625
998,792.5640869140625,797.8021850585938,794.1758422851562,787.7289428710938
999,796.1904907226562,798.6080322265625,795.7875366210938,787.7289428710938
1000,794.1758422851562,797.3992919921875,792.967041015625,785.7142944335938
1001,798.2051391601562,791.7582397460938,794.981689453125,794.5787353515625
1002,800.6226806640625,794.1758422851562,796.5933837890625,808.2783813476562
1003,796.1904907226562,802.6373901367188,793.3699340820312,799.8168334960938
1004,791.7582397460938,799.4139404296875,790.952392578125,791.3552856445312
1005,794.981689453125,788.937744140625,791.3552856445312,790.5494384765625
1006,795.7875366210938,791.7582397460938,793.7728881835938,786.923095703125
1007,790.5494384765625,798.6080322265625,792.1611938476562,783.2966918945312
1008,787.3259887695312,795.7875366210938,789.7435913085938,779.2673950195312
1009,786.1171875,794.981689453125,795.3846435546875,786.5201416015625
1010,778.4615478515625,792.5640869140625,792.967041015625,790.952392578125
1011,778.05859375,793.3699340820312,787.3259887695312,790.5494384765625
1012,778.8644409179688,791.7582397460938,791.3552856445312,793.7728881835938
1013,784.1025390625,788.1318969726562,793.7728881835938,798.2051391601562
1014,789.3406372070312,789.3406372070312,794.5787353515625,799.4139404296875
1015,791.7582397460938,786.923095703125,801.025634765625,791.3552856445312
1016,797.8021850585938,787.7289428710938,801.8314819335938,791.3552856445312
1017,793.3699340820312,793.7728881835938,796.1904907226562,791.7582397460938
1018,793.7728881835938,799.4139404296875,798.2051391601562,791.7582397460938
1019,796.996337890625,791.3552856445312,797.3992919921875,792.1611938476562
1020,798.6080322265625,782.087890625,795.7875366210938,795.3846435546875
1021,803.4432373046875,794.981689453125,795.7875366210938,797.3992919921875
1022,806.2637329101562,799.8168334960938,795.3846435546875,794.5787353515625
1023,798.2051391601562,800.2197875976562,801.025634765625,794.5787353515625
1024,787.7289428710938,801.025634765625,796.5933837890625,791.7582397460938
1025,790.1465454101562,792.1611938476562,789.3406372070312,802.6373901367188
1026,795.7875366210938,792.967041015625,792.1611938476562,808.2783813476562
1027,794.981689453125,795.7875366210938,794.5787353515625,799.8168334960938
1028,787.3259887695312,792.5640869140625,789.3406372070312,791.7582397460938
1029,782.893798828125,795.7875366210938,781.2820434570312,787.7289428710938
1030,779.6703491210938,797.3992919921875,785.3113403320312,790.5494384765625
1031,787.7289428710938,797.3992919921875,790.952392578125,790.952392578125
1032,799.4139404296875,800.6226806640625,787.7289428710938,794.5787353515625
1033,797.8021850585938,804.2490844726562,790.1465454101562,795.3846435546875
1034,792.967041015625,798.6080322265625,792.967041015625,786.1171875
1035,797.3992919921875,795.7875366210938,792.1611938476562,786.923095703125
1036,802.6373901367188,797.8021850585938,792.967041015625,796.996337890625
1037,801.4285888671875,797.8021850585938,795.7875366210938,802.2344360351562
1038,799.010986328125,799.010986328125,797.8021850585938,799.4139404296875
1039,794.5787353515625,796.5933837890625,798.6080322265625,792.1611938476562
1040,791.3552856445312,796.996337890625,799.010986328125,799.4139404296875
1041,787.3259887695312,801.8314819335938,797.8021850585938,798.6080322265625
1042,786.923095703125,800.6226806640625,802.6373901367188,791.7582397460938
1043,788.1318969726562,795.7875366210938,800.2197875976562,792.1611938476562
1044,786.923095703125,789.3406372070312,798.2051391601562,794.1758422851562
1045,789.7435913085938,788.5347900390625,800.2197875976562,796.5933837890625
1046,785.3113403320312,786.5201416015625,799.4139404296875,792.5640869140625
1047,782.893798828125,782.4908447265625,799.4139404296875,800.2197875976562
1048,788.5347900390625,782.4908447265625,800.6226806640625,813.113525390625
1049,786.923095703125,785.7142944335938,807.87548828125,807.87548828125
1050,782.893798828125,783.2966918945312,804.2490844726562,801.4285888671875
1051,784.908447265625,780.0732421875,797.3992919921875,801.4285888671875
1052,782.087890625,783.6996459960938,795.7875366210938,800.2197875976562
1053,784.908447265625,788.1318969726562,795.7875366210938,796.5933837890625
1054,786.5201416015625,788.1318969726562,798.2051391601562,796.996337890625
1055,786.1171875,787.7289428710938,799.4139404296875,803.040283203125
1056,788.5347900390625,793.3699340820312,795.7875366210938,799.8168334960938
1057,790.5494384765625,794.981689453125,794.5787353515625,795.3846435546875
1058,791.3552856445312,788.937744140625,799.010986328125,796.996337890625
1059,797.8021850585938,794.1758422851562,800.6226806640625,801.4285888671875
1060,802.2344360351562,792.967041015625,796.996337890625,796.1904907226562
1061,799.4139404296875,784.908447265625,789.3406372070312,785.7142944335938
1062,800.2197875976562,790.952392578125,784.5054931640625,779.2673950195312
1063,803.4432373046875,791.3552856445312,785.3113403320312,783.2966918945312
1064,803.4432373046875,799.010986328125,788.1318969726562,787.3259887695312
1065,799.4139404296875,809.89013671875,789.3406372070312,782.893798828125
1066,792.5640869140625,805.054931640625,788.5347900390625,780.0732421875
1067,782.893798828125,799.010986328125,788.937744140625,786.1171875
1068,779.6703491210938,797.3992919921875,784.908447265625,783.6996459960938
1069,783.2966918945312,794.981689453125,782.4908447265625,778.4615478515625
1070,783.2966918945312,792.967041015625,784.908447265625,780.879150390625
1071,792.5640869140625,789.3406372070312,790.952392578125,787.3259887695312
1072,788.5347900390625,786.1171875,791.7582397460938,788.937744140625
1073,777.6557006835938,780.4761962890625,789.7435913085938,788.5347900390625
1074,782.893798828125,783.6996459960938,793.7728881835938,798.2051391601562
1075,790.5494384765625,792.5640869140625,800.2197875976562,805.4578857421875
1076,788.937744140625,793.3699340820312,801.025634765625,797.3992919921875
1077,787.7289428710938,790.1465454101562,799.4139404296875,796.5933837890625
1078,795.3846435546875,794.5787353515625,798.6080322265625,806.2637329101562
1079,798.6080322265625,798.6080322265625,798.2051391601562,810.2930297851562
1080,796.5933837890625,798.2051391601562,794.5787353515625,801.4285888671875
1081,801.4285888671875,797.8021850585938,796.1904907226562,796.5933837890625
1082,804.2490844726562,796.1904907226562,799.4139404296875,803.8461303710938
1083,801.8314819335938,796.5933837890625,800.2197875976562,808.6813354492188
1084,802.6373901367188,801.025634765625,804.2490844726562,806.6666870117188
1085,802.6373901367188,801.4285888671875,807.069580078125,806.6666870117188
1086,805.4578857421875,798.2051391601562,803.4432373046875,812.7106323242188
1087,807.069580078125,793.3699340820312,797.8021850585938,815.5311279296875
1088,802.6373901367188,789.3406372070312,793.7728881835938,807.4725341796875
1089,792.5640869140625,791.3552856445312,792.5640869140625,796.5933837890625
1090,784.1025390625,798.2051391601562,792.5640869140625,787.7289428710938
1091,783.2966918945312,801.8314819335938,793.7728881835938,776.0439453125
1092,780.879150390625,797.8021850585938,791.7582397460938,772.0146484375
1093,778.8644409179688,793.3699340820312,785.7142944335938,778.4615478515625
1094,776.0439453125,797.8021850585938,788.5347900390625,782.893798828125
1095,772.8204956054688,800.6226806640625,794.981689453125,783.6996459960938
1096,770.4029541015625,792.967041015625,792.5640869140625,784.908447265625
1097,765.5677490234375,786.1171875,787.3259887695312,785.3113403320312
1098,774.8351440429688,790.1465454101562,784.908447265625,794.1758422851562
1099,780.4761962890625,788.937744140625,788.1318969726562,793.7728881835938
1100,783.2966918945312,785.3113403320312,788.937744140625,784.908447265625
1101,786.1171875,792.5640869140625,784.908447265625,783.6996459960938
1102,790.1465454101562,792.967041015625,786.1171875,790.952392578125
1103,792.1611938476562,788.1318969726562,788.937744140625,795.7875366210938
1104,791.7582397460938,792.1611938476562,787.7289428710938,796.996337890625
1105,796.5933837890625,794.5787353515625,791.7582397460938,799.4139404296875
1106,800.2197875976562,796.1904907226562,788.1318969726562,798.2051391601562
1107,803.4432373046875,794.1758422851562,786.923095703125,799.4139404296875
1108,807.069580078125,793.7728881835938,794.5787353515625,805.054931640625
1109,815.93408203125,797.3992919921875,794.1758422851562,811.5018310546875
1110,819.96337890625,796.996337890625,790.952392578125,814.7252807617188
1111,812.7106323242188,799.8168334960938,793.7728881835938,806.6666870117188
1112,807.87548828125,798.6080322265625,790.5494384765625,799.010986328125
1113,807.4725341796875,792.5640869140625,787.7289428710938,796.1904907226562
1114,804.6520385742188,797.3992919921875,791.3552856445312,792.5640869140625
1115,800.6226806640625,801.025634765625,791.3552856445312,787.7289428710938
1116,796.5933837890625,800.6226806640625,785.7142944335938,788.1318969726562
1117,795.3846435546875,796.5933837890625,782.087890625,788.1318969726562
1118,790.952392578125,786.923095703125,784.5054931640625,785.3113403320312
1119,788.5347900390625,788.5347900390625,788.5347900390625,783.6996459960938
1120,791.7582397460938,793.3699340820312,790.1465454101562,784.5054931640625
1121,794.5787353515625,795.3846435546875,794.981689453125,792.5640869140625
1122,793.3699340820312,795.3846435546875,805.054931640625,789.7435913085938
1123,791.3552856445312,797.3992919921875,802.2344360351562,788.1318969726562
1124,789.3406372070312,792.5640869140625,794.981689453125,795.7875366210938
1125,784.5054931640625,788.1318969726562,789.7435913085938,791.3552856445312
1126,784.908447265625,791.3552856445312,790.5494384765625,787.3259887695312
1127,790.5494384765625,794.981689453125,794.1758422851562,790.1465454101562
1128,792.1611938476562,797.3992919921875,792.5640869140625,788.937744140625
1129,790.1465454101562,794.981689453125,795.3846435546875,788.1318969726562
1130,791.7582397460938,794.981689453125,797.3992919921875,792.967041015625
1131,792.1611938476562,789.7435913085938,794.5787353515625,795.3846435546875
1132,788.5347900390625,789.3406372070312,790.5494384765625,792.967041015625
1133,790.5494384765625,795.3846435546875,790.5494384765625,790.1465454101562
1134,799.010986328125,792.5640869140625,796.1904907226562,792.5640869140625
1135,799.010986328125,789.7435913085938,797.8021850585938,799.8168334960938
1136,791.3552856445312,788.1318969726562,796.5933837890625,798.2051391601562
1137,793.7728881835938,792.5640869140625,800.6226806640625,801.4285888671875
1138,793.7728881835938,804.2490844726562,802.6373901367188,803.4432373046875
1139,794.1758422851562,798.6080322265625,800.2197875976562,800.2197875976562
1140,794.5787353515625,789.3406372070312,796.5933837890625,796.1904907226562
1141,789.7435913085938,793.7728881835938,792.967041015625,791.3552856445312
1142,788.937744140625,799.010986328125,794.5787353515625,793.3699340820312
1143,787.3259887695312,794.5787353515625,791.3552856445312,791.3552856445312
1144,783.6996459960938,788.1318969726562,790.952392578125,791.3552856445312
1145,790.5494384765625,788.5347900390625,793.7728881835938,787.7289428710938
1146,797.8021850585938,793.3699340820312,794.5787353515625,785.7142944335938
1147,796.996337890625,792.967041015625,794.1758422851562,789.3406372070312
1148,799.4139404296875,790.952392578125,792.1611938476562,794.1758422851562
1149,797.8021850585938,788.937744140625,791.3552856445312,796.1904907226562
1150,790.952392578125,793.7728881835938,790.952392578125,797.8021850585938
1151,794.981689453125,794.1758422851562,788.1318969726562,796.5933837890625
1152,797.8021850585938,784.908447265625,791.7582397460938,795.3846435546875
1153,794.1758422851562,792.1611938476562,792.1611938476562,794.981689453125
1154,796.996337890625,799.010986328125,790.952392578125,799.4139404296875
1155,798.6080322265625,793.3699340820312,788.937744140625,804.2490844726562
1156,794.981689453125,795.7875366210938,790.5494384765625,801.8314819335938
1157,792.967041015625,793.7728881835938,793.3699340820312,799.4139404296875
1158,792.1611938476562,786.1171875,788.937744140625,788.5347900390625
1159,789.7435913085938,788.5347900390625,786.923095703125,784.1025390625
1160,788.937744140625,798.2051391601562,789.3406372070312,792.967041015625
1161,786.1171875,799.010986328125,796.1904907226562,787.3259887695312
1162,784.1025390625,793.3699340820312,798.6080322265625,782.4908447265625
1163,789.7435913085938,794.5787353515625,789.7435913085938,783.2966918945312
1164,793.3699340820312,795.7875366210938,791.3552856445312,782.4908447265625
1165,789.3406372070312,790.1465454101562,795.7875366210938,784.908447265625
1166,788.1318969726562,790.952392578125,790.1465454101562,786.5201416015625
1167,788.1318969726562,792.1611938476562,784.1025390625,788.937744140625
1168,786.923095703125,791.3552856445312,786.923095703125,786.923095703125
1169,787.7289428710938,799.4139404296875,794.981689453125,780.0732421875
1170,791.7582397460938,800.6226806640625,794.5787353515625,778.8644409179688
1171,787.7289428710938,795.3846435546875,792.967041015625,786.923095703125
1172,783.6996459960938,799.8168334960938,794.1758422851562,790.952392578125
1173,792.5640869140625,801.8314819335938,792.5640869140625,792.1611938476562
1174,793.3699340820312,792.967041015625,789.3406372070312,796.5933837890625
1175,784.1025390625,788.1318969726562,789.7435913085938,796.1904907226562
1176,785.7142944335938,791.3552856445312,790.952392578125,797.8021850585938
1177,786.1171875,794.1758422851562,792.5640869140625,794.5787353515625
1178,782.4908447265625,794.981689453125,792.5640869140625,792.967041015625
1179,792.5640869140625,793.7728881835938,790.1465454101562,797.3992919921875
1180,796.1904907226562,786.5201416015625,788.1318969726562,797.8021850585938
1181,784.1025390625,787.7289428710938,786.5201416015625,790.952392578125
1182,780.4761962890625,791.7582397460938,789.3406372070312,792.967041015625
1183,787.3259887695312,793.3699340820312,791.7582397460938,799.010986328125
1184,791.3552856445312,793.7728881835938,790.5494384765625,792.5640869140625
1185,793.3699340820312,791.3552856445312,791.3552856445312,789.7435913085938
1186,794.1758422851562,794.1758422851562,793.3699340820312,788.937744140625
1187,791.3552856445312,796.5933837890625,792.1611938476562,787.3259887695312
1188,794.1758422851562,794.981689453125,792.5640869140625,790.5494384765625
1189,798.6080322265625,791.3552856445312,793.7728881835938,796.996337890625
1190,802.2344360351562,787.3259887695312,795.7875366210938,797.3992919921875
1191,798.6080322265625,788.937744140625,792.1611938476562,788.937744140625
1192,796.5933837890625,792.5640869140625,784.5054931640625,780.879150390625
1193,802.2344360351562,792.967041015625,785.3113403320312,780.0732421875
1194,801.4285888671875,788.5347900390625,792.5640869140625,785.7142944335938
1195,796.996337890625,790.5494384765625,796.5933837890625,790.952392578125
1196,797.3992919921875,795.3846435546875,795.7875366210938,790.952392578125
1197,793.7728881835938,794.981689453125,796.1904907226562,792.5640869140625
1198,788.1318969726562,790.5494384765625,795.3846435546875,803.4432373046875
1199,787.7289428710938,790.952392578125,794.5787353515625,805.054931640625
1200,793.3699340820312,791.7582397460938,796.1904907226562,802.6373901367188
1201,798.6080322265625,791.3552856445312,796.996337890625,803.4432373046875
1202,799.8168334960938,789.3406372070312,801.8314819335938,797.3992919921875
1203,796.5933837890625,791.3552856445312,802.2344360351562,796.996337890625
1204,790.952392578125,800.2197875976562,801.8314819335938,794.1758422851562
1205,788.937744140625,795.7875366210938,803.040283203125,794.981689453125
1206,785.3113403320312,792.5640869140625,795.3846435546875,799.010986328125
1207,780.879150390625,791.3552856445312,795.3846435546875,790.1465454101562
1208,778.05859375,788.5347900390625,796.1904907226562,784.5054931640625
1209,782.087890625,788.937744140625,792.5640869140625,787.7289428710938
1210,788.5347900390625,788.5347900390625,796.996337890625,793.3699340820312
1211,788.937744140625,788.1318969726562,797.8021850585938,788.937744140625
1212,796.5933837890625,794.1758422851562,798.6080322265625,787.7289428710938
1213,797.3992919921875,800.2197875976562,803.4432373046875,788.1318969726562
1214,798.2051391601562,799.4139404296875,798.6080322265625,787.7289428710938
1215,811.5018310546875,799.010986328125,794.1758422851562,790.5494384765625
1216,815.1282348632812,800.6226806640625,799.8168334960938,794.5787353515625
1217,811.098876953125,799.010986328125,799.4139404296875,801.4285888671875
1218,804.2490844726562,797.8021850585938,799.010986328125,795.7875366210938
1219,797.3992919921875,793.7728881835938,799.010986328125,788.937744140625
1220,793.3699340820312,790.1465454101562,796.5933837890625,788.1318969726562
1221,790.5494384765625,790.1465454101562,798.2051391601562,792.1611938476562
1222,790.1465454101562,794.5787353515625,801.4285888671875,792.5640869140625
1223,786.5201416015625,796.1904907226562,799.8168334960938,788.1318969726562
1224,784.1025390625,794.1758422851562,797.3992919921875,788.937744140625
1225,785.3113403320312,798.2051391601562,795.7875366210938,787.3259887695312
1226,788.1318969726562,797.3992919921875,799.4139404296875,784.908447265625
1227,791.3552856445312,794.5787353515625,797.8021850585938,787.3259887695312
1228,794.1758422851562,797.3992919921875,789.3406372070312,794.1758422851562
1229,791.3552856445312,797.8021850585938,790.5494384765625,800.2197875976562
1230,784.1025390625,788.5347900390625,795.3846435546875,786.923095703125
1231,789.3406372070312,790.1465454101562,796.996337890625,781.6849975585938
1232,790.5494384765625,798.6080322265625,791.7582397460938,784.908447265625
1233,784.908447265625,799.010986328125,795.7875366210938,788.5347900390625
1234,783.6996459960938,800.6226806640625,797.8021850585938,787.7289428710938
1235,785.7142944335938,803.040283203125,790.5494384765625,785.7142944335938
1236,786.923095703125,801.025634765625,792.967041015625,791.3552856445312
1237,787.3259887695312,795.7875366210938,792.1611938476562,792.5640869140625
1238,793.7728881835938,796.5933837890625,790.5494384765625,792.1611938476562
1239,801.4285888671875,798.2051391601562,794.981689453125,799.010986328125
1240,800.6226806640625,796.5933837890625,796.1904907226562,797.3992919921875
1241,793.3699340820312,796.5933837890625,790.952392578125,786.923095703125
1242,792.967041015625,801.025634765625,791.7582397460938,784.1025390625
1243,797.3992919921875,806.6666870117188,797.3992919921875,789.7435913085938
1244,798.2051391601562,804.2490844726562,794.981689453125,793.3699340820312
1245,794.5787353515625,799.4139404296875,793.7728881835938,785.3113403320312
1246,790.5494384765625,788.937744140625,788.937744140625,784.5054931640625
1247,794.1758422851562,782.4908447265625,790.1465454101562,788.937744140625
1248,790.5494384765625,787.3259887695312,793.7728881835938,786.923095703125
1249,788.1318969726562,792.1611938476562,790.952392578125,784.1025390625
1250,788.937744140625,796.1904907226562,790.952392578125,786.1171875
1251,788.937744140625,792.967041015625,794.5787353515625,791.3552856445312
1252,791.3552856445312,790.1465454101562,795.3846435546875,796.996337890625
1253,787.7289428710938,797.3992919921875,793.7728881835938,788.937744140625
1254,785.3113403320312,800.2197875976562,789.7435913085938,784.908447265625
1255,790.1465454101562,794.5787353515625,786.1171875,794.1758422851562
1256,791.7582397460938,793.7728881835938,785.7142944335938,790.5494384765625
1257,794.5787353515625,792.967041015625,790.952392578125,787.7289428710938
1258,793.7728881835938,790.1465454101562,789.3406372070312,791.3552856445312
1259,788.937744140625,790.1465454101562,785.3113403320312,793.7728881835938
1260,795.3846435546875,790.1465454101562,789.7435913085938,798.6080322265625
1261,804.2490844726562,796.5933837890625,794.5787353515625,798.2051391601562
1262,807.4725341796875,799.8168334960938,788.937744140625,791.7582397460938
1263,809.084228515625,794.5787353515625,789.3406372070312,789.7435913085938
1264,805.054931640625,799.4139404296875,794.5787353515625,788.5347900390625
1265,801.4285888671875,805.4578857421875,794.981689453125,792.5640869140625
1266,803.040283203125,804.2490844726562,795.7875366210938,792.5640869140625
1267,801.4285888671875,799.8168334960938,794.1758422851562,796.5933837890625
1268,798.2051391601562,796.1904907226562,800.2197875976562,798.6080322265625
1269,794.1758422851562,796.1904907226562,801.4285888671875,795.7875366210938
1270,786.5201416015625,798.2051391601562,794.5787353515625,801.025634765625
1271,788.937744140625,800.6226806640625,790.5494384765625,799.010986328125
1272,792.1611938476562,795.3846435546875,792.967041015625,792.1611938476562
1273,790.952392578125,792.967041015625,795.7875366210938,792.967041015625
1274,793.7728881835938,798.2051391601562,793.7728881835938,792.967041015625
1275,795.7875366210938,801.025634765625,794.1758422851562,796.5933837890625
1276,794.981689453125,799.4139404296875,801.025634765625,799.4139404296875
1277,796.1904907226562,794.1758422851562,799.4139404296875,790.5494384765625
1278,795.3846435546875,794.1758422851562,792.967041015625,791.7582397460938
1279,792.1611938476562,795.3846435546875,793.7728881835938,798.6080322265625
1280,788.1318969726562,796.996337890625,792.1611938476562,786.1171875
1281,786.5201416015625,800.6226806640625,790.5494384765625,779.6703491210938
1282,793.7728881835938,800.2197875976562,793.7728881835938,784.5054931640625
1283,797.3992919921875,796.996337890625,790.952392578125,781.6849975585938
1284,796.5933837890625,795.3846435546875,784.1025390625,782.4908447265625
1285,799.8168334960938,793.3699340820312,786.923095703125,790.952392578125
1286,799.4139404296875,788.937744140625,794.5787353515625,784.908447265625
1287,796.1904907226562,792.967041015625,794.981689453125,775.2380981445312
1288,794.5787353515625,796.1904907226562,791.3552856445312,777.6557006835938
1289,789.7435913085938,794.1758422851562,791.7582397460938,783.2966918945312
1290,792.1611938476562,800.2197875976562,794.1758422851562,792.1611938476562
1291,793.7728881835938,799.4139404296875,798.2051391601562,794.1758422851562
1292,792.967041015625,794.1758422851562,792.967041015625,790.952392578125
1293,795.7875366210938,797.3992919921875,790.1465454101562,790.952392578125
1294,788.5347900390625,797.8021850585938,792.967041015625,795.3846435546875
1295,783.6996459960938,796.996337890625,792.5640869140625,794.981689453125
1296,792.967041015625,796.5933837890625,794.1758422851562,791.7582397460938
1297,793.3699340820312,790.1465454101562,794.981689453125,791.3552856445312
1298,789.3406372070312,791.7582397460938,796.996337890625,787.7289428710938
1299,793.7728881835938,792.5640869140625,796.1904907226562,785.3113403320312
1300,792.967041015625,790.952392578125,792.967041015625,782.4908447265625
1301,788.5347900390625,794.5787353515625,789.7435913085938,784.908447265625
1302,793.7728881835938,790.1465454101562,792.1611938476562,792.1611938476562
1303,792.1611938476562,789.7435913085938,796.1904907226562,785.7142944335938
1304,786.923095703125,788.5347900390625,793.7728881835938,781.6849975585938
1305,789.3406372070312,786.5201416015625,789.7435913085938,787.7289428710938
1306,786.5201416015625,789.7435913085938,789.7435913085938,787.3259887695312
1307,786.5201416015625,793.3699340820312,795.7875366210938,785.7142944335938
1308,793.7728881835938,794.981689453125,797.8021850585938,793.7728881835938
1309,796.5933837890625,794.1758422851562,790.952392578125,796.996337890625
1310,798.2051391601562,794.1758422851562,788.937744140625,790.1465454101562
1311,800.6226806640625,788.5347900390625,790.5494384765625,790.5494384765625
1312,799.010986328125,794.1758422851562,791.3552856445312,793.7728881835938
1313,794.981689453125,793.3699340820312,789.3406372070312,795.7875366210938
1314,793.7728881835938,790.952392578125,793.7728881835938,791.7582397460938
1315,794.5787353515625,796.1904907226562,791.3552856445312,792.5640869140625
1316,796.5933837890625,797.3992919921875,789.3406372070312,796.5933837890625
1317,796.5933837890625,796.996337890625,795.3846435546875,803.040283203125
1318,801.025634765625,798.6080322265625,800.2197875976562,801.025634765625
1319,805.4578857421875,797.8021850585938,801.4285888671875,794.1758422851562
1320,804.2490844726562,796.5933837890625,799.8168334960938,795.3846435546875
1321,799.010986328125,801.025634765625,794.981689453125,791.3552856445312
1322,794.5787353515625,800.2197875976562,791.7582397460938,786.1171875
1323,798.2051391601562,790.952392578125,791.3552856445312,780.879150390625
1324,796.5933837890625,786.5201416015625,796.5933837890625,790.952392578125
1325,792.5640869140625,795.3846435546875,797.8021850585938,803.4432373046875
1326,787.3259887695312,799.8168334960938,796.996337890625,788.5347900390625
1327,788.1318969726562,800.2197875976562,799.8168334960938,792.967041015625
1328,790.952392578125,799.010986328125,801.4285888671875,805.8607788085938
1329,787.3259887695312,794.981689453125,803.040283203125,798.2051391601562
1330,787.3259887695312,789.7435913085938,796.996337890625,792.1611938476562
1331,786.923095703125,788.1318969726562,793.3699340820312,791.7582397460938
1332,785.7142944335938,790.952392578125,794.5787353515625,794.5787353515625
1333,790.1465454101562,790.952392578125,796.1904907226562,799.010986328125
1334,796.1904907226562,790.952392578125,790.952392578125,792.5640869140625
1335,803.040283203125,789.3406372070312,794.5787353515625,795.3846435546875
1336,807.87548828125,792.967041015625,805.054931640625,806.2637329101562
1337,801.025634765625,801.8314819335938,803.4432373046875,803.040283203125
1338,799.010986328125,802.6373901367188,799.4139404296875,795.3846435546875
1339,800.6226806640625,801.8314819335938,794.981689453125,795.7875366210938
1340,798.2051391601562,804.2490844726562,790.5494384765625,797.3992919921875
1341,798.2051391601562,799.8168334960938,792.1611938476562,790.952392578125
1342,799.4139404296875,797.3992919921875,794.1758422851562,794.1758422851562
1343,792.967041015625,792.1611938476562,789.3406372070312,800.2197875976562
1344,787.7289428710938,788.5347900390625,791.3552856445312,808.6813354492188
1345,787.7289428710938,792.967041015625,798.6080322265625,804.2490844726562
1346,791.3552856445312,795.3846435546875,794.981689453125,792.1611938476562
1347,790.5494384765625,796.1904907226562,794.5787353515625,789.3406372070312
1348,788.937744140625,799.010986328125,796.1904907226562,787.3259887695312
1349,791.3552856445312,794.5787353515625,795.7875366210938,786.923095703125
1350,792.1611938476562,793.3699340820312,801.025634765625,786.1171875
1351,784.1025390625,799.010986328125,799.010986328125,784.1025390625
1352,781.6849975585938,799.010986328125,795.3846435546875,788.1318969726562
1353,788.5347900390625,799.8168334960938,797.8021850585938,789.7435913085938
1354,790.1465454101562,794.1758422851562,795.7875366210938,788.5347900390625
1355,788.5347900390625,787.3259887695312,790.952392578125,789.3406372070312
1356,783.2966918945312,785.3113403320312,789.7435913085938,790.952392578125
1357,782.893798828125,787.7289428710938,786.5201416015625,786.5201416015625
1358,791.3552856445312,793.3699340820312,789.7435913085938,788.1318969726562
1359,794.5787353515625,795.7875366210938,791.3552856445312,794.1758422851562
1360,790.1465454101562,803.040283203125,789.3406372070312,786.1171875
1361,788.937744140625,804.2490844726562,791.3552856445312,779.6703491210938
1362,790.5494384765625,802.2344360351562,792.967041015625,788.1318969726562
1363,794.5787353515625,798.2051391601562,792.5640869140625,799.8168334960938
1364,799.010986328125,792.1611938476562,795.3846435546875,799.8168334960938
1365,795.3846435546875,794.981689453125,796.5933837890625,792.967041015625
1366,786.923095703125,790.952392578125,792.1611938476562,781.2820434570312
1367,785.3113403320312,783.2966918945312,788.5347900390625,774.029296875
1368,783.6996459960938,781.2820434570312,789.7435913085938,777.6557006835938
1369,786.923095703125,789.7435913085938,793.7728881835938,788.1318969726562
1370,788.5347900390625,798.6080322265625,794.1758422851562,792.5640869140625
1371,784.1025390625,793.7728881835938,793.7728881835938,786.923095703125
1372,784.908447265625,790.952392578125,799.010986328125,782.893798828125
1373,782.893798828125,794.5787353515625,794.981689453125,785.3113403320312
1374,790.1465454101562,791.3552856445312,793.3699340820312,795.7875366210938
1375,797.8021850585938,791.7582397460938,801.8314819335938,802.2344360351562
1376,790.1465454101562,793.7728881835938,799.8168334960938,790.1465454101562
1377,789.7435913085938,792.5640869140625,795.3846435546875,788.937744140625
1378,799.010986328125,794.5787353515625,800.2197875976562,806.6666870117188
1379,808.6813354492188,790.5494384765625,803.4432373046875,808.2783813476562
1380,811.098876953125,795.7875366210938,802.2344360351562,800.6226806640625
1381,808.6813354492188,801.8314819335938,802.2344360351562,800.2197875976562
1382,803.040283203125,795.7875366210938,799.8168334960938,799.4139404296875
1383,802.6373901367188,789.3406372070312,797.8021850585938,799.8168334960938
1384,807.069580078125,790.1465454101562,798.6080322265625,793.3699340820312
1385,805.8607788085938,794.1758422851562,796.1904907226562,792.967041015625
1386,804.6520385742188,791.7582397460938,793.7728881835938,800.6226806640625
1387,801.025634765625,792.967041015625,799.010986328125,799.4139404296875
1388,795.7875366210938,798.6080322265625,800.6226806640625,797.8021850585938
1389,797.3992919921875,797.8021850585938,797.8021850585938,797.3992919921875
1390,800.2197875976562,800.2197875976562,792.967041015625,794.981689453125
1391,798.6080322265625,798.6080322265625,790.5494384765625,799.010986328125
1392,792.1611938476562,793.7728881835938,791.7582397460938,801.025634765625
1393,791.7582397460938,794.5787353515625,788.1318969726562,797.8021850585938
1394,797.3992919921875,795.7875366210938,786.5201416015625,797.3992919921875
1395,795.3846435546875,789.7435913085938,790.952392578125,796.996337890625
1396,792.1611938476562,785.3113403320312,791.7582397460938,792.967041015625
1397,795.3846435546875,793.7728881835938,787.3259887695312,786.5201416015625
1398,796.5933837890625,799.010986328125,788.1318969726562,786.1171875
1399,798.6080322265625,803.8461303710938,793.3699340820312,787.7289428710938
1400,795.7875366210938,799.8168334960938,791.7582397460938,786.923095703125
1401,796.5933837890625,794.1758422851562,788.937744140625,787.3259887695312
1402,794.981689453125,799.010986328125,788.5347900390625,789.7435913085938
1403,796.1904907226562,803.4432373046875,788.937744140625,792.1611938476562
1404,801.4285888671875,803.040283203125,788.5347900390625,794.5787353515625
1405,802.2344360351562,800.6226806640625,786.923095703125,796.996337890625
1406,796.1904907226562,800.6226806640625,788.5347900390625,797.3992919921875
1407,794.981689453125,793.7728881835938,793.7728881835938,793.7728881835938
1408,797.3992919921875,792.5640869140625,793.7728881835938,794.1758422851562
1409,797.3992919921875,794.1758422851562,792.1611938476562,800.6226806640625
1410,796.996337890625,790.1465454101562,798.6080322265625,796.996337890625
1411,792.967041015625,797.3992919921875,803.040283203125,791.3552856445312
1412,781.2820434570312,801.025634765625,797.8021850585938,790.1465454101562
1413,778.05859375,792.5640869140625,794.981689453125,790.1465454101562
1414,781.2820434570312,786.923095703125,792.5640869140625,788.1318969726562
1415,782.893798828125,790.952392578125,791.7582397460938,781.6849975585938
1416,787.3259887695312,795.7875366210938,791.3552856445312,780.879150390625
1417,788.1318969726562,793.7728881835938,791.3552856445312,782.4908447265625
1418,785.3113403320312,791.7582397460938,794.1758422851562,784.5054931640625
1419,785.7142944335938,796.996337890625,795.3846435546875,788.937744140625
1420,785.7142944335938,790.1465454101562,793.7728881835938,793.3699340820312
1421,791.3552856445312,787.3259887695312,794.981689453125,803.4432373046875
1422,787.3259887695312,800.6226806640625,797.3992919921875,799.010986328125
1423,778.4615478515625,800.2197875976562,793.7728881835938,784.5054931640625
1424,783.2966918945312,796.1904907226562,788.937744140625,783.6996459960938
1425,788.1318969726562,796.1904907226562,789.3406372070312,785.3113403320312
1426,787.3259887695312,797.8021850585938,788.937744140625,785.7142944335938
1427,796.5933837890625,795.7875366210938,788.5347900390625,789.7435913085938
1428,803.040283203125,795.3846435546875,787.7289428710938,786.1171875
1429,803.8461303710938,801.025634765625,789.7435913085938,785.7142944335938
1430,806.6666870117188,807.069580078125,788.5347900390625,794.1758422851562
1431,800.2197875976562,800.2197875976562,787.3259887695312,799.4139404296875
1432,799.010986328125,795.7875366210938,792.967041015625,808.2783813476562
1433,799.4139404296875,794.1758422851562,794.1758422851562,801.8314819335938
1434,792.967041015625,796.1904907226562,790.952392578125,791.3552856445312
1435,794.981689453125,807.4725341796875,793.3699340820312,795.7875366210938
1436,796.996337890625,808.6813354492188,792.1611938476562,794.5787353515625
1437,795.3846435546875,801.025634765625,788.5347900390625,790.5494384765625
1438,801.8314819335938,791.7582397460938,790.5494384765625,796.5933837890625
1439,803.4432373046875,790.952392578125,788.5347900390625,790.5494384765625
1440,795.3846435546875,796.1904907226562,789.3406372070312,781.2820434570312
1441,790.952392578125,794.981689453125,795.7875366210938,784.908447265625
1442,783.6996459960938,790.952392578125,792.967041015625,782.087890625
1443,786.5201416015625,789.7435913085938,792.967041015625,784.908447265625
1444,793.7728881835938,791.7582397460938,795.7875366210938,792.967041015625
1445,790.1465454101562,793.7728881835938,798.2051391601562,788.937744140625
1446,789.7435913085938,794.1758422851562,797.3992919921875,789.3406372070312
1447,786.923095703125,788.5347900390625,794.981689453125,799.010986328125
1448,792.1611938476562,794.981689453125,795.7875366210938,800.2197875976562
1449,800.2197875976562,804.6520385742188,793.7728881835938,795.3846435546875
1450,798.6080322265625,803.040283203125,791.7582397460938,796.1904907226562
1451,798.2051391601562,799.8168334960938,791.3552856445312,795.3846435546875
1452,791.3552856445312,796.5933837890625,788.1318969726562,790.1465454101562
1453,789.7435913085938,797.8021850585938,786.5201416015625,788.5347900390625
1454,790.952392578125,792.967041015625,783.6996459960938,788.5347900390625
1455,787.3259887695312,792.1611938476562,786.5201416015625,789.7435913085938
1456,784.1025390625,797.3992919921875,788.5347900390625,786.5201416015625
1457,784.5054931640625,794.1758422851562,789.3406372070312,790.5494384765625
1458,789.3406372070312,791.7582397460938,790.1465454101562,797.8021850585938
1459,792.967041015625,798.2051391601562,786.1171875,795.3846435546875
1460,795.7875366210938,807.069580078125,788.937744140625,793.7728881835938
1461,796.1904907226562,801.8314819335938,790.5494384765625,794.5787353515625
1462,796.5933837890625,795.7875366210938,789.7435913085938,792.5640869140625
1463,794.5787353515625,796.5933837890625,792.1611938476562,790.952392578125
1464,792.967041015625,796.5933837890625,792.1611938476562,786.5201416015625
1465,792.1611938476562,794.1758422851562,794.981689453125,790.5494384765625
1466,795.3846435546875,792.1611938476562,791.3552856445312,794.1758422851562
1467,806.2637329101562,794.1758422851562,791.3552856445312,794.5787353515625
1468,807.87548828125,796.5933837890625,799.010986328125,797.8021850585938
1469,800.2197875976562,800.2197875976562,795.3846435546875,795.3846435546875
1470,795.7875366210938,796.5933837890625,791.7582397460938,794.1758422851562
1471,797.8021850585938,793.7728881835938,791.7582397460938,793.7728881835938
1472,800.2197875976562,798.2051391601562,791.7582397460938,792.967041015625
1473,799.8168334960938,799.8168334960938,794.1758422851562,790.5494384765625
1474,796.996337890625,794.1758422851562,793.3699340820312,790.1465454101562
1475,791.3552856445312,787.3259887695312,793.7728881835938,788.937744140625
1476,793.3699340820312,794.5787353515625,796.1904907226562,788.1318969726562
1477,795.3846435546875,799.010986328125,794.981689453125,795.7875366210938
1478,784.908447265625,790.952392578125,790.5494384765625,795.7875366210938
1479,781.6849975585938,790.5494384765625,788.1318969726562,791.3552856445312
1480,787.3259887695312,798.2051391601562,786.1171875,792.5640869140625
1481,792.1611938476562,805.4578857421875,790.1465454101562,800.6226806640625
1482,794.5787353515625,799.4139404296875,792.967041015625,807.87548828125
1483,789.3406372070312,793.3699340820312,791.7582397460938,801.025634765625
1484,784.5054931640625,796.996337890625,791.7582397460938,796.1904907226562
1485,784.5054931640625,797.3992919921875,795.3846435546875,799.010986328125
1486,784.908447265625,795.3846435546875,798.6080322265625,797.3992919921875
1487,790.952392578125,797.3992919921875,797.8021850585938,794.1758422851562
1488,794.1758422851562,799.4139404296875,794.5787353515625,792.1611938476562
1489,790.1465454101562,794.1758422851562,788.5347900390625,788.1318969726562
1490,786.5201416015625,790.5494384765625,786.1171875,782.893798828125
1491,792.1611938476562,795.7875366210938,788.5347900390625,781.6849975585938
1492,792.1611938476562,797.8021850585938,786.923095703125,783.6996459960938
1493,786.923095703125,792.967041015625,788.1318969726562,784.908447265625
1494,790.1465454101562,793.7728881835938,796.1904907226562,791.3552856445312
1495,794.1758422851562,795.7875366210938,797.8021850585938,799.8168334960938
1496,802.6373901367188,791.3552856445312,793.7728881835938,800.6226806640625
1497,803.040283203125,792.5640869140625,795.3846435546875,794.1758422851562
1498,794.1758422851562,798.2051391601562,799.4139404296875,789.3406372070312
1499,789.7435913085938,791.3552856445312,802.6373901367188,791.3552856445312
1500,785.3113403320312,790.952392578125,802.2344360351562,792.1611938476562
1501,785.3113403320312,792.5640869140625,800.2197875976562,801.025634765625
1502,785.3113403320312,792.967041015625,797.3992919921875,799.8168334960938
1503,782.087890625,797.8021850585938,796.5933837890625,789.3406372070312
1504,789.3406372070312,795.3846435546875,799.4139404296875,793.3699340820312
1505,790.952392578125,788.5347900390625,797.8021850585938,800.6226806640625
1506,788.5347900390625,787.3259887695312,797.8021850585938,794.981689453125
1507,794.1758422851562,787.7289428710938,799.8168334960938,788.937744140625
1508,793.7728881835938,786.5201416015625,798.2051391601562,791.7582397460938
1509,787.3259887695312,789.7435913085938,794.5787353515625,794.1758422851562
1510,792.1611938476562,793.7728881835938,795.3846435546875,794.981689453125
1511,801.8314819335938,791.7582397460938,797.8021850585938,794.981689453125
1512,807.87548828125,790.5494384765625,795.7875366210938,795.7875366210938
1513,805.054931640625,790.952392578125,792.967041015625,800.2197875976562
1514,797.3992919921875,792.5640869140625,789.7435913085938,799.4139404296875
1515,790.952392578125,794.5787353515625,788.5347900390625,793.3699340820312
1516,790.952392578125,796.5933837890625,784.908447265625,792.1611938476562
1517,791.3552856445312,798.6080322265625,784.5054931640625,793.7728881835938
1518,792.5640869140625,799.010986328125,787.3259887695312,792.5640869140625
1519,799.4139404296875,797.3992919921875,787.3259887695312,792.5640869140625
1520,798.2051391601562,798.6080322265625,795.3846435546875,797.3992919921875
1521,789.7435913085938,801.025634765625,795.7875366210938,788.1318969726562
1522,787.7289428710938,796.5933837890625,790.1465454101562,779.6703491210938
1523,792.1611938476562,787.7289428710938,788.1318969726562,780.4761962890625
1524,796.996337890625,790.1465454101562,790.5494384765625,786.1171875
1525,792.5640869140625,791.7582397460938,790.952392578125,788.1318969726562
1526,790.5494384765625,792.1611938476562,788.1318969726562,782.4908447265625
1527,796.1904907226562,798.2051391601562,789.3406372070312,786.5201416015625
1528,796.5933837890625,798.6080322265625,792.5640869140625,792.967041015625
1529,796.5933837890625,793.7728881835938,796.1904907226562,796.996337890625
1530,793.7728881835938,789.7435913085938,794.981689453125,798.2051391601562
1531,788.1318969726562,792.5640869140625,792.5640869140625,797.8021850585938
1532,784.5054931640625,795.3846435546875,788.5347900390625,794.1758422851562
1533,786.923095703125,792.967041015625,792.967041015625,795.7875366210938
1534,788.5347900390625,784.908447265625,798.6080322265625,796.5933837890625
1535,786.5201416015625,783.2966918945312,795.3846435546875,797.3992919921875
1536,791.3552856445312,793.7728881835938,794.1758422851562,803.040283203125
1537,797.3992919921875,799.4139404296875,799.4139404296875,801.025634765625
1538,794.5787353515625,801.8314819335938,797.8021850585938,795.7875366210938
1539,793.7728881835938,794.981689453125,793.7728881835938,794.1758422851562
1540,798.6080322265625,790.952392578125,799.4139404296875,801.025634765625
1541,803.8461303710938,798.2051391601562,801.025634765625,803.8461303710938
1542,802.2344360351562,800.2197875976562,797.8021850585938,799.8168334960938
1543,797.8021850585938,793.7728881835938,799.010986328125,803.4432373046875
1544,796.996337890625,788.5347900390625,800.6226806640625,809.89013671875
1545,793.7728881835938,796.5933837890625,796.1904907226562,801.4285888671875
1546,793.3699340820312,793.7728881835938,798.2051391601562,797.3992919921875
1547,792.1611938476562,788.5347900390625,800.2197875976562,797.8021850585938
1548,792.967041015625,794.5787353515625,796.1904907226562,789.7435913085938
1549,794.981689453125,798.6080322265625,793.7728881835938,786.1171875
1550,792.967041015625,798.6080322265625,793.7728881835938,788.1318969726562
1551,795.7875366210938,796.5933837890625,791.3552856445312,790.952392578125
1552,796.1904907226562,796.5933837890625,789.3406372070312,785.7142944335938
1553,793.3699340820312,797.8021850585938,790.952392578125,782.4908447265625
1554,796.996337890625,792.5640869140625,794.5787353515625,790.1465454101562
1555,796.1904907226562,788.1318969726562,793.3699340820312,801.4285888671875
1556,790.1465454101562,792.1611938476562,796.5933837890625,802.6373901367188
1557,789.7435913085938,794.1758422851562,797.8021850585938,801.4285888671875
1558,790.5494384765625,803.040283203125,796.1904907226562,798.6080322265625
1559,790.5494384765625,804.6520385742188,799.8168334960938,792.967041015625
1560,789.7435913085938,800.2197875976562,799.8168334960938,792.5640869140625
1561,788.1318969726562,796.996337890625,794.5787353515625,795.3846435546875
1562,793.3699340820312,792.5640869140625,793.7728881835938,800.2197875976562
1563,802.2344360351562,796.5933837890625,794.1758422851562,800.6226806640625
1564,802.6373901367188,801.4285888671875,795.3846435546875,800.6226806640625
1565,797.3992919921875,797.8021850585938,795.7875366210938,803.4432373046875
1566,798.2051391601562,791.7582397460938,790.952392578125,806.6666870117188
1567,801.4285888671875,794.1758422851562,794.1758422851562,810.2930297851562
1568,801.025634765625,799.8168334960938,800.2197875976562,799.8168334960938
1569,797.3992919921875,796.5933837890625,795.3846435546875,796.1904907226562
1570,794.1758422851562,790.5494384765625,786.1171875,794.5787353515625
1571,792.1611938476562,792.967041015625,791.3552856445312,786.1171875
1572,788.1318969726562,789.3406372070312,794.1758422851562,788.1318969726562
1573,790.952392578125,790.5494384765625,790.5494384765625,795.7875366210938
1574,792.967041015625,792.967041015625,788.937744140625,795.3846435546875
1575,788.5347900390625,790.952392578125,793.3699340820312,799.4139404296875
1576,788.1318969726562,791.3552856445312,795.3846435546875,801.4285888671875
1577,791.7582397460938,790.5494384765625,792.1611938476562,795.7875366210938
1578,794.1758422851562,784.5054931640625,794.5787353515625,807.4725341796875
