timestamp,RAW_TP9,RAW_AF7,RAW_AF8,RAW_TP10
1,813.91943359375,793.7728881835938,786.923095703125,794.5787353515625
2,810.2930297851562,791.3552856445312,782.893798828125,794.981689453125
3,805.054931640625,788.937744140625,793.7728881835938,797.8021850585938
4,806.2637329101562,790.1465454101562,801.4285888671875,803.8461303710938
5,807.4725341796875,794.5787353515625,799.4139404296875,801.8314819335938
6,806.2637329101562,790.5494384765625,796.5933837890625,802.2344360351562
7,802.2344360351562,796.1904907226562,794.1758422851562,796.996337890625
8,798.2051391601562,806.6666870117188,796.5933837890625,792.967041015625
9,796.996337890625,799.010986328125,796.1904907226562,796.1904907226562
10,798.2051391601562,795.7875366210938,792.967041015625,795.7875366210938
11,794.5787353515625,795.7875366210938,797.3992919921875,794.5787353515625
12,789.7435913085938,786.1171875,795.7875366210938,792.967041015625
13,791.3552856445312,782.087890625,796.5933837890625,801.4285888671875
14,790.952392578125,784.908447265625,794.5787353515625,803.8461303710938
15,785.3113403320312,790.1465454101562,798.2051391601562,794.5787353515625
16,782.893798828125,791.7582397460938,796.5933837890625,791.3552856445312
17,782.4908447265625,786.5201416015625,790.5494384765625,797.8021850585938
18,780.0732421875,786.5201416015625,790.952392578125,800.2197875976562
19,780.0732421875,792.967041015625,793.3699340820312,793.7728881835938
20,784.5054931640625,789.3406372070312,794.5787353515625,795.3846435546875
21,780.0732421875,782.893798828125,790.1465454101562,789.7435913085938
22,779.6703491210938,787.3259887695312,794.1758422851562,782.4908447265625
23,781.6849975585938,786.923095703125,795.3846435546875,783.2966918945312
24,782.893798828125,784.1025390625,792.5640869140625,787.3259887695312
25,789.7435913085938,783.6996459960938,793.7728881835938,790.5494384765625
26,786.5201416015625,778.05859375,790.5494384765625,785.3113403320312
27,782.087890625,779.2673950195312,786.923095703125,784.1025390625
28,786.923095703125,787.7289428710938,786.923095703125,784.1025390625
29,795.7875366210938,794.1758422851562,785.7142944335938,787.7289428710938
30,794.981689453125,792.967041015625,783.2966918945312,788.937744140625
31,793.7728881835938,787.3259887695312,785.3113403320312,783.2966918945312
32,797.3992919921875,789.7435913085938,789.3406372070312,785.3113403320312
33,794.1758422851562,792.1611938476562,785.7142944335938,779.2673950195312
34,792.1611938476562,790.952392578125,786.5201416015625,775.2380981445312
35,798.6080322265625,792.5640869140625,788.937744140625,788.1318969726562
36,796.1904907226562,792.967041015625,788.937744140625,792.1611938476562
37,790.952392578125,787.7289428710938,790.5494384765625,782.4908447265625
38,792.967041015625,783.2966918945312,788.937744140625,783.6996459960938
39,791.7582397460938,788.1318969726562,783.2966918945312,782.893798828125
40,794.981689453125,790.5494384765625,777.2527465820312,781.2820434570312
41,806.2637329101562,786.5201416015625,784.908447265625,798.6080322265625
42,810.6959838867188,790.1465454101562,794.1758422851562,807.87548828125
43,806.2637329101562,796.1904907226562,793.3699340820312,797.3992919921875
44,803.8461303710938,794.5787353515625,791.7582397460938,796.996337890625
45,807.87548828125,791.3552856445312,793.3699340820312,801.8314819335938
46,812.7106323242188,794.981689453125,796.1904907226562,802.6373901367188
47,813.113525390625,796.5933837890625,794.1758422851562,804.6520385742188
48,809.89013671875,792.967041015625,793.7728881835938,798.6080322265625
49,809.4871826171875,791.3552856445312,799.010986328125,799.4139404296875
50,804.2490844726562,792.1611938476562,792.1611938476562,798.2051391601562
51,805.054931640625,793.7728881835938,784.908447265625,792.967041015625
52,812.3076782226562,793.7728881835938,790.952392578125,798.6080322265625
53,807.4725341796875,792.5640869140625,793.7728881835938,794.981689453125
54,800.6226806640625,786.923095703125,794.981689453125,783.6996459960938
55,799.8168334960938,782.893798828125,794.1758422851562,785.3113403320312
56,800.6226806640625,789.3406372070312,793.3699340820312,790.952392578125
57,794.981689453125,793.3699340820312,792.1611938476562,785.7142944335938
58,791.3552856445312,790.952392578125,789.7435913085938,778.05859375
59,797.8021850585938,786.923095703125,792.1611938476562,781.2820434570312
60,793.3699340820312,784.908447265625,791.7582397460938,778.4615478515625
61,785.7142944335938,792.1611938476562,788.1318969726562,773.2234497070312
62,790.1465454101562,798.6080322265625,791.3552856445312,782.893798828125
63,791.3552856445312,798.6080322265625,793.3699340820312,791.7582397460938
64,788.5347900390625,792.5640869140625,790.1465454101562,790.952392578125
65,790.5494384765625,788.937744140625,788.1318969726562,787.3259887695312
66,787.7289428710938,792.5640869140625,786.923095703125,784.5054931640625
67,785.7142944335938,794.5787353515625,782.893798828125,788.1318969726562
68,789.7435913085938,796.5933837890625,789.3406372070312,794.5787353515625
69,788.5347900390625,799.8168334960938,796.5933837890625,793.7728881835938
70,792.5640869140625,800.2197875976562,797.3992919921875,793.7728881835938
71,804.2490844726562,797.8021850585938,797.8021850585938,794.5787353515625
72,807.069580078125,792.5640869140625,800.6226806640625,797.3992919921875
73,801.8314819335938,798.2051391601562,803.040283203125,805.4578857421875
74,796.1904907226562,801.8314819335938,797.8021850585938,803.8461303710938
75,794.5787353515625,794.981689453125,792.967041015625,799.4139404296875
76,794.1758422851562,793.3699340820312,794.1758422851562,797.3992919921875
77,795.3846435546875,794.981689453125,792.1611938476562,788.937744140625
78,791.7582397460938,788.5347900390625,790.5494384765625,786.5201416015625
79,790.952392578125,790.5494384765625,789.7435913085938,796.5933837890625
80,794.981689453125,794.1758422851562,789.3406372070312,794.1758422851562
81,794.5787353515625,794.5787353515625,792.5640869140625,784.5054931640625
82,801.025634765625,794.5787353515625,790.952392578125,792.967041015625
83,799.8168334960938,793.7728881835938,796.5933837890625,796.1904907226562
84,790.1465454101562,800.2197875976562,800.2197875976562,784.908447265625
85,785.3113403320312,794.1758422851562,792.1611938476562,786.5201416015625
86,780.4761962890625,786.5201416015625,788.937744140625,789.3406372070312
87,784.1025390625,788.937744140625,792.967041015625,789.3406372070312
88,792.1611938476562,794.5787353515625,796.5933837890625,787.7289428710938
89,795.7875366210938,798.6080322265625,800.2197875976562,786.5201416015625
90,790.5494384765625,794.5787353515625,794.981689453125,794.1758422851562
91,788.937744140625,793.7728881835938,790.5494384765625,798.6080322265625
92,792.5640869140625,794.1758422851562,800.2197875976562,793.3699340820312
93,797.3992919921875,794.981689453125,802.2344360351562,797.3992919921875
94,797.8021850585938,793.3699340820312,801.4285888671875,801.025634765625
95,789.3406372070312,788.937744140625,800.6226806640625,795.3846435546875
96,792.1611938476562,796.5933837890625,797.8021850585938,786.1171875
97,796.1904907226562,801.4285888671875,794.1758422851562,780.4761962890625
98,792.967041015625,788.1318969726562,786.1171875,788.937744140625
99,791.3552856445312,782.893798828125,782.087890625,788.5347900390625
100,797.8021850585938,786.5201416015625,788.937744140625,788.5347900390625
101,804.2490844726562,785.3113403320312,797.8021850585938,794.5787353515625
102,806.2637329101562,791.3552856445312,794.5787353515625,801.025634765625
103,806.6666870117188,791.3552856445312,784.1025390625,803.4432373046875
104,799.4139404296875,786.1171875,783.6996459960938,790.952392578125
105,793.7728881835938,788.937744140625,787.7289428710938,791.7582397460938
106,787.3259887695312,793.7728881835938,789.7435913085938,797.3992919921875
107,785.3113403320312,795.7875366210938,792.967041015625,793.3699340820312
108,785.3113403320312,791.3552856445312,788.1318969726562,788.937744140625
109,788.1318969726562,792.1611938476562,787.7289428710938,793.3699340820312
110,788.937744140625,788.937744140625,788.937744140625,795.3846435546875
111,788.937744140625,781.6849975585938,787.3259887695312,799.8168334960938
112,794.1758422851562,783.2966918945312,790.952392578125,801.025634765625
113,797.8021850585938,790.5494384765625,788.5347900390625,800.6226806640625
114,800.6226806640625,794.5787353515625,788.5347900390625,804.2490844726562
115,795.7875366210938,798.2051391601562,792.1611938476562,791.7582397460938
116,784.908447265625,792.5640869140625,788.5347900390625,783.6996459960938
117,786.5201416015625,789.7435913085938,789.7435913085938,790.952392578125
118,798.2051391601562,794.981689453125,794.981689453125,798.2051391601562
119,799.010986328125,794.5787353515625,792.1611938476562,792.1611938476562
120,795.7875366210938,790.952392578125,789.3406372070312,789.3406372070312
121,801.025634765625,789.3406372070312,787.7289428710938,789.7435913085938
122,799.8168334960938,787.7289428710938,793.3699340820312,790.5494384765625
123,796.5933837890625,784.908447265625,795.3846435546875,794.5787353515625
124,799.010986328125,791.7582397460938,789.7435913085938,791.3552856445312
125,799.4139404296875,793.7728881835938,794.1758422851562,796.1904907226562
126,798.2051391601562,791.3552856445312,797.8021850585938,797.3992919921875
127,794.1758422851562,797.3992919921875,795.3846435546875,787.3259887695312
128,800.2197875976562,795.7875366210938,793.3699340820312,789.3406372070312
129,801.4285888671875,790.1465454101562,794.5787353515625,791.3552856445312
130,792.967041015625,797.3992919921875,795.3846435546875,786.923095703125
131,790.5494384765625,799.4139404296875,794.981689453125,788.1318969726562
132,792.5640869140625,794.981689453125,796.996337890625,790.952392578125
133,799.4139404296875,788.5347900390625,795.3846435546875,792.967041015625
134,803.4432373046875,780.0732421875,789.3406372070312,793.7728881835938
135,798.6080322265625,783.2966918945312,788.937744140625,784.5054931640625
136,795.7875366210938,790.952392578125,792.1611938476562,783.6996459960938
137,792.967041015625,798.6080322265625,793.7728881835938,783.6996459960938
138,789.3406372070312,799.010986328125,798.2051391601562,784.1025390625
139,788.937744140625,785.3113403320312,797.8021850585938,792.1611938476562
140,788.937744140625,784.1025390625,793.7728881835938,793.7728881835938
141,790.952392578125,792.1611938476562,793.7728881835938,794.5787353515625
142,791.7582397460938,795.3846435546875,793.7728881835938,790.952392578125
143,794.981689453125,795.3846435546875,793.3699340820312,784.908447265625
144,799.010986328125,794.5787353515625,788.5347900390625,792.967041015625
145,792.967041015625,790.952392578125,789.3406372070312,799.010986328125
146,784.1025390625,790.5494384765625,795.7875366210938,791.7582397460938
147,785.7142944335938,796.5933837890625,794.5787353515625,793.3699340820312
148,793.7728881835938,794.981689453125,799.4139404296875,804.2490844726562
149,790.952392578125,790.1465454101562,795.7875366210938,802.2344360351562
150,790.952392578125,784.908447265625,796.5933837890625,791.3552856445312
151,790.5494384765625,786.1171875,804.2490844726562,788.1318969726562
152,787.3259887695312,791.3552856445312,802.6373901367188,791.7582397460938
153,792.967041015625,788.5347900390625,797.8021850585938,792.1611938476562
154,793.3699340820312,789.7435913085938,794.981689453125,784.908447265625
155,792.5640869140625,791.7582397460938,794.5787353515625,786.1171875
156,788.937744140625,792.5640869140625,792.967041015625,790.952392578125
157,785.7142944335938,798.2051391601562,793.7728881835938,790.952392578125
158,788.937744140625,800.2197875976562,791.7582397460938,791.7582397460938
159,790.5494384765625,796.5933837890625,788.5347900390625,786.923095703125
160,791.3552856445312,791.7582397460938,785.7142944335938,782.893798828125
161,791.7582397460938,790.5494384765625,785.7142944335938,781.2820434570312
162,784.908447265625,790.5494384765625,789.3406372070312,776.0439453125
163,787.7289428710938,794.5787353515625,786.1171875,783.2966918945312
164,797.3992919921875,792.967041015625,787.3259887695312,792.5640869140625
165,799.8168334960938,790.1465454101562,796.1904907226562,790.1465454101562
166,796.996337890625,799.010986328125,794.5787353515625,792.967041015625
167,794.1758422851562,793.3699340820312,792.967041015625,792.1611938476562
168,789.3406372070312,782.087890625,791.7582397460938,792.5640869140625
169,783.2966918945312,794.5787353515625,792.5640869140625,795.7875366210938
170,782.893798828125,793.7728881835938,793.7728881835938,794.5787353515625
171,784.1025390625,789.3406372070312,792.5640869140625,797.8021850585938
172,785.7142944335938,791.3552856445312,791.3552856445312,796.5933837890625
173,784.1025390625,787.3259887695312,785.7142944335938,787.7289428710938
174,785.3113403320312,789.7435913085938,786.1171875,780.4761962890625
175,789.3406372070312,787.7289428710938,787.7289428710938,780.879150390625
176,787.3259887695312,782.4908447265625,788.937744140625,784.1025390625
177,796.1904907226562,784.5054931640625,795.7875366210938,787.3259887695312
178,802.2344360351562,784.908447265625,794.981689453125,789.3406372070312
179,793.3699340820312,786.5201416015625,790.1465454101562,784.5054931640625
180,792.1611938476562,786.923095703125,788.937744140625,781.6849975585938
181,790.952392578125,781.2820434570312,792.1611938476562,787.3259887695312
182,785.7142944335938,778.05859375,790.952392578125,790.5494384765625
183,786.923095703125,782.087890625,792.5640869140625,789.3406372070312
184,791.7582397460938,782.893798828125,793.7728881835938,786.923095703125
185,799.4139404296875,786.923095703125,791.3552856445312,788.1318969726562
186,797.8021850585938,789.3406372070312,789.7435913085938,791.3552856445312
187,796.996337890625,784.1025390625,791.7582397460938,799.010986328125
188,795.7875366210938,791.7582397460938,787.7289428710938,795.3846435546875
189,791.3552856445312,794.1758422851562,780.879150390625,789.7435913085938
190,794.5787353515625,789.3406372070312,790.952392578125,794.5787353515625
191,794.981689453125,795.3846435546875,797.8021850585938,800.2197875976562
192,794.5787353515625,798.2051391601562,798.6080322265625,798.6080322265625
193,794.981689453125,793.7728881835938,800.2197875976562,799.4139404296875
194,790.952392578125,787.7289428710938,795.7875366210938,799.4139404296875
195,791.3552856445312,787.7289428710938,790.1465454101562,792.1611938476562
196,796.5933837890625,791.7582397460938,786.923095703125,792.967041015625
197,802.2344360351562,788.5347900390625,792.967041015625,794.1758422851562
198,797.8021850585938,786.1171875,795.7875366210938,793.3699340820312
199,786.923095703125,791.7582397460938,791.7582397460938,785.3113403320312
200,783.6996459960938,798.6080322265625,795.7875366210938,777.6557006835938
201,785.7142944335938,797.3992919921875,796.996337890625,784.5054931640625
202,787.3259887695312,791.7582397460938,792.5640869140625,786.923095703125
203,780.4761962890625,790.5494384765625,786.923095703125,785.7142944335938
204,780.879150390625,784.5054931640625,786.5201416015625,783.2966918945312
205,792.5640869140625,782.893798828125,793.7728881835938,783.2966918945312
206,793.7728881835938,791.3552856445312,801.025634765625,789.7435913085938
207,793.3699340820312,795.7875366210938,797.8021850585938,789.3406372070312
208,792.5640869140625,797.3992919921875,796.1904907226562,783.6996459960938
209,791.3552856445312,793.7728881835938,800.2197875976562,785.7142944335938
210,792.1611938476562,787.3259887695312,794.1758422851562,793.3699340820312
211,787.7289428710938,792.5640869140625,791.7582397460938,791.3552856445312
212,784.908447265625,798.6080322265625,796.996337890625,783.6996459960938
213,786.1171875,797.3992919921875,796.1904907226562,790.952392578125
214,792.1611938476562,789.7435913085938,792.1611938476562,799.8168334960938
215,793.3699340820312,786.923095703125,794.5787353515625,796.996337890625
216,787.3259887695312,789.7435913085938,792.1611938476562,789.3406372070312
217,785.7142944335938,789.3406372070312,786.923095703125,789.7435913085938
218,785.7142944335938,786.923095703125,784.1025390625,794.5787353515625
219,784.5054931640625,788.5347900390625,782.893798828125,793.7728881835938
220,788.5347900390625,792.1611938476562,787.3259887695312,792.967041015625
221,799.010986328125,794.5787353515625,790.1465454101562,804.6520385742188
222,800.6226806640625,793.7728881835938,796.1904907226562,807.4725341796875
223,796.5933837890625,790.5494384765625,797.3992919921875,798.2051391601562
224,799.8168334960938,790.952392578125,798.6080322265625,802.6373901367188
225,803.040283203125,790.952392578125,804.2490844726562,810.6959838867188
226,803.4432373046875,786.923095703125,799.010986328125,804.6520385742188
227,805.8607788085938,794.5787353515625,793.7728881835938,788.937744140625
228,808.6813354492188,794.981689453125,795.3846435546875,780.879150390625
229,811.5018310546875,787.7289428710938,794.5787353515625,787.3259887695312
230,817.94873046875,788.937744140625,794.981689453125,801.025634765625
231,821.1721801757812,791.3552856445312,798.2051391601562,805.054931640625
232,803.040283203125,796.1904907226562,791.7582397460938,797.8021850585938
233,790.1465454101562,798.6080322265625,790.952392578125,797.3992919921875
234,786.5201416015625,802.6373901367188,797.8021850585938,795.7875366210938
235,784.1025390625,795.7875366210938,799.010986328125,791.7582397460938
236,800.6226806640625,790.1465454101562,795.7875366210938,794.5787353515625
237,802.6373901367188,796.1904907226562,790.1465454101562,793.3699340820312
238,793.7728881835938,796.1904907226562,792.1611938476562,788.937744140625
239,800.6226806640625,794.5787353515625,792.1611938476562,789.3406372070312
240,808.2783813476562,788.937744140625,793.7728881835938,799.4139404296875
241,802.2344360351562,786.1171875,792.1611938476562,801.025634765625
242,797.8021850585938,787.7289428710938,782.4908447265625,799.8168334960938
243,799.010986328125,782.4908447265625,783.2966918945312,796.5933837890625
244,793.3699340820312,774.8351440429688,781.2820434570312,792.967041015625
245,789.3406372070312,776.8497924804688,780.0732421875,789.7435913085938
246,791.7582397460938,785.7142944335938,787.7289428710938,786.1171875
247,797.8021850585938,794.5787353515625,791.3552856445312,793.7728881835938
248,799.010986328125,797.8021850585938,791.7582397460938,794.981689453125
249,799.8168334960938,793.3699340820312,792.1611938476562,793.3699340820312
250,801.8314819335938,792.1611938476562,785.3113403320312,792.5640869140625
251,807.4725341796875,792.5640869140625,784.5054931640625,795.3846435546875
252,812.3076782226562,790.952392578125,790.1465454101562,800.2197875976562
253,805.4578857421875,788.937744140625,788.1318969726562,802.6373901367188
254,797.3992919921875,782.4908447265625,785.7142944335938,800.6226806640625
255,796.5933837890625,779.6703491210938,784.908447265625,802.6373901367188
256,795.7875366210938,786.5201416015625,787.3259887695312,811.90478515625
257,791.3552856445312,797.8021850585938,796.996337890625,803.8461303710938
258,792.1611938476562,799.8168334960938,794.5787353515625,791.7582397460938
259,793.7728881835938,793.7728881835938,788.1318969726562,794.5787353515625
260,790.5494384765625,790.5494384765625,788.1318969726562,796.1904907226562
261,796.5933837890625,790.5494384765625,788.5347900390625,794.1758422851562
262,804.6520385742188,791.7582397460938,788.5347900390625,801.4285888671875
263,799.8168334960938,794.5787353515625,789.7435913085938,799.8168334960938
264,795.7875366210938,792.967041015625,794.5787353515625,795.3846435546875
265,801.025634765625,794.981689453125,796.5933837890625,801.025634765625
266,803.4432373046875,792.967041015625,794.1758422851562,799.8168334960938
267,801.8314819335938,783.6996459960938,788.937744140625,791.3552856445312
268,797.8021850585938,789.7435913085938,789.3406372070312,788.937744140625
269,794.1758422851562,794.5787353515625,788.937744140625,787.3259887695312
270,800.2197875976562,794.981689453125,786.923095703125,794.1758422851562
271,803.8461303710938,794.1758422851562,792.967041015625,803.040283203125
272,801.025634765625,791.3552856445312,795.3846435546875,797.8021850585938
273,799.4139404296875,794.5787353515625,794.1758422851562,794.981689453125
274,794.981689453125,792.1611938476562,792.1611938476562,799.8168334960938
275,797.8021850585938,789.7435913085938,791.7582397460938,799.010986328125
276,799.010986328125,786.5201416015625,792.5640869140625,798.2051391601562
277,790.5494384765625,784.5054931640625,789.7435913085938,790.952392578125
278,790.952392578125,784.1025390625,791.7582397460938,787.7289428710938
279,789.3406372070312,790.5494384765625,792.967041015625,792.5640869140625
280,785.7142944335938,795.7875366210938,792.1611938476562,782.893798828125
281,784.908447265625,790.1465454101562,791.3552856445312,784.5054931640625
282,784.5054931640625,790.1465454101562,786.1171875,786.5201416015625
283,785.7142944335938,795.3846435546875,784.1025390625,782.087890625
284,787.7289428710938,799.4139404296875,791.7582397460938,780.0732421875
285,787.3259887695312,795.3846435546875,795.7875366210938,777.6557006835938
286,786.5201416015625,790.1465454101562,794.5787353515625,781.6849975585938
287,784.1025390625,791.7582397460938,789.7435913085938,782.087890625
288,780.879150390625,785.7142944335938,788.937744140625,778.05859375
289,784.1025390625,786.923095703125,792.967041015625,776.8497924804688
290,783.6996459960938,796.5933837890625,792.5640869140625,781.6849975585938
291,781.6849975585938,798.2051391601562,794.5787353515625,787.3259887695312
292,780.879150390625,794.1758422851562,788.5347900390625,786.1171875
293,781.6849975585938,794.1758422851562,788.937744140625,783.2966918945312
294,787.3259887695312,792.1611938476562,793.7728881835938,789.7435913085938
295,789.3406372070312,792.5640869140625,792.5640869140625,791.7582397460938
296,787.3259887695312,788.937744140625,786.5201416015625,783.6996459960938
297,796.1904907226562,787.3259887695312,786.5201416015625,788.1318969726562
298,803.4432373046875,791.3552856445312,790.5494384765625,790.952392578125
299,798.2051391601562,788.5347900390625,785.3113403320312,786.1171875
300,800.2197875976562,786.5201416015625,789.3406372070312,788.5347900390625
301,805.054931640625,786.923095703125,793.3699340820312,790.1465454101562
302,803.040283203125,794.981689453125,790.1465454101562,793.3699340820312
303,802.2344360351562,796.5933837890625,792.5640869140625,796.1904907226562
304,801.8314819335938,790.952392578125,790.952392578125,786.923095703125
305,802.6373901367188,795.7875366210938,792.967041015625,790.1465454101562
306,803.4432373046875,792.5640869140625,800.6226806640625,806.2637329101562
307,799.4139404296875,790.5494384765625,799.8168334960938,801.8314819335938
308,798.2051391601562,795.7875366210938,794.1758422851562,792.1611938476562
309,794.5787353515625,788.1318969726562,792.967041015625,793.3699340820312
310,792.5640869140625,792.5640869140625,793.7728881835938,800.6226806640625
311,790.5494384765625,796.1904907226562,790.952392578125,803.4432373046875
312,790.952392578125,786.1171875,798.6080322265625,807.87548828125
313,791.3552856445312,787.7289428710938,798.6080322265625,811.5018310546875
314,784.908447265625,795.7875366210938,790.1465454101562,805.4578857421875
315,782.087890625,794.981689453125,799.8168334960938,802.6373901367188
316,787.7289428710938,791.7582397460938,804.6520385742188,795.3846435546875
317,795.3846435546875,794.5787353515625,798.6080322265625,792.1611938476562
318,799.010986328125,799.8168334960938,798.6080322265625,789.3406372070312
319,797.8021850585938,798.2051391601562,796.996337890625,777.2527465820312
320,796.996337890625,793.7728881835938,796.996337890625,778.05859375
321,795.3846435546875,793.3699340820312,797.3992919921875,779.6703491210938
322,794.981689453125,786.923095703125,794.1758422851562,783.6996459960938
323,797.3992919921875,783.2966918945312,791.7582397460938,787.3259887695312
324,794.1758422851562,791.7582397460938,787.7289428710938,787.3259887695312
325,788.5347900390625,791.7582397460938,788.1318969726562,789.7435913085938
326,787.7289428710938,792.967041015625,789.7435913085938,785.7142944335938
327,791.3552856445312,801.8314819335938,797.3992919921875,785.7142944335938
328,799.4139404296875,803.040283203125,794.981689453125,793.3699340820312
329,798.2051391601562,800.6226806640625,791.7582397460938,802.6373901367188
330,787.7289428710938,795.7875366210938,792.5640869140625,790.1465454101562
331,787.7289428710938,788.5347900390625,791.3552856445312,786.923095703125
332,792.5640869140625,792.5640869140625,791.7582397460938,796.5933837890625
333,793.7728881835938,797.3992919921875,796.5933837890625,795.7875366210938
334,799.8168334960938,792.1611938476562,805.8607788085938,802.2344360351562
335,801.4285888671875,784.908447265625,803.4432373046875,807.87548828125
336,796.996337890625,792.967041015625,801.4285888671875,799.4139404296875
337,796.5933837890625,795.3846435546875,801.025634765625,794.5787353515625
338,790.952392578125,787.3259887695312,796.996337890625,794.981689453125
339,792.967041015625,789.3406372070312,800.2197875976562,795.3846435546875
340,796.5933837890625,792.1611938476562,798.6080322265625,797.8021850585938
341,786.5201416015625,787.7289428710938,794.1758422851562,800.6226806640625
342,789.7435913085938,786.1171875,790.952392578125,801.4285888671875
343,803.4432373046875,787.3259887695312,794.1758422851562,795.7875366210938
344,809.084228515625,790.5494384765625,800.2197875976562,788.937744140625
345,807.4725341796875,794.981689453125,794.5787353515625,782.4908447265625
346,805.054931640625,797.3992919921875,787.7289428710938,779.2673950195312
347,807.069580078125,793.7728881835938,790.952392578125,784.1025390625
348,808.6813354492188,784.908447265625,791.3552856445312,794.5787353515625
349,807.4725341796875,787.7289428710938,795.7875366210938,799.010986328125
350,802.2344360351562,792.967041015625,798.6080322265625,791.7582397460938
351,801.025634765625,794.5787353515625,794.5787353515625,790.5494384765625
352,800.6226806640625,796.1904907226562,794.1758422851562,794.5787353515625
353,795.7875366210938,794.1758422851562,797.8021850585938,790.952392578125
354,795.3846435546875,791.7582397460938,800.2197875976562,785.7142944335938
355,797.3992919921875,790.1465454101562,796.1904907226562,787.3259887695312
356,796.5933837890625,792.1611938476562,792.967041015625,793.3699340820312
357,793.3699340820312,796.1904907226562,792.967041015625,784.1025390625
358,797.8021850585938,791.3552856445312,796.5933837890625,785.3113403320312
359,801.025634765625,784.908447265625,792.967041015625,786.5201416015625
360,793.3699340820312,787.7289428710938,785.3113403320312,777.6557006835938
361,792.1611938476562,794.1758422851562,786.923095703125,783.6996459960938
362,794.981689453125,797.8021850585938,790.952392578125,786.5201416015625
363,793.3699340820312,795.7875366210938,794.1758422851562,783.6996459960938
364,797.3992919921875,793.7728881835938,796.5933837890625,791.7582397460938
365,795.3846435546875,797.8021850585938,792.5640869140625,794.5787353515625
366,798.6080322265625,795.7875366210938,790.1465454101562,788.5347900390625
367,804.6520385742188,784.1025390625,790.1465454101562,800.2197875976562
368,804.2490844726562,788.1318969726562,795.7875366210938,806.6666870117188
369,802.2344360351562,805.054931640625,799.8168334960938,805.054931640625
370,805.4578857421875,799.010986328125,797.8021850585938,810.2930297851562
371,805.054931640625,792.1611938476562,794.5787353515625,806.2637329101562
372,800.2197875976562,801.4285888671875,796.1904907226562,802.2344360351562
373,801.8314819335938,804.2490844726562,801.025634765625,802.2344360351562
374,810.6959838867188,803.040283203125,795.7875366210938,796.996337890625
375,818.3516235351562,800.2197875976562,795.3846435546875,789.7435913085938
376,813.5164794921875,796.1904907226562,797.8021850585938,787.3259887695312
377,810.2930297851562,794.981689453125,798.6080322265625,786.5201416015625
378,811.90478515625,790.952392578125,796.996337890625,788.937744140625
379,815.1282348632812,794.981689453125,797.8021850585938,796.996337890625
380,810.6959838867188,805.054931640625,798.6080322265625,797.8021850585938
381,797.8021850585938,802.2344360351562,798.2051391601562,791.3552856445312
382,793.3699340820312,791.7582397460938,798.2051391601562,790.5494384765625
383,790.952392578125,792.967041015625,796.1904907226562,788.1318969726562
384,791.3552856445312,800.2197875976562,798.2051391601562,785.3113403320312
385,796.5933837890625,805.054931640625,798.6080322265625,787.3259887695312
386,799.4139404296875,803.8461303710938,799.8168334960938,791.7582397460938
387,799.010986328125,798.2051391601562,799.010986328125,798.6080322265625
388,799.8168334960938,795.3846435546875,795.7875366210938,802.2344360351562
389,799.4139404296875,802.6373901367188,792.5640869140625,800.2197875976562
390,793.7728881835938,797.8021850585938,783.2966918945312,803.4432373046875
391,790.5494384765625,794.5787353515625,784.1025390625,803.8461303710938
392,792.967041015625,791.7582397460938,787.3259887695312,798.6080322265625
393,792.967041015625,784.908447265625,787.3259887695312,802.2344360351562
394,790.1465454101562,788.937744140625,788.937744140625,799.4139404296875
395,786.923095703125,786.5201416015625,786.1171875,791.3552856445312
396,788.5347900390625,786.5201416015625,789.7435913085938,792.5640869140625
397,794.5787353515625,790.1465454101562,796.5933837890625,796.1904907226562
398,799.8168334960938,794.1758422851562,796.996337890625,800.6226806640625
399,799.4139404296875,790.952392578125,799.4139404296875,802.2344360351562
400,792.967041015625,784.5054931640625,798.6080322265625,797.8021850585938
401,792.1611938476562,790.5494384765625,795.3846435546875,800.2197875976562
402,794.5787353515625,791.3552856445312,796.1904907226562,804.6520385742188
403,796.1904907226562,790.952392578125,795.7875366210938,788.5347900390625
404,801.025634765625,794.5787353515625,796.5933837890625,776.0439453125
405,799.010986328125,789.7435913085938,796.5933837890625,780.0732421875
406,798.2051391601562,782.4908447265625,791.7582397460938,781.6849975585938
407,805.054931640625,794.1758422851562,793.7728881835938,786.5201416015625
408,802.2344360351562,803.8461303710938,789.3406372070312,790.5494384765625
409,799.010986328125,795.7875366210938,780.879150390625,789.7435913085938
410,804.6520385742188,800.2197875976562,790.5494384765625,792.967041015625
411,806.2637329101562,803.4432373046875,797.3992919921875,798.2051391601562
412,803.040283203125,794.5787353515625,795.7875366210938,796.5933837890625
413,802.6373901367188,795.7875366210938,791.3552856445312,802.6373901367188
414,804.6520385742188,794.981689453125,793.3699340820312,807.4725341796875
415,809.4871826171875,796.996337890625,803.8461303710938,807.87548828125
416,808.2783813476562,793.3699340820312,803.4432373046875,812.3076782226562
417,805.4578857421875,784.5054931640625,801.4285888671875,809.89013671875
418,801.025634765625,790.5494384765625,802.2344360351562,806.6666870117188
419,792.1611938476562,794.5787353515625,796.1904907226562,803.040283203125
420,790.1465454101562,785.3113403320312,794.1758422851562,798.2051391601562
421,792.1611938476562,786.923095703125,792.967041015625,790.952392578125
422,790.5494384765625,797.8021850585938,790.5494384765625,785.7142944335938
423,793.3699340820312,794.5787353515625,794.1758422851562,788.937744140625
424,797.3992919921875,788.5347900390625,792.967041015625,792.5640869140625
425,800.6226806640625,784.1025390625,792.5640869140625,796.1904907226562
426,802.6373901367188,791.3552856445312,796.1904907226562,790.952392578125
427,792.967041015625,794.1758422851562,790.952392578125,780.879150390625
428,786.923095703125,789.7435913085938,790.5494384765625,788.1318969726562
429,794.981689453125,788.1318969726562,796.5933837890625,793.3699340820312
430,794.1758422851562,788.1318969726562,795.3846435546875,782.4908447265625
431,787.7289428710938,781.6849975585938,788.1318969726562,778.8644409179688
432,788.937744140625,783.2966918945312,786.923095703125,786.923095703125
433,794.5787353515625,796.996337890625,793.3699340820312,790.5494384765625
434,798.2051391601562,800.6226806640625,791.7582397460938,786.1171875
435,802.2344360351562,792.967041015625,787.3259887695312,781.2820434570312
436,808.2783813476562,790.1465454101562,787.3259887695312,792.5640869140625
437,805.8607788085938,792.5640869140625,797.3992919921875,801.4285888671875
438,798.2051391601562,793.7728881835938,800.2197875976562,794.5787353515625
439,791.3552856445312,796.5933837890625,798.6080322265625,792.5640869140625
440,792.967041015625,796.5933837890625,802.6373901367188,797.3992919921875
441,795.3846435546875,795.7875366210938,806.2637329101562,801.8314819335938
442,796.5933837890625,792.5640869140625,805.054931640625,799.010986328125
443,795.3846435546875,789.3406372070312,799.8168334960938,792.1611938476562
444,792.967041015625,789.3406372070312,796.996337890625,794.5787353515625
445,797.3992919921875,783.6996459960938,794.5787353515625,801.8314819335938
446,801.025634765625,789.3406372070312,792.1611938476562,799.010986328125
447,802.2344360351562,792.967041015625,790.1465454101562,797.8021850585938
448,799.8168334960938,789.7435913085938,788.1318969726562,800.6226806640625
449,786.923095703125,790.1465454101562,790.1465454101562,794.1758422851562
450,789.3406372070312,788.937744140625,796.1904907226562,793.7728881835938
451,794.1758422851562,788.937744140625,794.1758422851562,795.7875366210938
452,789.7435913085938,791.3552856445312,790.5494384765625,790.1465454101562
453,790.1465454101562,791.3552856445312,788.1318969726562,789.3406372070312
454,790.1465454101562,785.7142944335938,786.923095703125,796.1904907226562
455,797.3992919921875,789.3406372070312,792.967041015625,804.2490844726562
456,801.4285888671875,790.1465454101562,792.1611938476562,800.2197875976562
457,802.6373901367188,788.937744140625,789.3406372070312,799.4139404296875
458,807.87548828125,795.7875366210938,791.3552856445312,801.4285888671875
459,809.89013671875,793.7728881835938,792.1611938476562,797.8021850585938
460,810.2930297851562,791.3552856445312,794.981689453125,799.4139404296875
461,809.4871826171875,794.981689453125,797.8021850585938,800.6226806640625
462,808.6813354492188,794.981689453125,790.1465454101562,801.025634765625
463,806.6666870117188,792.967041015625,793.3699340820312,804.6520385742188
464,799.8168334960938,791.7582397460938,797.3992919921875,800.6226806640625
465,801.025634765625,790.5494384765625,795.3846435546875,799.4139404296875
466,804.2490844726562,788.937744140625,797.8021850585938,796.1904907226562
467,799.8168334960938,787.3259887695312,799.4139404296875,793.3699340820312
468,797.8021850585938,782.087890625,802.2344360351562,794.981689453125
469,794.981689453125,783.6996459960938,801.025634765625,793.3699340820312
470,791.3552856445312,794.1758422851562,802.6373901367188,799.8168334960938
471,791.3552856445312,788.5347900390625,801.4285888671875,801.4285888671875
472,788.1318969726562,781.6849975585938,799.8168334960938,794.5787353515625
473,784.908447265625,782.087890625,799.8168334960938,789.7435913085938
474,788.5347900390625,783.6996459960938,795.3846435546875,790.1465454101562
475,793.7728881835938,786.923095703125,794.5787353515625,794.5787353515625
476,793.3699340820312,784.5054931640625,796.1904907226562,792.967041015625
477,801.4285888671875,786.5201416015625,791.3552856445312,795.3846435546875
478,800.2197875976562,784.1025390625,796.1904907226562,802.2344360351562
479,796.5933837890625,775.2380981445312,797.8021850585938,806.6666870117188
480,803.4432373046875,787.7289428710938,796.1904907226562,806.6666870117188
481,803.8461303710938,794.981689453125,797.3992919921875,804.2490844726562
482,805.054931640625,789.3406372070312,791.3552856445312,800.6226806640625
483,799.4139404296875,796.996337890625,791.7582397460938,788.1318969726562
484,795.3846435546875,799.8168334960938,790.952392578125,781.6849975585938
485,797.3992919921875,801.8314819335938,792.967041015625,785.7142944335938
486,797.8021850585938,798.6080322265625,792.1611938476562,791.7582397460938
487,798.6080322265625,794.5787353515625,791.7582397460938,787.7289428710938
488,810.2930297851562,795.7875366210938,797.3992919921875,789.7435913085938
489,822.3809814453125,790.1465454101562,796.1904907226562,809.084228515625
490,811.5018310546875,790.5494384765625,793.3699340820312,804.2490844726562
491,794.981689453125,801.8314819335938,790.952392578125,787.7289428710938
492,791.7582397460938,804.2490844726562,792.5640869140625,787.7289428710938
493,790.952392578125,798.6080322265625,792.5640869140625,796.5933837890625
494,787.7289428710938,795.7875366210938,793.7728881835938,797.3992919921875
495,791.7582397460938,797.3992919921875,794.1758422851562,793.7728881835938
496,791.7582397460938,801.8314819335938,795.3846435546875,791.7582397460938
497,785.3113403320312,798.6080322265625,794.981689453125,796.5933837890625
498,782.893798828125,792.967041015625,795.3846435546875,802.6373901367188
499,786.1171875,796.1904907226562,799.8168334960938,800.6226806640625
500,787.7289428710938,794.5787353515625,796.5933837890625,799.010986328125
501,789.3406372070312,784.908447265625,799.8168334960938,796.5933837890625
502,793.7728881835938,780.0732421875,795.3846435546875,789.3406372070312
503,788.937744140625,788.937744140625,789.3406372070312,778.4615478515625
504,789.3406372070312,793.3699340820312,794.981689453125,772.4176025390625
505,796.1904907226562,795.3846435546875,794.5787353515625,779.6703491210938
506,799.4139404296875,796.1904907226562,790.952392578125,787.7289428710938
507,801.025634765625,789.3406372070312,785.7142944335938,788.5347900390625
508,798.6080322265625,791.3552856445312,786.1171875,783.6996459960938
509,795.3846435546875,796.996337890625,783.2966918945312,782.4908447265625
510,794.981689453125,796.1904907226562,775.2380981445312,785.3113403320312
511,793.7728881835938,793.3699340820312,780.879150390625,779.6703491210938
512,794.981689453125,789.7435913085938,783.2966918945312,782.4908447265625
513,791.7582397460938,789.3406372070312,779.2673950195312,786.1171875
514,786.923095703125,789.3406372070312,784.5054931640625,784.908447265625
515,790.5494384765625,785.7142944335938,786.923095703125,780.0732421875
516,801.4285888671875,791.7582397460938,790.952392578125,779.6703491210938
517,802.2344360351562,794.981689453125,788.937744140625,780.0732421875
518,795.7875366210938,791.3552856445312,784.1025390625,782.087890625
519,794.1758422851562,780.879150390625,784.5054931640625,791.7582397460938
520,794.1758422851562,775.2380981445312,786.923095703125,794.981689453125
521,795.7875366210938,788.5347900390625,788.937744140625,805.8607788085938
522,789.3406372070312,793.3699340820312,793.3699340820312,805.8607788085938
523,785.7142944335938,790.5494384765625,793.3699340820312,798.2051391601562
524,790.952392578125,792.1611938476562,788.1318969726562,800.2197875976562
525,790.1465454101562,793.7728881835938,786.923095703125,785.7142944335938
526,792.1611938476562,794.1758422851562,789.7435913085938,780.0732421875
527,785.3113403320312,792.1611938476562,795.3846435546875,793.7728881835938
528,788.1318969726562,791.3552856445312,793.3699340820312,804.6520385742188
529,790.1465454101562,789.3406372070312,793.7728881835938,807.87548828125
530,786.1171875,789.3406372070312,794.1758422851562,794.981689453125
531,784.908447265625,795.7875366210938,792.1611938476562,790.5494384765625
532,790.952392578125,799.8168334960938,790.1465454101562,790.1465454101562
533,796.5933837890625,796.5933837890625,790.5494384765625,793.3699340820312
534,795.3846435546875,791.3552856445312,792.1611938476562,788.937744140625
535,791.7582397460938,794.5787353515625,788.1318969726562,781.6849975585938
536,792.967041015625,794.1758422851562,782.893798828125,786.5201416015625
537,797.8021850585938,790.5494384765625,784.1025390625,786.5201416015625
538,798.2051391601562,794.1758422851562,792.1611938476562,784.1025390625
539,798.6080322265625,797.3992919921875,791.3552856445312,783.2966918945312
540,795.3846435546875,794.981689453125,788.937744140625,780.0732421875
541,794.981689453125,797.8021850585938,795.7875366210938,779.6703491210938
542,797.3992919921875,796.996337890625,793.3699340820312,777.2527465820312
543,797.8021850585938,794.5787353515625,788.937744140625,781.2820434570312
544,796.996337890625,794.1758422851562,792.967041015625,792.5640869140625
545,792.1611938476562,787.3259887695312,790.952392578125,789.7435913085938
546,785.7142944335938,783.6996459960938,791.7582397460938,784.1025390625
547,788.1318969726562,789.3406372070312,792.5640869140625,789.3406372070312
548,793.7728881835938,789.3406372070312,783.6996459960938,791.7582397460938
549,791.3552856445312,786.1171875,786.923095703125,782.4908447265625
550,792.5640869140625,789.3406372070312,791.3552856445312,781.2820434570312
551,798.6080322265625,795.7875366210938,792.5640869140625,788.1318969726562
552,802.2344360351562,793.7728881835938,796.1904907226562,782.4908447265625
553,803.8461303710938,794.1758422851562,795.3846435546875,783.6996459960938
554,803.8461303710938,798.2051391601562,793.3699340820312,790.5494384765625
555,797.3992919921875,797.8021850585938,792.967041015625,785.7142944335938
556,795.7875366210938,799.8168334960938,792.5640869140625,785.7142944335938
557,800.6226806640625,787.7289428710938,792.1611938476562,787.3259887695312
558,799.8168334960938,789.7435913085938,792.967041015625,783.6996459960938
559,801.4285888671875,804.2490844726562,790.952392578125,791.7582397460938
560,800.2197875976562,801.025634765625,792.5640869140625,794.1758422851562
561,801.025634765625,800.6226806640625,796.1904907226562,786.5201416015625
562,805.4578857421875,801.4285888671875,798.6080322265625,790.1465454101562
563,803.8461303710938,801.025634765625,800.2197875976562,789.7435913085938
564,797.8021850585938,801.4285888671875,801.8314819335938,785.7142944335938
565,790.1465454101562,796.996337890625,801.025634765625,784.5054931640625
566,786.5201416015625,791.7582397460938,793.3699340820312,786.5201416015625
567,788.1318969726562,788.5347900390625,791.7582397460938,794.5787353515625
568,792.967041015625,786.1171875,793.3699340820312,801.8314819335938
569,794.5787353515625,784.5054931640625,793.3699340820312,798.6080322265625
570,792.967041015625,776.8497924804688,793.3699340820312,793.7728881835938
571,790.5494384765625,777.6557006835938,794.981689453125,801.025634765625
572,788.937744140625,785.7142944335938,794.1758422851562,799.010986328125
573,788.937744140625,785.3113403320312,797.3992919921875,791.3552856445312
574,789.7435913085938,784.908447265625,799.010986328125,794.981689453125
575,787.7289428710938,782.4908447265625,794.981689453125,796.996337890625
576,786.1171875,787.7289428710938,799.8168334960938,792.967041015625
577,789.7435913085938,788.1318969726562,803.040283203125,788.937744140625
578,787.3259887695312,786.5201416015625,797.3992919921875,792.1611938476562
579,782.4908447265625,788.937744140625,797.8021850585938,792.1611938476562
580,786.923095703125,787.3259887695312,791.7582397460938,789.3406372070312
581,797.3992919921875,786.5201416015625,791.3552856445312,792.5640869140625
582,791.3552856445312,786.1171875,794.5787353515625,797.8021850585938
583,787.7289428710938,789.7435913085938,789.7435913085938,805.8607788085938
584,799.010986328125,796.5933837890625,799.010986328125,806.6666870117188
585,803.8461303710938,797.8021850585938,805.4578857421875,801.8314819335938
586,804.6520385742188,795.3846435546875,798.6080322265625,804.6520385742188
587,804.6520385742188,792.1611938476562,794.981689453125,799.4139404296875
588,803.040283203125,790.5494384765625,794.981689453125,791.7582397460938
589,804.2490844726562,796.996337890625,795.3846435546875,793.3699340820312
590,803.8461303710938,801.025634765625,797.3992919921875,787.3259887695312
591,802.2344360351562,793.7728881835938,798.2051391601562,783.2966918945312
592,805.8607788085938,790.5494384765625,796.5933837890625,788.1318969726562
593,801.025634765625,798.2051391601562,795.3846435546875,782.4908447265625
594,801.8314819335938,799.8168334960938,794.1758422851562,787.3259887695312
595,798.2051391601562,794.981689453125,794.1758422851562,796.996337890625
596,793.7728881835938,792.1611938476562,798.2051391601562,797.3992919921875
597,797.8021850585938,788.937744140625,792.1611938476562,795.3846435546875
598,798.6080322265625,783.2966918945312,781.6849975585938,794.1758422851562
599,798.2051391601562,787.7289428710938,786.923095703125,795.7875366210938
600,796.996337890625,795.7875366210938,790.952392578125,789.3406372070312
601,794.5787353515625,793.7728881835938,787.7289428710938,788.1318969726562
602,789.7435913085938,790.5494384765625,788.1318969726562,794.1758422851562
603,792.967041015625,789.7435913085938,792.1611938476562,794.981689453125
604,799.8168334960938,790.952392578125,790.5494384765625,793.7728881835938
605,801.4285888671875,796.996337890625,786.1171875,796.996337890625
606,797.8021850585938,799.010986328125,786.1171875,796.1904907226562
607,790.1465454101562,796.996337890625,788.937744140625,789.7435913085938
608,791.3552856445312,794.1758422851562,789.3406372070312,792.967041015625
609,797.3992919921875,791.7582397460938,785.7142944335938,798.2051391601562
610,793.3699340820312,792.5640869140625,790.952392578125,791.3552856445312
611,788.5347900390625,798.6080322265625,796.996337890625,785.7142944335938
612,794.1758422851562,798.6080322265625,791.7582397460938,789.3406372070312
613,801.025634765625,794.981689453125,792.967041015625,798.6080322265625
614,794.1758422851562,789.3406372070312,797.8021850585938,794.981689453125
615,797.3992919921875,791.3552856445312,793.3699340820312,787.3259887695312
616,803.8461303710938,796.1904907226562,794.981689453125,791.7582397460938
617,798.6080322265625,791.7582397460938,793.7728881835938,794.5787353515625
618,795.7875366210938,792.5640869140625,790.5494384765625,794.981689453125
619,795.3846435546875,795.7875366210938,790.952392578125,795.3846435546875
620,794.981689453125,796.5933837890625,790.952392578125,794.1758422851562
621,791.3552856445312,799.4139404296875,791.7582397460938,793.3699340820312
622,787.7289428710938,799.4139404296875,792.967041015625,796.1904907226562
623,789.3406372070312,796.996337890625,797.3992919921875,796.996337890625
624,792.5640869140625,794.5787353515625,795.3846435546875,800.2197875976562
625,786.5201416015625,792.967041015625,793.7728881835938,796.996337890625
626,784.5054931640625,794.1758422851562,796.996337890625,791.7582397460938
627,790.5494384765625,793.7728881835938,790.1465454101562,786.923095703125
628,789.3406372070312,791.3552856445312,788.937744140625,790.1465454101562
629,794.1758422851562,790.952392578125,789.7435913085938,794.5787353515625
630,803.040283203125,792.1611938476562,787.7289428710938,786.5201416015625
631,802.2344360351562,799.8168334960938,789.7435913085938,784.5054931640625
632,796.996337890625,800.2197875976562,789.7435913085938,790.5494384765625
633,795.7875366210938,796.5933837890625,793.7728881835938,788.5347900390625
634,798.6080322265625,801.8314819335938,788.5347900390625,781.2820434570312
635,797.8021850585938,799.010986328125,782.087890625,780.4761962890625
636,799.8168334960938,793.3699340820312,782.4908447265625,788.1318969726562
637,798.6080322265625,793.7728881835938,784.908447265625,792.1611938476562
638,790.5494384765625,790.1465454101562,786.923095703125,791.3552856445312
639,785.3113403320312,785.3113403320312,786.923095703125,792.5640869140625
640,786.1171875,784.1025390625,786.1171875,797.8021850585938
641,784.5054931640625,789.3406372070312,791.3552856445312,798.6080322265625
642,787.3259887695312,791.3552856445312,798.2051391601562,792.967041015625
643,791.7582397460938,786.5201416015625,799.010986328125,796.1904907226562
644,795.3846435546875,789.7435913085938,796.5933837890625,803.4432373046875
645,797.8021850585938,796.5933837890625,796.1904907226562,806.6666870117188
646,791.7582397460938,789.3406372070312,793.7728881835938,803.8461303710938
647,792.1611938476562,784.908447265625,791.3552856445312,803.4432373046875
648,794.981689453125,792.967041015625,792.1611938476562,799.8168334960938
649,794.1758422851562,789.3406372070312,792.1611938476562,792.1611938476562
650,789.3406372070312,781.6849975585938,790.1465454101562,792.1611938476562
651,784.5054931640625,785.3113403320312,793.3699340820312,796.1904907226562
652,790.952392578125,788.937744140625,793.7728881835938,797.8021850585938
653,798.2051391601562,797.3992919921875,795.3846435546875,797.8021850585938
654,799.4139404296875,798.2051391601562,799.4139404296875,799.010986328125
655,796.5933837890625,792.967041015625,790.5494384765625,799.8168334960938
656,798.2051391601562,794.981689453125,788.1318969726562,801.025634765625
657,795.3846435546875,793.7728881835938,799.4139404296875,789.3406372070312
658,799.4139404296875,799.4139404296875,800.6226806640625,790.5494384765625
659,809.89013671875,804.6520385742188,797.3992919921875,796.5933837890625
660,807.4725341796875,796.996337890625,798.2051391601562,796.996337890625
661,799.010986328125,793.3699340820312,794.1758422851562,798.6080322265625
662,796.996337890625,793.3699340820312,795.3846435546875,799.010986328125
663,800.2197875976562,788.5347900390625,797.3992919921875,795.3846435546875
664,800.2197875976562,791.3552856445312,792.1611938476562,788.937744140625
665,798.2051391601562,801.025634765625,792.1611938476562,785.7142944335938
666,796.5933837890625,801.8314819335938,795.7875366210938,790.1465454101562
667,802.2344360351562,798.6080322265625,796.996337890625,801.025634765625
668,805.4578857421875,794.1758422851562,792.1611938476562,807.069580078125
669,802.2344360351562,793.3699340820312,790.952392578125,797.3992919921875
670,795.7875366210938,793.7728881835938,791.7582397460938,786.1171875
671,793.7728881835938,796.5933837890625,790.952392578125,786.5201416015625
672,797.3992919921875,799.4139404296875,792.967041015625,787.3259887695312
673,789.7435913085938,799.010986328125,793.7728881835938,788.1318969726562
674,781.2820434570312,794.1758422851562,788.1318969726562,788.1318969726562
675,790.5494384765625,793.3699340820312,785.7142944335938,798.2051391601562
676,796.996337890625,797.3992919921875,796.1904907226562,803.8461303710938
677,796.5933837890625,792.5640869140625,800.2197875976562,795.7875366210938
678,793.7728881835938,792.1611938476562,797.3992919921875,797.8021850585938
679,788.5347900390625,795.3846435546875,794.5787353515625,803.4432373046875
680,788.937744140625,793.3699340820312,794.981689453125,794.5787353515625
681,796.1904907226562,792.1611938476562,792.5640869140625,794.981689453125
682,800.2197875976562,792.5640869140625,792.1611938476562,801.025634765625
683,794.981689453125,798.2051391601562,798.6080322265625,796.5933837890625
684,794.5787353515625,796.1904907226562,800.2197875976562,792.5640869140625
685,804.2490844726562,794.981689453125,795.3846435546875,796.5933837890625
686,807.87548828125,794.981689453125,789.3406372070312,801.025634765625
687,799.8168334960938,791.7582397460938,788.5347900390625,801.025634765625
688,790.952392578125,792.1611938476562,792.5640869140625,796.5933837890625
689,790.1465454101562,791.7582397460938,789.7435913085938,785.7142944335938
690,797.3992919921875,792.5640869140625,786.923095703125,797.3992919921875
691,795.7875366210938,793.7728881835938,783.2966918945312,801.4285888671875
692,792.1611938476562,794.5787353515625,783.6996459960938,784.5054931640625
693,792.967041015625,788.937744140625,789.7435913085938,783.2966918945312
694,790.5494384765625,784.5054931640625,791.3552856445312,787.3259887695312
695,794.5787353515625,786.1171875,788.1318969726562,789.7435913085938
696,797.8021850585938,784.5054931640625,784.5054931640625,788.5347900390625
697,800.2197875976562,783.6996459960938,787.3259887695312,790.952392578125
698,802.2344360351562,788.5347900390625,794.5787353515625,798.6080322265625
699,797.3992919921875,783.6996459960938,794.1758422851562,793.3699340820312
700,795.3846435546875,785.3113403320312,792.1611938476562,787.3259887695312
701,798.6080322265625,791.7582397460938,791.7582397460938,792.967041015625
702,803.040283203125,787.3259887695312,788.937744140625,792.967041015625
703,800.6226806640625,786.1171875,785.7142944335938,793.3699340820312
704,802.2344360351562,788.1318969726562,790.5494384765625,789.3406372070312
705,805.8607788085938,792.967041015625,800.2197875976562,786.5201416015625
706,805.8607788085938,793.7728881835938,793.7728881835938,790.952392578125
707,802.2344360351562,792.967041015625,788.1318969726562,791.7582397460938
708,794.981689453125,790.5494384765625,790.952392578125,793.3699340820312
709,793.7728881835938,790.5494384765625,788.1318969726562,791.3552856445312
710,794.5787353515625,792.5640869140625,786.923095703125,791.7582397460938
711,791.3552856445312,794.5787353515625,789.7435913085938,786.1171875
712,782.4908447265625,792.1611938476562,786.923095703125,775.6410522460938
713,783.2966918945312,789.3406372070312,784.908447265625,787.3259887695312
714,787.7289428710938,784.908447265625,786.1171875,793.7728881835938
715,780.4761962890625,782.087890625,788.1318969726562,782.087890625
716,784.1025390625,790.952392578125,791.3552856445312,778.8644409179688
717,792.1611938476562,793.3699340820312,792.5640869140625,778.05859375
718,791.7582397460938,790.1465454101562,790.952392578125,782.087890625
719,790.5494384765625,792.5640869140625,790.5494384765625,783.6996459960938
720,791.7582397460938,798.2051391601562,792.5640869140625,780.879150390625
721,793.3699340820312,797.8021850585938,795.7875366210938,791.3552856445312
722,796.5933837890625,793.7728881835938,794.981689453125,801.025634765625
723,794.5787353515625,797.3992919921875,792.1611938476562,795.3846435546875
724,788.5347900390625,800.6226806640625,793.3699340820312,791.7582397460938
725,783.2966918945312,796.1904907226562,788.937744140625,794.1758422851562
726,782.893798828125,791.7582397460938,791.3552856445312,790.1465454101562
727,784.1025390625,791.3552856445312,793.3699340820312,783.6996459960938
728,784.5054931640625,788.1318969726562,785.7142944335938,786.1171875
729,790.952392578125,791.3552856445312,788.937744140625,794.981689453125
730,792.967041015625,794.1758422851562,793.7728881835938,791.3552856445312
731,791.7582397460938,793.3699340820312,789.3406372070312,787.7289428710938
732,797.8021850585938,793.3699340820312,788.5347900390625,786.1171875
733,796.1904907226562,792.1611938476562,792.1611938476562,783.6996459960938
734,791.7582397460938,787.7289428710938,796.996337890625,781.2820434570312
735,792.5640869140625,782.087890625,800.6226806640625,779.6703491210938
736,800.6226806640625,788.5347900390625,801.4285888671875,785.3113403320312
737,806.6666870117188,794.5787353515625,801.4285888671875,802.2344360351562
738,799.010986328125,796.1904907226562,796.996337890625,795.7875366210938
739,794.981689453125,795.7875366210938,791.7582397460938,780.4761962890625
740,787.7289428710938,794.1758422851562,790.952392578125,780.879150390625
741,784.1025390625,796.1904907226562,797.3992919921875,784.1025390625
742,791.7582397460938,794.1758422851562,792.967041015625,784.1025390625
743,792.5640869140625,789.3406372070312,787.7289428710938,787.7289428710938
744,790.1465454101562,788.5347900390625,788.5347900390625,793.7728881835938
745,790.5494384765625,789.3406372070312,789.3406372070312,786.923095703125
746,792.967041015625,791.3552856445312,791.7582397460938,786.5201416015625
747,799.8168334960938,791.3552856445312,793.3699340820312,796.996337890625
748,797.8021850585938,792.1611938476562,793.7728881835938,796.1904907226562
749,794.981689453125,794.981689453125,799.4139404296875,798.6080322265625
750,797.8021850585938,791.7582397460938,801.025634765625,799.8168334960938
751,798.6080322265625,791.3552856445312,798.2051391601562,798.6080322265625
752,797.8021850585938,797.8021850585938,791.7582397460938,800.2197875976562
753,796.1904907226562,799.4139404296875,792.1611938476562,794.981689453125
754,796.5933837890625,794.5787353515625,795.7875366210938,788.1318969726562
755,790.952392578125,794.981689453125,794.1758422851562,787.7289428710938
756,786.5201416015625,795.7875366210938,797.3992919921875,790.5494384765625
757,795.7875366210938,794.5787353515625,798.6080322265625,788.937744140625
758,800.6226806640625,793.7728881835938,795.7875366210938,794.1758422851562
759,797.3992919921875,797.3992919921875,792.967041015625,798.6080322265625
760,794.5787353515625,798.6080322265625,795.7875366210938,794.981689453125
761,787.7289428710938,792.5640869140625,796.1904907226562,793.7728881835938
762,782.4908447265625,791.7582397460938,790.1465454101562,793.7728881835938
763,786.923095703125,790.1465454101562,790.952392578125,805.8607788085938
764,789.7435913085938,788.5347900390625,801.025634765625,809.084228515625
765,794.5787353515625,794.981689453125,809.4871826171875,800.6226806640625
766,800.6226806640625,794.5787353515625,805.4578857421875,798.2051391601562
767,796.996337890625,788.937744140625,797.8021850585938,792.5640869140625
768,791.3552856445312,793.3699340820312,797.3992919921875,792.967041015625
769,794.5787353515625,791.3552856445312,800.6226806640625,800.2197875976562
770,793.7728881835938,786.5201416015625,799.8168334960938,799.4139404296875
771,785.3113403320312,790.952392578125,793.3699340820312,794.5787353515625
772,784.5054931640625,791.3552856445312,791.7582397460938,791.7582397460938
773,792.1611938476562,793.7728881835938,798.2051391601562,792.1611938476562
774,803.040283203125,793.3699340820312,794.1758422851562,801.8314819335938
775,802.6373901367188,783.2966918945312,789.3406372070312,801.8314819335938
776,796.996337890625,786.923095703125,788.1318969726562,787.3259887695312
777,798.2051391601562,796.1904907226562,789.3406372070312,784.1025390625
778,801.8314819335938,794.981689453125,796.1904907226562,790.5494384765625
779,800.6226806640625,790.1465454101562,795.7875366210938,792.1611938476562
780,792.5640869140625,790.5494384765625,794.1758422851562,788.5347900390625
781,791.7582397460938,792.1611938476562,796.1904907226562,796.5933837890625
782,796.1904907226562,788.937744140625,797.8021850585938,803.4432373046875
783,795.7875366210938,788.5347900390625,792.967041015625,801.8314819335938
784,794.5787353515625,792.5640869140625,790.952392578125,801.4285888671875
785,790.1465454101562,789.3406372070312,791.7582397460938,790.952392578125
786,792.1611938476562,790.1465454101562,789.7435913085938,794.981689453125
787,794.981689453125,797.8021850585938,792.5640869140625,801.4285888671875
788,792.967041015625,797.8021850585938,800.2197875976562,797.8021850585938
789,787.7289428710938,789.3406372070312,797.3992919921875,798.6080322265625
790,787.7289428710938,789.7435913085938,791.3552856445312,793.3699340820312
791,792.5640869140625,801.4285888671875,796.996337890625,788.1318969726562
792,795.3846435546875,805.8607788085938,803.040283203125,784.5054931640625
793,798.2051391601562,796.5933837890625,802.2344360351562,783.2966918945312
794,798.2051391601562,790.5494384765625,801.4285888671875,784.5054931640625
795,799.010986328125,794.5787353515625,794.1758422851562,786.1171875
796,797.3992919921875,793.7728881835938,794.5787353515625,786.923095703125
797,796.5933837890625,792.1611938476562,799.4139404296875,792.1611938476562
798,801.8314819335938,790.952392578125,791.7582397460938,801.4285888671875
799,800.2197875976562,793.3699340820312,791.3552856445312,794.1758422851562
800,790.952392578125,791.7582397460938,796.1904907226562,792.5640869140625
801,795.3846435546875,790.952392578125,792.967041015625,803.4432373046875
802,804.2490844726562,789.7435913085938,792.1611938476562,793.7728881835938
803,800.2197875976562,789.7435913085938,804.6520385742188,781.6849975585938
804,800.6226806640625,795.3846435546875,809.89013671875,778.4615478515625
805,800.2197875976562,797.8021850585938,801.025634765625,781.6849975585938
806,794.1758422851562,796.5933837890625,799.8168334960938,781.2820434570312
807,788.5347900390625,793.3699340820312,796.996337890625,780.4761962890625
808,791.7582397460938,795.3846435546875,792.967041015625,781.2820434570312
809,796.996337890625,791.7582397460938,793.7728881835938,791.3552856445312
810,795.3846435546875,786.923095703125,797.3992919921875,800.2197875976562
811,790.952392578125,786.5201416015625,798.2051391601562,794.5787353515625
812,791.7582397460938,787.3259887695312,795.7875366210938,790.1465454101562
813,796.996337890625,793.3699340820312,796.5933837890625,787.7289428710938
814,800.2197875976562,796.1904907226562,794.1758422851562,792.5640869140625
815,792.5640869140625,786.923095703125,790.1465454101562,794.1758422851562
816,790.952392578125,787.7289428710938,794.1758422851562,795.7875366210938
817,796.996337890625,795.3846435546875,799.4139404296875,793.7728881835938
818,794.5787353515625,792.1611938476562,798.2051391601562,790.952392578125
819,791.7582397460938,790.5494384765625,796.5933837890625,794.981689453125
820,794.981689453125,789.7435913085938,792.1611938476562,803.8461303710938
821,797.3992919921875,784.5054931640625,790.5494384765625,800.6226806640625
822,794.1758422851562,783.6996459960938,790.5494384765625,785.7142944335938
823,796.1904907226562,784.5054931640625,792.5640869140625,786.5201416015625
824,799.4139404296875,784.1025390625,792.5640869140625,801.4285888671875
825,798.2051391601562,792.967041015625,794.5787353515625,804.6520385742188
826,794.1758422851562,798.6080322265625,796.5933837890625,790.952392578125
827,792.5640869140625,792.5640869140625,790.5494384765625,786.923095703125
828,791.7582397460938,788.1318969726562,791.3552856445312,789.7435913085938
829,789.7435913085938,789.7435913085938,788.5347900390625,786.1171875
830,790.1465454101562,798.2051391601562,789.3406372070312,781.2820434570312
831,790.1465454101562,797.8021850585938,792.1611938476562,780.879150390625
832,793.7728881835938,792.5640869140625,789.7435913085938,784.5054931640625
833,801.4285888671875,792.5640869140625,792.967041015625,790.5494384765625
834,801.4285888671875,790.952392578125,796.1904907226562,796.5933837890625
835,794.5787353515625,790.5494384765625,791.7582397460938,800.2197875976562
836,792.967041015625,790.952392578125,790.5494384765625,806.2637329101562
837,792.1611938476562,786.923095703125,795.3846435546875,810.6959838867188
838,792.5640869140625,784.5054931640625,792.967041015625,811.5018310546875
839,796.996337890625,784.908447265625,787.3259887695312,811.90478515625
840,798.2051391601562,790.5494384765625,788.5347900390625,806.6666870117188
841,790.5494384765625,788.1318969726562,795.7875366210938,797.8021850585938
842,786.1171875,789.3406372070312,801.4285888671875,789.3406372070312
843,785.7142944335938,791.3552856445312,797.8021850585938,789.3406372070312
844,788.1318969726562,784.1025390625,793.7728881835938,796.1904907226562
845,787.3259887695312,786.5201416015625,797.3992919921875,801.4285888671875
846,789.7435913085938,790.5494384765625,801.4285888671875,796.996337890625
847,799.8168334960938,790.1465454101562,801.8314819335938,794.5787353515625
848,796.5933837890625,787.7289428710938,792.967041015625,795.3846435546875
849,788.937744140625,790.1465454101562,786.5201416015625,785.3113403320312
850,796.5933837890625,798.6080322265625,789.7435913085938,786.5201416015625
851,801.025634765625,804.6520385742188,792.1611938476562,790.5494384765625
852,801.4285888671875,800.6226806640625,788.937744140625,787.3259887695312
853,804.2490844726562,797.3992919921875,788.1318969726562,788.937744140625
854,804.6520385742188,795.3846435546875,794.5787353515625,798.2051391601562
855,806.6666870117188,792.1611938476562,799.8168334960938,803.4432373046875
856,800.6226806640625,796.1904907226562,794.5787353515625,801.025634765625
857,798.2051391601562,793.3699340820312,792.1611938476562,792.5640869140625
858,804.2490844726562,788.1318969726562,796.1904907226562,789.7435913085938
859,807.069580078125,793.3699340820312,799.4139404296875,801.4285888671875
860,808.6813354492188,798.2051391601562,798.6080322265625,805.4578857421875
861,809.084228515625,801.025634765625,796.1904907226562,801.8314819335938
862,805.054931640625,799.010986328125,792.1611938476562,798.6080322265625
863,800.6226806640625,796.996337890625,794.981689453125,795.7875366210938
864,797.3992919921875,796.5933837890625,794.1758422851562,795.3846435546875
865,794.1758422851562,793.3699340820312,791.3552856445312,792.967041015625
866,794.1758422851562,792.1611938476562,795.3846435546875,801.025634765625
867,796.996337890625,788.937744140625,793.7728881835938,809.084228515625
868,796.5933837890625,786.923095703125,788.5347900390625,804.2490844726562
869,791.7582397460938,791.7582397460938,789.7435913085938,799.010986328125
870,799.010986328125,794.1758422851562,793.3699340820312,798.2051391601562
871,809.4871826171875,796.1904907226562,795.7875366210938,805.054931640625
872,806.2637329101562,799.8168334960938,797.3992919921875,803.8461303710938
873,795.7875366210938,794.981689453125,788.5347900390625,783.6996459960938
874,796.996337890625,789.3406372070312,786.923095703125,775.6410522460938
875,800.6226806640625,788.1318969726562,792.5640869140625,785.3113403320312
876,797.3992919921875,792.5640869140625,789.7435913085938,790.5494384765625
877,803.4432373046875,795.7875366210938,793.3699340820312,795.7875366210938
878,807.4725341796875,796.5933837890625,798.6080322265625,801.4285888671875
879,802.2344360351562,794.981689453125,792.1611938476562,799.8168334960938
880,803.4432373046875,788.5347900390625,790.952392578125,799.010986328125
881,805.8607788085938,774.4322509765625,794.5787353515625,805.8607788085938
882,799.8168334960938,780.879150390625,789.7435913085938,801.8314819335938
883,793.3699340820312,791.3552856445312,785.7142944335938,786.923095703125
884,787.7289428710938,784.1025390625,790.5494384765625,780.879150390625
885,788.1318969726562,783.6996459960938,793.3699340820312,788.5347900390625
886,792.967041015625,791.7582397460938,793.7728881835938,788.1318969726562
887,791.3552856445312,791.7582397460938,790.5494384765625,783.2966918945312
888,794.1758422851562,784.1025390625,787.3259887695312,788.1318969726562
889,795.7875366210938,792.1611938476562,791.7582397460938,786.1171875
890,794.5787353515625,793.3699340820312,789.3406372070312,794.1758422851562
891,790.952392578125,791.7582397460938,785.3113403320312,797.3992919921875
892,786.5201416015625,791.3552856445312,784.908447265625,786.923095703125
893,792.1611938476562,784.908447265625,791.3552856445312,793.3699340820312
894,795.3846435546875,782.087890625,792.967041015625,798.6080322265625
895,796.5933837890625,787.3259887695312,792.5640869140625,793.3699340820312
896,794.981689453125,789.7435913085938,795.3846435546875,783.2966918945312
897,791.3552856445312,790.5494384765625,791.7582397460938,782.893798828125
898,794.1758422851562,796.5933837890625,785.7142944335938,782.4908447265625
899,795.3846435546875,796.996337890625,788.1318969726562,778.4615478515625
900,794.981689453125,790.1465454101562,791.3552856445312,784.5054931640625
901,794.1758422851562,788.1318969726562,791.7582397460938,790.952392578125
902,796.996337890625,786.5201416015625,794.981689453125,788.5347900390625
903,795.3846435546875,781.6849975585938,793.3699340820312,782.087890625
904,794.1758422851562,783.6996459960938,790.5494384765625,782.087890625
905,798.2051391601562,790.5494384765625,790.952392578125,792.967041015625
906,796.996337890625,793.7728881835938,795.7875366210938,792.5640869140625
907,792.5640869140625,790.5494384765625,799.4139404296875,784.908447265625
908,792.967041015625,789.3406372070312,800.2197875976562,791.3552856445312
909,792.5640869140625,795.3846435546875,798.2051391601562,788.937744140625
910,788.5347900390625,794.5787353515625,795.3846435546875,782.4908447265625
911,789.7435913085938,789.7435913085938,793.7728881835938,788.1318969726562
912,796.5933837890625,785.3113403320312,792.967041015625,792.967041015625
913,792.5640869140625,788.937744140625,794.1758422851562,790.1465454101562
914,782.4908447265625,799.010986328125,794.1758422851562,788.1318969726562
915,781.2820434570312,799.4139404296875,796.996337890625,790.1465454101562
916,782.893798828125,792.967041015625,797.8021850585938,792.5640869140625
917,786.5201416015625,791.7582397460938,800.6226806640625,796.5933837890625
918,787.3259887695312,795.3846435546875,797.3992919921875,794.5787353515625
919,783.2966918945312,790.952392578125,792.1611938476562,795.3846435546875
920,787.7289428710938,784.1025390625,795.3846435546875,805.054931640625
921,791.3552856445312,787.7289428710938,793.3699340820312,803.4432373046875
922,794.981689453125,790.1465454101562,794.981689453125,796.1904907226562
923,794.981689453125,788.1318969726562,796.5933837890625,791.3552856445312
924,790.5494384765625,786.923095703125,798.2051391601562,793.3699340820312
925,791.3552856445312,794.1758422851562,804.2490844726562,801.4285888671875
926,791.3552856445312,800.6226806640625,799.8168334960938,797.3992919921875
927,792.1611938476562,797.8021850585938,794.5787353515625,788.1318969726562
928,791.3552856445312,792.1611938476562,789.3406372070312,786.5201416015625
929,791.7582397460938,792.967041015625,790.1465454101562,791.3552856445312
930,790.1465454101562,792.5640869140625,795.3846435546875,792.967041015625
931,786.923095703125,787.7289428710938,794.5787353515625,796.1904907226562
932,792.5640869140625,787.7289428710938,794.1758422851562,805.054931640625
933,798.2051391601562,786.923095703125,797.3992919921875,800.2197875976562
934,797.8021850585938,783.6996459960938,797.8021850585938,798.2051391601562
935,800.2197875976562,790.1465454101562,793.3699340820312,794.5787353515625
936,798.6080322265625,795.3846435546875,789.7435913085938,786.923095703125
937,804.6520385742188,798.2051391601562,788.5347900390625,805.4578857421875
938,801.025634765625,800.2197875976562,794.981689453125,801.025634765625
939,792.5640869140625,788.937744140625,797.8021850585938,780.879150390625
940,797.8021850585938,790.1465454101562,800.6226806640625,791.3552856445312
941,792.5640869140625,798.6080322265625,796.5933837890625,794.1758422851562
942,788.5347900390625,792.5640869140625,794.1758422851562,789.3406372070312
943,797.8021850585938,790.952392578125,794.5787353515625,790.1465454101562
944,799.8168334960938,793.7728881835938,794.5787353515625,789.3406372070312
945,794.5787353515625,792.967041015625,791.3552856445312,784.908447265625
946,795.7875366210938,796.996337890625,794.981689453125,782.087890625
947,794.981689453125,799.8168334960938,801.4285888671875,780.4761962890625
948,792.5640869140625,799.010986328125,796.5933837890625,779.6703491210938
949,790.1465454101562,799.8168334960938,795.7875366210938,781.6849975585938
950,790.5494384765625,799.4139404296875,794.5787353515625,783.6996459960938
951,791.7582397460938,796.996337890625,791.7582397460938,779.6703491210938
952,792.5640869140625,786.5201416015625,790.952392578125,774.4322509765625
953,791.7582397460938,788.937744140625,788.5347900390625,782.4908447265625
954,788.5347900390625,794.981689453125,788.1318969726562,790.1465454101562
955,790.5494384765625,793.3699340820312,792.967041015625,800.2197875976562
956,793.7728881835938,793.3699340820312,795.7875366210938,803.040283203125
957,794.1758422851562,790.1465454101562,794.5787353515625,785.7142944335938
958,795.3846435546875,791.7582397460938,792.5640869140625,778.8644409179688
959,796.1904907226562,793.7728881835938,790.5494384765625,784.908447265625
960,798.2051391601562,788.937744140625,788.5347900390625,794.981689453125
961,799.4139404296875,786.923095703125,787.3259887695312,799.010986328125
962,805.4578857421875,785.7142944335938,786.5201416015625,803.040283203125
963,809.89013671875,788.1318969726562,788.5347900390625,806.2637329101562
964,805.8607788085938,795.3846435546875,784.5054931640625,803.8461303710938
965,805.4578857421875,791.7582397460938,785.7142944335938,801.8314819335938
966,804.6520385742188,783.2966918945312,791.3552856445312,795.3846435546875
967,802.6373901367188,788.1318969726562,792.5640869140625,800.6226806640625
968,799.4139404296875,790.1465454101562,796.1904907226562,798.6080322265625
969,794.981689453125,786.923095703125,795.3846435546875,792.967041015625
970,794.1758422851562,790.5494384765625,792.5640869140625,789.7435913085938
971,795.7875366210938,791.7582397460938,789.3406372070312,790.5494384765625
972,793.7728881835938,796.996337890625,792.967041015625,801.8314819335938
973,792.1611938476562,794.981689453125,797.8021850585938,803.040283203125
974,790.5494384765625,789.7435913085938,789.7435913085938,792.1611938476562
975,786.5201416015625,793.7728881835938,786.5201416015625,787.3259887695312
976,788.5347900390625,792.967041015625,795.3846435546875,788.1318969726562
977,790.952392578125,789.3406372070312,799.8168334960938,785.7142944335938
978,796.1904907226562,788.1318969726562,796.5933837890625,794.5787353515625
979,800.6226806640625,790.952392578125,792.1611938476562,796.1904907226562
980,802.2344360351562,791.3552856445312,793.3699340820312,786.1171875
981,802.2344360351562,790.5494384765625,792.967041015625,785.7142944335938
982,799.010986328125,792.1611938476562,795.7875366210938,792.1611938476562
983,798.6080322265625,802.6373901367188,799.010986328125,803.4432373046875
984,799.010986328125,808.2783813476562,797.3992919921875,807.4725341796875
985,798.6080322265625,798.6080322265625,796.5933837890625,805.054931640625
986,798.6080322265625,790.952392578125,796.1904907226562,805.054931640625
987,800.2197875976562,792.1611938476562,793.7728881835938,799.4139404296875
988,800.2197875976562,794.981689453125,792.967041015625,795.3846435546875
989,799.010986328125,788.1318969726562,794.5787353515625,797.8021850585938
990,799.4139404296875,779.2673950195312,795.3846435546875,796.1904907226562
991,794.5787353515625,782.087890625,799.4139404296875,790.952392578125
992,790.5494384765625,789.7435913085938,793.7728881835938,792.967041015625
993,789.3406372070312,793.7728881835938,791.7582397460938,799.010986328125
994,792.1611938476562,798.6080322265625,795.3846435546875,800.2197875976562
995,792.967041015625,794.1758422851562,797.3992919921875,795.3846435546875
996,790.952392578125,788.5347900390625,798.6080322265625,794.5787353515625
997,794.5787353515625,793.3699340820312,795.3846435546875,799.010986328125
998,792.1611938476562,794.981689453125,803.8461303710938,805.054931640625
999,790.952392578125,794.1758422851562,807.87548828125,800.6226806640625
1000,791.7582397460938,789.3406372070312,797.8021850585938,793.3699340820312
1001,792.1611938476562,774.4322509765625,790.1465454101562,796.1904907226562
1002,791.7582397460938,780.4761962890625,793.3699340820312,797.8021850585938
1003,788.1318969726562,798.2051391601562,800.6226806640625,795.3846435546875
1004,792.967041015625,791.7582397460938,798.6080322265625,799.8168334960938
1005,797.8021850585938,792.967041015625,793.7728881835938,807.069580078125
1006,794.5787353515625,803.4432373046875,793.7728881835938,802.2344360351562
1007,794.5787353515625,794.1758422851562,792.967041015625,795.7875366210938
1008,797.8021850585938,785.3113403320312,788.5347900390625,797.3992919921875
1009,804.2490844726562,789.3406372070312,789.3406372070312,799.010986328125
1010,803.8461303710938,791.3552856445312,792.1611938476562,795.3846435546875
1011,797.8021850585938,791.7582397460938,790.5494384765625,796.1904907226562
1012,804.2490844726562,785.3113403320312,793.7728881835938,801.4285888671875
1013,809.084228515625,782.893798828125,795.7875366210938,798.2051391601562
1014,798.6080322265625,794.1758422851562,795.3846435546875,786.923095703125
1015,786.923095703125,802.6373901367188,797.8021850585938,787.3259887695312
1016,788.937744140625,800.2197875976562,793.7728881835938,794.5787353515625
1017,788.937744140625,793.7728881835938,790.1465454101562,793.3699340820312
1018,783.6996459960938,788.937744140625,795.7875366210938,794.5787353515625
1019,790.5494384765625,788.1318969726562,801.4285888671875,803.040283203125
1020,799.8168334960938,787.3259887695312,800.2197875976562,801.025634765625
1021,794.981689453125,786.1171875,799.4139404296875,792.967041015625
1022,789.7435913085938,786.5201416015625,801.025634765625,793.7728881835938
1023,793.3699340820312,782.087890625,803.4432373046875,792.967041015625
1024,794.5787353515625,778.8644409179688,805.8607788085938,801.8314819335938
1025,791.3552856445312,781.6849975585938,796.996337890625,801.8314819335938
1026,787.3259887695312,790.1465454101562,794.981689453125,786.923095703125
1027,788.937744140625,796.5933837890625,800.2197875976562,787.3259887695312
1028,799.4139404296875,794.5787353515625,800.2197875976562,793.7728881835938
1029,804.6520385742188,789.7435913085938,801.4285888671875,796.5933837890625
1030,805.4578857421875,792.967041015625,797.3992919921875,794.981689453125
1031,805.054931640625,797.3992919921875,799.8168334960938,791.3552856445312
1032,795.3846435546875,797.8021850585938,800.6226806640625,792.5640869140625
1033,799.010986328125,791.7582397460938,797.3992919921875,793.7728881835938
1034,801.4285888671875,788.937744140625,801.4285888671875,791.3552856445312
1035,790.5494384765625,786.923095703125,799.4139404296875,792.1611938476562
1036,786.923095703125,778.8644409179688,796.1904907226562,790.952392578125
1037,790.1465454101562,782.4908447265625,796.5933837890625,782.893798828125
1038,786.5201416015625,787.7289428710938,797.3992919921875,785.3113403320312
1039,782.893798828125,790.1465454101562,797.8021850585938,792.967041015625
1040,775.6410522460938,792.967041015625,801.025634765625,791.3552856445312
1041,772.4176025390625,798.6080322265625,800.6226806640625,777.2527465820312
1042,780.4761962890625,793.3699340820312,794.5787353515625,776.8497924804688
1043,781.2820434570312,790.952392578125,796.996337890625,788.5347900390625
1044,779.2673950195312,796.1904907226562,805.054931640625,790.952392578125
1045,780.0732421875,794.1758422851562,800.6226806640625,783.2966918945312
1046,777.6557006835938,782.4908447265625,791.7582397460938,778.8644409179688
1047,778.05859375,779.6703491210938,796.1904907226562,784.5054931640625
1048,782.893798828125,790.952392578125,799.010986328125,790.1465454101562
1049,786.1171875,794.5787353515625,795.7875366210938,792.5640869140625
1050,790.5494384765625,794.981689453125,797.8021850585938,785.3113403320312
1051,791.3552856445312,796.996337890625,794.981689453125,779.2673950195312
1052,791.7582397460938,803.8461303710938,792.5640869140625,783.2966918945312
1053,797.8021850585938,802.2344360351562,795.3846435546875,788.1318969726562
1054,799.8168334960938,797.8021850585938,790.952392578125,792.5640869140625
1055,800.2197875976562,791.7582397460938,791.3552856445312,795.3846435546875
1056,797.3992919921875,784.908447265625,794.1758422851562,798.6080322265625
1057,797.8021850585938,792.967041015625,795.3846435546875,802.6373901367188
1058,801.4285888671875,799.010986328125,799.010986328125,803.040283203125
1059,802.6373901367188,788.5347900390625,790.5494384765625,804.6520385742188
1060,799.4139404296875,781.6849975585938,778.8644409179688,796.996337890625
1061,795.7875366210938,789.7435913085938,788.1318969726562,786.5201416015625
1062,801.4285888671875,798.6080322265625,791.7582397460938,793.7728881835938
1063,799.4139404296875,799.4139404296875,786.923095703125,800.2197875976562
1064,794.5787353515625,794.981689453125,791.3552856445312,792.5640869140625
1065,796.996337890625,799.8168334960938,792.967041015625,786.5201416015625
1066,797.3992919921875,799.4139404296875,791.3552856445312,786.1171875
1067,801.025634765625,790.952392578125,789.3406372070312,786.5201416015625
1068,801.4285888671875,792.5640869140625,791.7582397460938,786.5201416015625
1069,797.3992919921875,789.7435913085938,793.3699340820312,792.967041015625
1070,796.996337890625,786.5201416015625,792.967041015625,800.2197875976562
1071,795.7875366210938,790.1465454101562,791.7582397460938,801.025634765625
1072,799.010986328125,782.893798828125,791.3552856445312,799.8168334960938
1073,802.6373901367188,784.1025390625,795.3846435546875,798.2051391601562
1074,802.6373901367188,788.1318969726562,792.1611938476562,803.4432373046875
1075,803.4432373046875,778.4615478515625,791.3552856445312,809.4871826171875
1076,803.4432373046875,786.1171875,794.981689453125,803.040283203125
1077,805.054931640625,799.010986328125,795.7875366210938,793.3699340820312
1078,803.040283203125,797.3992919921875,788.5347900390625,790.952392578125
1079,798.6080322265625,790.5494384765625,782.4908447265625,796.1904907226562
1080,803.040283203125,790.1465454101562,792.5640869140625,798.2051391601562
1081,802.6373901367188,793.3699340820312,797.8021850585938,794.981689453125
1082,794.1758422851562,794.1758422851562,791.7582397460938,790.5494384765625
1083,786.923095703125,796.1904907226562,785.3113403320312,784.908447265625
1084,792.5640869140625,794.981689453125,787.7289428710938,780.0732421875
1085,802.2344360351562,798.2051391601562,791.7582397460938,782.4908447265625
1086,799.8168334960938,805.054931640625,789.3406372070312,786.1171875
1087,789.7435913085938,803.8461303710938,784.908447265625,779.2673950195312
1088,788.5347900390625,799.4139404296875,788.1318969726562,774.029296875
1089,788.1318969726562,794.981689453125,788.5347900390625,782.087890625
1090,789.7435913085938,793.7728881835938,786.5201416015625,789.7435913085938
1091,786.5201416015625,795.3846435546875,791.7582397460938,786.1171875
1092,781.6849975585938,795.3846435546875,791.3552856445312,785.7142944335938
1093,784.908447265625,791.7582397460938,794.1758422851562,794.981689453125
1094,784.5054931640625,788.5347900390625,794.5787353515625,794.981689453125
1095,783.2966918945312,788.1318969726562,793.3699340820312,785.7142944335938
1096,786.1171875,781.6849975585938,797.3992919921875,784.1025390625
1097,786.5201416015625,779.2673950195312,793.7728881835938,788.5347900390625
1098,781.6849975585938,792.5640869140625,796.5933837890625,791.3552856445312
1099,779.6703491210938,791.7582397460938,801.8314819335938,792.5640869140625
1100,782.893798828125,785.7142944335938,803.040283203125,793.7728881835938
1101,780.4761962890625,785.7142944335938,805.8607788085938,789.7435913085938
1102,778.8644409179688,784.5054931640625,806.2637329101562,791.3552856445312
1103,786.5201416015625,786.923095703125,805.054931640625,795.7875366210938
1104,784.1025390625,787.7289428710938,797.3992919921875,796.996337890625
1105,784.5054931640625,790.1465454101562,796.996337890625,800.6226806640625
1106,791.3552856445312,789.3406372070312,794.1758422851562,799.8168334960938
1107,798.6080322265625,786.5201416015625,792.5640869140625,791.3552856445312
1108,806.6666870117188,787.7289428710938,792.5640869140625,788.937744140625
1109,801.8314819335938,788.1318969726562,790.5494384765625,796.5933837890625
1110,801.8314819335938,790.5494384765625,789.3406372070312,795.7875366210938
1111,808.2783813476562,803.040283203125,789.7435913085938,786.1171875
1112,809.89013671875,803.8461303710938,788.937744140625,780.0732421875
1113,807.87548828125,801.025634765625,784.908447265625,776.8497924804688
1114,805.8607788085938,804.6520385742188,784.5054931640625,777.2527465820312
1115,809.084228515625,799.4139404296875,789.3406372070312,777.6557006835938
1116,808.6813354492188,796.996337890625,782.4908447265625,776.8497924804688
1117,800.2197875976562,798.2051391601562,780.879150390625,783.2966918945312
1118,797.8021850585938,794.5787353515625,795.7875366210938,787.3259887695312
1119,792.5640869140625,796.1904907226562,798.6080322265625,786.923095703125
1120,790.5494384765625,792.967041015625,796.5933837890625,788.937744140625
1121,785.3113403320312,785.3113403320312,793.7728881835938,786.1171875
1122,777.6557006835938,788.937744140625,792.5640869140625,787.3259887695312
1123,770.4029541015625,789.7435913085938,792.967041015625,790.1465454101562
1124,761.5384521484375,783.6996459960938,792.1611938476562,792.5640869140625
1125,762.3442993164062,782.087890625,789.7435913085938,793.7728881835938
1126,767.1795043945312,784.908447265625,788.5347900390625,788.937744140625
1127,771.2088012695312,787.7289428710938,789.7435913085938,794.1758422851562
1128,781.2820434570312,786.923095703125,795.3846435546875,806.2637329101562
1129,788.5347900390625,785.7142944335938,800.6226806640625,806.2637329101562
1130,794.981689453125,789.7435913085938,799.010986328125,809.4871826171875
1131,800.6226806640625,791.7582397460938,800.6226806640625,817.1428833007812
1132,803.040283203125,787.3259887695312,801.8314819335938,809.89013671875
1133,807.069580078125,785.7142944335938,801.4285888671875,814.7252807617188
1134,814.7252807617188,782.893798828125,799.8168334960938,817.1428833007812
1135,821.1721801757812,788.1318969726562,794.981689453125,807.4725341796875
1136,813.5164794921875,799.4139404296875,783.2966918945312,802.2344360351562
1137,811.90478515625,803.040283203125,782.4908447265625,791.3552856445312
1138,810.6959838867188,807.4725341796875,795.3846435546875,791.7582397460938
1139,800.6226806640625,800.6226806640625,792.967041015625,787.3259887695312
1140,802.2344360351562,798.2051391601562,788.937744140625,781.6849975585938
1141,806.6666870117188,806.2637329101562,791.3552856445312,789.7435913085938
1142,805.8607788085938,805.4578857421875,790.5494384765625,788.5347900390625
1143,803.4432373046875,801.4285888671875,788.1318969726562,786.1171875
1144,796.5933837890625,797.8021850585938,789.7435913085938,787.3259887695312
1145,793.3699340820312,795.7875366210938,787.3259887695312,786.1171875
1146,791.3552856445312,793.3699340820312,792.1611938476562,784.5054931640625
1147,784.908447265625,790.1465454101562,799.010986328125,797.3992919921875
1148,776.4468994140625,788.1318969726562,798.2051391601562,799.4139404296875
1149,773.2234497070312,791.7582397460938,799.010986328125,786.5201416015625
1150,776.8497924804688,791.7582397460938,792.967041015625,786.923095703125
1151,776.0439453125,789.3406372070312,790.5494384765625,791.3552856445312
1152,772.4176025390625,786.5201416015625,796.1904907226562,790.952392578125
1153,778.4615478515625,785.7142944335938,794.1758422851562,784.1025390625
1154,786.1171875,784.908447265625,789.7435913085938,783.6996459960938
1155,787.7289428710938,783.2966918945312,788.937744140625,791.3552856445312
1156,786.5201416015625,784.908447265625,789.7435913085938,796.1904907226562
1157,784.5054931640625,788.5347900390625,792.5640869140625,798.2051391601562
1158,788.1318969726562,790.1465454101562,793.3699340820312,800.6226806640625
1159,794.1758422851562,791.3552856445312,796.996337890625,801.025634765625
1160,799.4139404296875,798.2051391601562,796.1904907226562,798.2051391601562
1161,803.4432373046875,797.8021850585938,786.5201416015625,791.7582397460938
1162,805.4578857421875,802.2344360351562,788.5347900390625,789.3406372070312
1163,809.084228515625,807.87548828125,795.7875366210938,787.3259887695312
1164,812.3076782226562,807.87548828125,800.2197875976562,783.2966918945312
1165,810.6959838867188,809.084228515625,793.7728881835938,786.1171875
1166,809.89013671875,798.2051391601562,788.937744140625,792.1611938476562
1167,809.4871826171875,789.3406372070312,790.5494384765625,790.5494384765625
1168,806.2637329101562,793.3699340820312,792.967041015625,787.7289428710938
1169,801.4285888671875,795.3846435546875,792.1611938476562,788.1318969726562
1170,799.010986328125,796.1904907226562,789.7435913085938,791.7582397460938
1171,798.6080322265625,798.6080322265625,794.5787353515625,792.1611938476562
1172,788.1318969726562,797.8021850585938,795.3846435546875,780.879150390625
1173,780.0732421875,797.8021850585938,791.3552856445312,779.2673950195312
1174,791.7582397460938,800.6226806640625,796.1904907226562,790.1465454101562
1175,793.7728881835938,799.010986328125,802.2344360351562,792.5640869140625
1176,789.3406372070312,800.2197875976562,799.010986328125,786.5201416015625
1177,785.7142944335938,796.1904907226562,793.3699340820312,785.7142944335938
1178,780.4761962890625,791.7582397460938,793.7728881835938,792.1611938476562
1179,776.4468994140625,791.3552856445312,794.5787353515625,792.1611938476562
1180,775.6410522460938,790.952392578125,796.5933837890625,791.7582397460938
1181,778.05859375,785.3113403320312,797.3992919921875,794.1758422851562
1182,782.087890625,791.7582397460938,799.4139404296875,794.981689453125
1183,785.7142944335938,794.5787353515625,801.8314819335938,790.952392578125
1184,786.923095703125,790.5494384765625,793.3699340820312,786.5201416015625
1185,790.5494384765625,797.8021850585938,791.3552856445312,789.3406372070312
1186,792.1611938476562,798.6080322265625,798.6080322265625,794.981689453125
1187,792.5640869140625,796.996337890625,796.996337890625,790.1465454101562
1188,798.6080322265625,795.7875366210938,797.3992919921875,794.1758422851562
1189,799.8168334960938,797.3992919921875,801.8314819335938,800.6226806640625
1190,793.7728881835938,799.8168334960938,801.4285888671875,795.7875366210938
1191,795.7875366210938,796.996337890625,802.6373901367188,794.981689453125
1192,795.3846435546875,787.7289428710938,799.8168334960938,800.6226806640625
1193,795.3846435546875,786.5201416015625,795.7875366210938,804.2490844726562
1194,798.6080322265625,794.1758422851562,796.996337890625,802.6373901367188
1195,793.3699340820312,796.5933837890625,794.981689453125,792.967041015625
1196,791.7582397460938,793.3699340820312,792.1611938476562,790.5494384765625
1197,793.3699340820312,794.1758422851562,794.1758422851562,788.5347900390625
1198,798.2051391601562,801.4285888671875,793.7728881835938,786.1171875
1199,802.2344360351562,800.2197875976562,796.1904907226562,785.3113403320312
1200,801.8314819335938,794.1758422851562,793.7728881835938,782.4908447265625
1201,804.6520385742188,795.7875366210938,784.5054931640625,783.6996459960938
1202,799.4139404296875,792.5640869140625,786.923095703125,786.5201416015625
1203,793.7728881835938,791.7582397460938,790.1465454101562,786.923095703125
1204,797.8021850585938,792.967041015625,787.7289428710938,790.1465454101562
1205,792.5640869140625,793.3699340820312,782.893798828125,792.967041015625
1206,792.1611938476562,799.4139404296875,787.3259887695312,791.7582397460938
1207,799.4139404296875,801.025634765625,790.952392578125,788.937744140625
1208,804.6520385742188,789.7435913085938,787.3259887695312,793.3699340820312
1209,807.4725341796875,786.5201416015625,786.923095703125,796.1904907226562
1210,803.4432373046875,802.6373901367188,790.952392578125,791.3552856445312
1211,803.8461303710938,807.87548828125,789.3406372070312,798.6080322265625
1212,803.040283203125,801.4285888671875,789.3406372070312,801.025634765625
1213,803.8461303710938,802.2344360351562,795.3846435546875,799.8168334960938
1214,804.6520385742188,801.8314819335938,794.981689453125,795.7875366210938
1215,800.2197875976562,795.7875366210938,791.7582397460938,794.1758422851562
1216,794.981689453125,789.7435913085938,791.7582397460938,795.3846435546875
1217,796.1904907226562,795.3846435546875,790.5494384765625,788.1318969726562
1218,798.6080322265625,804.2490844726562,789.7435913085938,783.2966918945312
1219,798.6080322265625,804.2490844726562,790.952392578125,781.2820434570312
1220,799.010986328125,804.2490844726562,787.7289428710938,791.3552856445312
1221,800.2197875976562,804.2490844726562,783.2966918945312,793.3699340820312
1222,797.3992919921875,801.4285888671875,788.937744140625,784.5054931640625
1223,794.5787353515625,803.040283203125,796.1904907226562,784.1025390625
1224,793.3699340820312,801.025634765625,794.981689453125,782.893798828125
1225,790.1465454101562,795.7875366210938,796.996337890625,782.893798828125
1226,786.5201416015625,798.2051391601562,799.010986328125,786.1171875
1227,782.893798828125,800.6226806640625,796.996337890625,794.1758422851562
1228,784.1025390625,797.8021850585938,795.7875366210938,799.4139404296875
1229,788.1318969726562,799.8168334960938,796.1904907226562,797.3992919921875
1230,789.3406372070312,799.4139404296875,796.996337890625,792.967041015625
1231,799.4139404296875,793.7728881835938,798.2051391601562,792.1611938476562
1232,805.054931640625,791.7582397460938,796.1904907226562,792.967041015625
1233,801.4285888671875,791.3552856445312,793.7728881835938,786.923095703125
1234,804.2490844726562,794.981689453125,794.1758422851562,786.923095703125
1235,806.6666870117188,790.952392578125,798.2051391601562,794.1758422851562
1236,805.8607788085938,793.3699340820312,798.6080322265625,793.3699340820312
1237,799.8168334960938,798.6080322265625,795.3846435546875,792.5640869140625
1238,803.040283203125,793.7728881835938,796.1904907226562,793.3699340820312
1239,806.2637329101562,795.3846435546875,793.7728881835938,797.8021850585938
1240,802.6373901367188,792.1611938476562,788.1318969726562,803.8461303710938
1241,802.2344360351562,790.952392578125,788.1318969726562,796.996337890625
1242,799.010986328125,790.1465454101562,783.2966918945312,787.3259887695312
1243,799.010986328125,793.7728881835938,783.6996459960938,788.5347900390625
1244,794.981689453125,796.5933837890625,790.952392578125,792.967041015625
1245,795.3846435546875,798.6080322265625,790.952392578125,791.7582397460938
1246,791.3552856445312,800.6226806640625,789.7435913085938,790.5494384765625
1247,788.5347900390625,794.1758422851562,793.7728881835938,790.952392578125
1248,791.7582397460938,794.1758422851562,790.1465454101562,789.3406372070312
1249,784.1025390625,791.7582397460938,783.2966918945312,786.923095703125
1250,779.2673950195312,788.1318969726562,791.3552856445312,788.5347900390625
1251,785.3113403320312,789.3406372070312,793.3699340820312,799.4139404296875
1252,792.967041015625,786.5201416015625,792.1611938476562,805.054931640625
1253,788.1318969726562,790.952392578125,787.3259887695312,794.5787353515625
1254,786.923095703125,801.025634765625,783.2966918945312,787.7289428710938
1255,786.923095703125,802.2344360351562,785.3113403320312,789.7435913085938
1256,786.1171875,799.4139404296875,790.952392578125,784.908447265625
1257,790.5494384765625,797.3992919921875,793.7728881835938,788.1318969726562
1258,793.7728881835938,793.3699340820312,785.7142944335938,790.1465454101562
1259,800.2197875976562,795.7875366210938,784.5054931640625,780.4761962890625
1260,800.6226806640625,790.952392578125,793.7728881835938,782.893798828125
1261,797.8021850585938,790.952392578125,794.981689453125,790.952392578125
1262,803.8461303710938,796.5933837890625,790.5494384765625,792.967041015625
1263,807.87548828125,790.952392578125,796.996337890625,798.6080322265625
1264,806.2637329101562,788.5347900390625,800.6226806640625,803.040283203125
1265,804.2490844726562,790.952392578125,794.5787353515625,799.8168334960938
1266,805.4578857421875,796.996337890625,791.7582397460938,803.4432373046875
1267,799.010986328125,801.8314819335938,793.7728881835938,801.4285888671875
1268,791.3552856445312,796.1904907226562,795.3846435546875,786.923095703125
1269,794.981689453125,788.937744140625,799.8168334960938,792.5640869140625
1270,796.996337890625,789.3406372070312,797.3992919921875,799.010986328125
1271,796.1904907226562,786.1171875,792.967041015625,793.3699340820312
1272,797.8021850585938,788.1318969726562,791.7582397460938,794.981689453125
1273,796.996337890625,790.952392578125,793.3699340820312,799.8168334960938
1274,796.5933837890625,786.923095703125,795.7875366210938,796.996337890625
1275,796.5933837890625,791.7582397460938,793.3699340820312,793.3699340820312
1276,796.996337890625,794.981689453125,791.7582397460938,793.7728881835938
1277,795.3846435546875,793.3699340820312,792.1611938476562,797.3992919921875
1278,793.7728881835938,791.7582397460938,792.967041015625,800.6226806640625
1279,793.7728881835938,799.4139404296875,790.952392578125,797.3992919921875
1280,794.5787353515625,801.8314819335938,791.3552856445312,790.952392578125
1281,795.7875366210938,794.981689453125,796.1904907226562,793.7728881835938
1282,797.8021850585938,798.2051391601562,792.967041015625,796.1904907226562
1283,799.010986328125,803.8461303710938,795.7875366210938,796.996337890625
1284,792.967041015625,796.5933837890625,797.3992919921875,795.7875366210938
1285,786.923095703125,786.5201416015625,791.7582397460938,790.5494384765625
1286,788.1318969726562,789.7435913085938,793.3699340820312,791.3552856445312
1287,794.981689453125,796.1904907226562,796.1904907226562,790.5494384765625
1288,799.8168334960938,798.6080322265625,793.7728881835938,788.1318969726562
1289,797.8021850585938,796.996337890625,792.5640869140625,794.1758422851562
1290,797.3992919921875,799.010986328125,792.5640869140625,792.5640869140625
1291,800.6226806640625,794.1758422851562,792.967041015625,790.5494384765625
1292,801.8314819335938,794.1758422851562,792.967041015625,793.3699340820312
1293,796.5933837890625,792.1611938476562,792.1611938476562,783.6996459960938
1294,791.3552856445312,791.7582397460938,792.1611938476562,783.2966918945312
1295,798.6080322265625,797.8021850585938,792.5640869140625,790.1465454101562
1296,802.6373901367188,797.8021850585938,793.7728881835938,795.7875366210938
1297,794.981689453125,796.1904907226562,792.1611938476562,793.7728881835938
1298,788.937744140625,796.1904907226562,792.5640869140625,792.1611938476562
1299,790.5494384765625,792.967041015625,794.981689453125,790.5494384765625
1300,795.7875366210938,790.1465454101562,795.7875366210938,793.3699340820312
1301,801.4285888671875,795.3846435546875,795.3846435546875,796.996337890625
1302,801.025634765625,798.6080322265625,797.3992919921875,797.3992919921875
1303,799.8168334960938,796.1904907226562,793.7728881835938,790.1465454101562
1304,805.054931640625,786.5201416015625,786.5201416015625,785.7142944335938
1305,811.098876953125,791.7582397460938,784.908447265625,796.1904907226562
1306,808.6813354492188,798.2051391601562,789.7435913085938,793.7728881835938
1307,805.4578857421875,797.3992919921875,792.5640869140625,791.7582397460938
1308,805.054931640625,802.2344360351562,792.5640869140625,799.010986328125
1309,800.6226806640625,797.8021850585938,794.981689453125,801.025634765625
1310,798.6080322265625,794.1758422851562,799.4139404296875,801.8314819335938
1311,792.967041015625,786.923095703125,800.2197875976562,803.4432373046875
1312,787.7289428710938,784.908447265625,795.3846435546875,802.2344360351562
1313,791.7582397460938,789.7435913085938,799.010986328125,804.2490844726562
1314,791.3552856445312,790.5494384765625,796.5933837890625,802.2344360351562
1315,794.981689453125,791.3552856445312,790.952392578125,795.7875366210938
1316,801.4285888671875,786.5201416015625,794.981689453125,801.4285888671875
1317,796.5933837890625,788.5347900390625,798.6080322265625,801.025634765625
1318,795.7875366210938,793.7728881835938,799.4139404296875,797.8021850585938
1319,799.4139404296875,788.1318969726562,799.010986328125,802.6373901367188
1320,799.8168334960938,785.7142944335938,803.8461303710938,803.8461303710938
1321,790.5494384765625,792.1611938476562,798.6080322265625,794.5787353515625
1322,783.6996459960938,793.7728881835938,790.952392578125,788.5347900390625
1323,789.3406372070312,791.7582397460938,794.5787353515625,788.1318969726562
1324,788.937744140625,788.937744140625,796.1904907226562,787.3259887695312
1325,789.7435913085938,792.967041015625,799.8168334960938,796.5933837890625
1326,788.5347900390625,796.1904907226562,797.8021850585938,792.967041015625
1327,779.2673950195312,792.1611938476562,790.5494384765625,785.3113403320312
1328,782.4908447265625,792.1611938476562,787.7289428710938,793.7728881835938
1329,791.7582397460938,796.1904907226562,789.7435913085938,797.3992919921875
1330,796.5933837890625,789.3406372070312,795.3846435546875,797.3992919921875
1331,796.996337890625,783.6996459960938,790.952392578125,789.3406372070312
1332,796.1904907226562,790.5494384765625,785.7142944335938,782.087890625
1333,798.6080322265625,794.981689453125,790.952392578125,782.893798828125
1334,797.8021850585938,792.967041015625,792.967041015625,787.7289428710938
1335,796.5933837890625,787.3259887695312,794.981689453125,796.996337890625
1336,799.4139404296875,786.923095703125,799.8168334960938,802.2344360351562
1337,799.8168334960938,791.3552856445312,795.7875366210938,796.5933837890625
1338,789.7435913085938,797.3992919921875,792.967041015625,793.3699340820312
1339,788.1318969726562,791.3552856445312,789.7435913085938,799.8168334960938
1340,795.3846435546875,787.3259887695312,786.5201416015625,796.5933837890625
1341,794.981689453125,796.996337890625,790.1465454101562,785.3113403320312
1342,796.1904907226562,795.7875366210938,788.5347900390625,790.952392578125
1343,794.981689453125,794.1758422851562,791.3552856445312,795.3846435546875
1344,792.967041015625,796.996337890625,792.1611938476562,794.5787353515625
1345,795.3846435546875,794.981689453125,788.1318969726562,792.5640869140625
1346,797.8021850585938,789.7435913085938,791.3552856445312,788.1318969726562
1347,795.3846435546875,785.3113403320312,795.3846435546875,786.923095703125
1348,794.5787353515625,790.1465454101562,792.967041015625,787.7289428710938
1349,800.2197875976562,790.5494384765625,790.5494384765625,793.3699340820312
1350,803.040283203125,781.6849975585938,795.3846435546875,801.8314819335938
1351,801.025634765625,789.7435913085938,792.5640869140625,802.2344360351562
1352,797.8021850585938,796.1904907226562,794.1758422851562,797.8021850585938
1353,793.7728881835938,792.967041015625,797.8021850585938,790.952392578125
1354,792.5640869140625,788.937744140625,793.3699340820312,790.952392578125
1355,795.3846435546875,782.893798828125,793.3699340820312,793.3699340820312
1356,797.8021850585938,782.893798828125,799.4139404296875,792.967041015625
1357,794.981689453125,784.908447265625,798.2051391601562,791.7582397460938
1358,792.967041015625,786.923095703125,797.3992919921875,792.5640869140625
1359,790.952392578125,794.5787353515625,793.7728881835938,789.7435913085938
1360,792.1611938476562,795.3846435546875,794.5787353515625,790.952392578125
1361,795.3846435546875,785.7142944335938,792.5640869140625,787.3259887695312
1362,790.952392578125,785.7142944335938,785.7142944335938,790.1465454101562
1363,790.5494384765625,793.3699340820312,788.5347900390625,796.5933837890625
1364,791.7582397460938,796.996337890625,791.3552856445312,787.7289428710938
1365,792.1611938476562,792.967041015625,790.1465454101562,781.6849975585938
1366,793.7728881835938,791.3552856445312,790.1465454101562,784.5054931640625
1367,790.1465454101562,794.1758422851562,793.3699340820312,779.6703491210938
1368,789.3406372070312,786.1171875,790.952392578125,777.2527465820312
1369,795.3846435546875,784.908447265625,788.1318969726562,788.937744140625
1370,794.5787353515625,790.5494384765625,786.923095703125,789.7435913085938
1371,792.1611938476562,791.7582397460938,789.7435913085938,782.087890625
1372,795.3846435546875,798.2051391601562,788.937744140625,789.3406372070312
1373,799.4139404296875,797.8021850585938,790.5494384765625,800.2197875976562
1374,803.8461303710938,794.981689453125,793.3699340820312,806.6666870117188
1375,805.4578857421875,799.4139404296875,791.7582397460938,802.2344360351562
1376,802.6373901367188,801.4285888671875,791.7582397460938,797.3992919921875
1377,799.010986328125,799.4139404296875,786.1171875,799.010986328125
1378,795.3846435546875,795.7875366210938,789.7435913085938,797.8021850585938
1379,799.010986328125,794.1758422851562,799.4139404296875,796.5933837890625
1380,804.6520385742188,793.7728881835938,798.6080322265625,794.1758422851562
1381,801.025634765625,792.5640869140625,797.8021850585938,791.3552856445312
1382,799.8168334960938,796.5933837890625,800.6226806640625,797.8021850585938
1383,800.2197875976562,799.4139404296875,798.6080322265625,796.996337890625
1384,801.025634765625,796.1904907226562,793.3699340820312,791.3552856445312
1385,805.4578857421875,792.1611938476562,792.5640869140625,790.952392578125
1386,801.4285888671875,794.981689453125,792.5640869140625,784.5054931640625
1387,790.952392578125,797.3992919921875,793.3699340820312,778.4615478515625
1388,796.1904907226562,795.7875366210938,796.5933837890625,787.7289428710938
1389,799.8168334960938,797.3992919921875,797.3992919921875,792.5640869140625
1390,795.7875366210938,797.3992919921875,793.7728881835938,794.981689453125
1391,796.996337890625,797.3992919921875,795.3846435546875,799.010986328125
1392,794.5787353515625,792.1611938476562,799.8168334960938,803.4432373046875
1393,789.7435913085938,787.7289428710938,792.5640869140625,800.2197875976562
1394,792.5640869140625,793.7728881835938,792.1611938476562,799.8168334960938
1395,793.7728881835938,796.5933837890625,794.981689453125,797.8021850585938
1396,791.3552856445312,792.5640869140625,791.3552856445312,787.7289428710938
1397,790.5494384765625,791.7582397460938,796.1904907226562,791.3552856445312
1398,788.5347900390625,787.3259887695312,796.5933837890625,790.1465454101562
1399,785.3113403320312,788.1318969726562,793.3699340820312,782.4908447265625
1400,785.7142944335938,792.5640869140625,790.952392578125,781.2820434570312
1401,784.1025390625,789.7435913085938,788.1318969726562,784.5054931640625
1402,784.908447265625,792.5640869140625,788.1318969726562,786.5201416015625
1403,786.5201416015625,790.1465454101562,787.7289428710938,786.5201416015625
1404,786.923095703125,785.3113403320312,789.7435913085938,786.1171875
1405,788.5347900390625,787.3259887695312,788.5347900390625,778.4615478515625
1406,787.7289428710938,791.7582397460938,788.5347900390625,772.8204956054688
1407,794.1758422851562,794.1758422851562,793.3699340820312,777.2527465820312
1408,788.937744140625,790.952392578125,788.937744140625,784.1025390625
1409,785.7142944335938,787.3259887695312,784.1025390625,782.4908447265625
1410,788.5347900390625,780.879150390625,788.1318969726562,778.4615478515625
1411,787.7289428710938,780.0732421875,787.3259887695312,779.2673950195312
1412,788.937744140625,784.908447265625,781.6849975585938,782.893798828125
1413,788.937744140625,783.6996459960938,788.5347900390625,787.7289428710938
1414,791.3552856445312,785.7142944335938,791.7582397460938,789.3406372070312
1415,792.5640869140625,791.7582397460938,786.5201416015625,791.3552856445312
1416,794.981689453125,790.1465454101562,792.1611938476562,790.952392578125
1417,790.5494384765625,787.7289428710938,794.1758422851562,794.5787353515625
1418,781.6849975585938,782.087890625,786.923095703125,788.1318969726562
1419,785.7142944335938,781.2820434570312,787.3259887695312,779.6703491210938
1420,789.3406372070312,785.7142944335938,792.5640869140625,780.4761962890625
1421,786.923095703125,784.908447265625,789.7435913085938,776.8497924804688
1422,784.908447265625,782.893798828125,787.3259887695312,775.2380981445312
1423,787.3259887695312,786.1171875,790.952392578125,787.7289428710938
1424,788.1318969726562,786.923095703125,791.3552856445312,796.1904907226562
1425,785.7142944335938,788.1318969726562,789.7435913085938,792.1611938476562
1426,788.937744140625,788.5347900390625,792.967041015625,798.6080322265625
1427,792.967041015625,786.5201416015625,796.5933837890625,799.8168334960938
1428,791.3552856445312,794.1758422851562,791.3552856445312,791.7582397460938
1429,787.3259887695312,795.3846435546875,789.3406372070312,784.5054931640625
1430,786.923095703125,791.3552856445312,789.7435913085938,789.7435913085938
1431,794.981689453125,791.3552856445312,792.5640869140625,799.8168334960938
1432,793.3699340820312,796.5933837890625,794.1758422851562,794.981689453125
1433,785.7142944335938,795.7875366210938,794.5787353515625,787.3259887695312
1434,792.1611938476562,791.3552856445312,797.3992919921875,790.1465454101562
1435,797.8021850585938,792.1611938476562,802.2344360351562,793.3699340820312
1436,795.3846435546875,793.3699340820312,798.2051391601562,787.7289428710938
1437,795.7875366210938,794.1758422851562,790.5494384765625,788.5347900390625
1438,797.3992919921875,793.3699340820312,793.3699340820312,791.3552856445312
1439,796.1904907226562,794.5787353515625,798.6080322265625,795.3846435546875
1440,795.3846435546875,798.2051391601562,798.6080322265625,794.981689453125
1441,798.2051391601562,796.1904907226562,797.3992919921875,788.937744140625
1442,804.6520385742188,793.7728881835938,794.981689453125,790.952392578125
1443,805.4578857421875,792.1611938476562,792.967041015625,799.010986328125
1444,799.8168334960938,797.3992919921875,797.3992919921875,797.3992919921875
1445,794.1758422851562,800.2197875976562,798.2051391601562,790.1465454101562
1446,791.7582397460938,793.3699340820312,792.5640869140625,790.1465454101562
1447,793.7728881835938,788.937744140625,793.3699340820312,796.5933837890625
1448,795.3846435546875,794.5787353515625,792.967041015625,792.1611938476562
1449,798.6080322265625,797.8021850585938,794.981689453125,786.923095703125
1450,798.2051391601562,793.7728881835938,797.3992919921875,789.7435913085938
1451,799.8168334960938,792.5640869140625,792.967041015625,788.1318969726562
1452,800.2197875976562,790.952392578125,792.967041015625,779.2673950195312
1453,800.2197875976562,792.5640869140625,797.3992919921875,781.6849975585938
1454,803.4432373046875,794.981689453125,799.8168334960938,786.1171875
1455,796.5933837890625,794.981689453125,792.1611938476562,780.879150390625
1456,793.3699340820312,802.2344360351562,790.952392578125,790.1465454101562
1457,801.4285888671875,803.4432373046875,793.3699340820312,795.3846435546875
1458,806.2637329101562,794.981689453125,788.937744140625,799.010986328125
1459,807.87548828125,790.952392578125,796.996337890625,807.069580078125
1460,804.2490844726562,790.952392578125,797.8021850585938,797.8021850585938
1461,801.025634765625,792.5640869140625,792.967041015625,793.7728881835938
1462,801.8314819335938,790.952392578125,796.1904907226562,799.4139404296875
1463,801.4285888671875,794.1758422851562,793.7728881835938,798.6080322265625
1464,802.2344360351562,795.7875366210938,794.5787353515625,801.4285888671875
1465,803.4432373046875,794.5787353515625,798.6080322265625,802.6373901367188
1466,803.040283203125,792.967041015625,793.3699340820312,801.025634765625
1467,805.8607788085938,796.5933837890625,794.1758422851562,803.4432373046875
1468,807.069580078125,798.2051391601562,801.8314819335938,801.8314819335938
1469,807.87548828125,794.981689453125,796.5933837890625,808.2783813476562
1470,809.89013671875,792.967041015625,794.1758422851562,814.3223266601562
1471,805.8607788085938,790.1465454101562,795.7875366210938,799.4139404296875
1472,804.2490844726562,794.5787353515625,798.2051391601562,789.7435913085938
1473,800.2197875976562,792.5640869140625,794.1758422851562,792.5640869140625
1474,801.025634765625,796.5933837890625,792.5640869140625,795.7875366210938
1475,803.8461303710938,804.6520385742188,794.981689453125,803.4432373046875
1476,799.010986328125,799.4139404296875,792.5640869140625,807.4725341796875
1477,803.040283203125,798.6080322265625,794.5787353515625,808.2783813476562
1478,803.8461303710938,803.040283203125,797.3992919921875,806.2637329101562
1479,798.2051391601562,797.3992919921875,800.2197875976562,805.4578857421875
1480,796.1904907226562,792.967041015625,801.4285888671875,809.084228515625
1481,790.952392578125,788.1318969726562,799.4139404296875,809.89013671875
1482,787.7289428710938,787.7289428710938,798.6080322265625,809.89013671875
1483,788.937744140625,796.1904907226562,798.2051391601562,802.6373901367188
1484,791.3552856445312,796.5933837890625,794.1758422851562,794.5787353515625
1485,793.3699340820312,792.1611938476562,795.7875366210938,794.1758422851562
1486,792.1611938476562,791.3552856445312,794.981689453125,792.967041015625
1487,792.1611938476562,794.5787353515625,791.3552856445312,790.5494384765625
1488,789.7435913085938,790.1465454101562,791.7582397460938,793.3699340820312
1489,789.7435913085938,781.2820434570312,791.3552856445312,796.5933837890625
1490,793.3699340820312,785.3113403320312,792.967041015625,796.1904907226562
1491,797.3992919921875,790.1465454101562,792.1611938476562,792.967041015625
1492,797.8021850585938,787.3259887695312,790.5494384765625,794.1758422851562
1493,793.3699340820312,784.908447265625,796.996337890625,804.2490844726562
1494,789.3406372070312,786.923095703125,804.6520385742188,804.2490844726562
1495,790.1465454101562,790.952392578125,804.6520385742188,795.7875366210938
1496,793.3699340820312,794.5787353515625,802.2344360351562,794.5787353515625
1497,793.7728881835938,798.2051391601562,797.8021850585938,795.3846435546875
1498,792.1611938476562,795.7875366210938,794.5787353515625,793.7728881835938
1499,796.996337890625,795.3846435546875,797.8021850585938,790.952392578125
1500,805.8607788085938,798.2051391601562,794.981689453125,789.3406372070312
1501,804.6520385742188,799.4139404296875,792.5640869140625,783.2966918945312
1502,805.054931640625,799.010986328125,798.6080322265625,779.2673950195312
1503,805.054931640625,805.054931640625,800.6226806640625,783.6996459960938
1504,799.8168334960938,799.8168334960938,793.3699340820312,794.1758422851562
1505,794.5787353515625,795.7875366210938,788.1318969726562,798.2051391601562
1506,793.3699340820312,803.040283203125,792.1611938476562,798.2051391601562
1507,791.7582397460938,803.8461303710938,792.5640869140625,801.8314819335938
1508,788.5347900390625,799.010986328125,794.5787353515625,798.6080322265625
1509,789.3406372070312,791.7582397460938,797.3992919921875,793.7728881835938
1510,801.4285888671875,794.5787353515625,797.8021850585938,791.7582397460938
1511,811.5018310546875,800.6226806640625,801.4285888671875,792.5640869140625
1512,808.2783813476562,804.2490844726562,802.6373901367188,796.996337890625
1513,801.4285888671875,807.069580078125,801.4285888671875,792.967041015625
1514,801.025634765625,806.2637329101562,797.3992919921875,791.3552856445312
1515,800.2197875976562,801.8314819335938,799.010986328125,794.1758422851562
1516,796.5933837890625,794.5787353515625,796.5933837890625,794.5787353515625
1517,796.5933837890625,790.952392578125,792.5640869140625,801.025634765625
1518,799.010986328125,792.1611938476562,785.3113403320312,796.996337890625
1519,802.6373901367188,797.8021850585938,786.1171875,792.5640869140625
1520,801.025634765625,796.996337890625,794.981689453125,800.6226806640625
1521,799.4139404296875,792.967041015625,799.010986328125,794.1758422851562
1522,796.5933837890625,795.3846435546875,796.1904907226562,785.7142944335938
1523,784.1025390625,795.7875366210938,793.7728881835938,795.3846435546875
1524,785.7142944335938,795.7875366210938,795.3846435546875,807.069580078125
1525,800.2197875976562,790.1465454101562,800.2197875976562,815.93408203125
1526,804.6520385742188,792.967041015625,799.010986328125,815.5311279296875
1527,796.996337890625,806.2637329101562,794.1758422851562,806.6666870117188
1528,794.1758422851562,805.4578857421875,797.3992919921875,803.4432373046875
1529,790.952392578125,797.8021850585938,795.7875366210938,799.4139404296875
1530,784.1025390625,794.981689453125,791.3552856445312,786.923095703125
1531,785.7142944335938,796.996337890625,789.7435913085938,794.5787353515625
1532,790.952392578125,803.8461303710938,789.3406372070312,811.098876953125
1533,788.1318969726562,804.2490844726562,783.6996459960938,797.3992919921875
1534,789.3406372070312,803.040283203125,786.1171875,792.5640869140625
1535,790.1465454101562,803.8461303710938,782.893798828125,788.937744140625
1536,792.5640869140625,802.2344360351562,778.8644409179688,779.6703491210938
1537,794.5787353515625,802.6373901367188,782.087890625,776.8497924804688
1538,792.967041015625,802.2344360351562,781.6849975585938,782.4908447265625
1539,796.1904907226562,798.6080322265625,781.2820434570312,790.1465454101562
1540,798.6080322265625,796.5933837890625,782.893798828125,788.5347900390625
1541,800.6226806640625,796.996337890625,787.7289428710938,791.7582397460938
1542,803.040283203125,796.1904907226562,789.7435913085938,801.8314819335938
1543,807.87548828125,801.4285888671875,795.7875366210938,810.2930297851562
1544,806.6666870117188,798.2051391601562,795.7875366210938,803.8461303710938
1545,807.069580078125,788.937744140625,796.996337890625,797.3992919921875
1546,809.4871826171875,792.5640869140625,797.3992919921875,801.4285888671875
1547,805.4578857421875,796.1904907226562,789.3406372070312,795.3846435546875
1548,798.2051391601562,794.5787353515625,792.5640869140625,786.923095703125
1549,792.1611938476562,788.1318969726562,792.967041015625,782.087890625
1550,792.5640869140625,785.3113403320312,795.7875366210938,776.4468994140625
1551,798.6080322265625,790.952392578125,792.967041015625,784.908447265625
1552,798.2051391601562,784.1025390625,790.1465454101562,796.5933837890625
1553,793.7728881835938,780.4761962890625,795.7875366210938,799.010986328125
1554,797.8021850585938,790.1465454101562,795.7875366210938,800.6226806640625
1555,794.981689453125,792.1611938476562,798.2051391601562,795.3846435546875
1556,790.952392578125,788.1318969726562,797.3992919921875,780.879150390625
1557,793.7728881835938,783.6996459960938,794.5787353515625,778.8644409179688
1558,796.1904907226562,789.7435913085938,793.7728881835938,781.6849975585938
1559,799.010986328125,801.4285888671875,800.6226806640625,789.7435913085938
1560,791.3552856445312,801.4285888671875,800.6226806640625,786.1171875
1561,784.908447265625,790.5494384765625,792.1611938476562,780.0732421875
1562,791.7582397460938,788.1318969726562,794.1758422851562,784.5054931640625
1563,796.996337890625,786.1171875,789.7435913085938,778.8644409179688
1564,797.8021850585938,791.3552856445312,786.923095703125,776.0439453125
1565,796.5933837890625,795.3846435546875,791.3552856445312,778.8644409179688
1566,794.5787353515625,792.5640869140625,785.3113403320312,784.1025390625
1567,794.5787353515625,791.3552856445312,782.4908447265625,784.908447265625
1568,795.7875366210938,791.3552856445312,790.1465454101562,786.5201416015625
1569,797.3992919921875,797.8021850585938,789.7435913085938,793.3699340820312
1570,801.4285888671875,799.4139404296875,793.3699340820312,796.5933837890625
1571,798.6080322265625,792.1611938476562,794.5787353515625,786.923095703125
1572,793.7728881835938,788.1318969726562,790.952392578125,776.0439453125
1573,792.967041015625,790.952392578125,788.5347900390625,781.6849975585938
1574,795.3846435546875,788.937744140625,791.3552856445312,786.923095703125
1575,793.7728881835938,782.087890625,797.3992919921875,788.5347900390625
1576,792.5640869140625,785.7142944335938,794.1758422851562,792.1611938476562
1577,798.2051391601562,794.5787353515625,793.7728881835938,800.2197875976562
1578,796.996337890625,792.967041015625,803.4432373046875,803.8461303710938
1579,786.1171875,790.5494384765625,801.8314819335938,788.1318969726562
