timestamp,RAW_TP9,RAW_AF7,RAW_AF8,RAW_TP10
1,797.8021850585938,796.996337890625,795.3846435546875,791.7582397460938
2,795.3846435546875,795.7875366210938,794.1758422851562,788.937744140625
3,795.7875366210938,794.5787353515625,790.5494384765625,788.5347900390625
4,799.4139404296875,792.1611938476562,792.967041015625,799.010986328125
5,794.5787353515625,798.6080322265625,794.5787353515625,801.025634765625
6,788.5347900390625,802.2344360351562,794.5787353515625,795.7875366210938
7,793.3699340820312,799.8168334960938,795.3846435546875,797.8021850585938
8,796.5933837890625,795.7875366210938,798.6080322265625,799.8168334960938
9,791.3552856445312,794.1758422851562,800.2197875976562,791.7582397460938
10,788.5347900390625,791.3552856445312,800.6226806640625,789.3406372070312
11,784.908447265625,786.1171875,799.010986328125,801.8314819335938
12,784.1025390625,789.7435913085938,800.6226806640625,804.6520385742188
13,785.7142944335938,790.1465454101562,800.6226806640625,793.7728881835938
14,794.1758422851562,794.981689453125,803.4432373046875,796.5933837890625
15,798.2051391601562,789.3406372070312,803.8461303710938,796.1904907226562
16,792.5640869140625,780.4761962890625,802.6373901367188,793.7728881835938
17,790.952392578125,783.6996459960938,799.010986328125,796.996337890625
18,794.981689453125,789.7435913085938,793.7728881835938,797.3992919921875
19,799.010986328125,793.7728881835938,796.1904907226562,802.6373901367188
20,798.2051391601562,788.937744140625,796.5933837890625,801.8314819335938
21,794.981689453125,792.5640869140625,795.7875366210938,786.5201416015625
22,794.981689453125,794.1758422851562,792.5640869140625,787.3259887695312
23,797.8021850585938,790.5494384765625,791.3552856445312,792.5640869140625
24,796.1904907226562,795.3846435546875,792.5640869140625,786.1171875
25,794.981689453125,800.6226806640625,791.3552856445312,781.2820434570312
26,799.010986328125,799.4139404296875,793.3699340820312,782.4908447265625
27,799.4139404296875,797.3992919921875,791.7582397460938,783.6996459960938
28,796.996337890625,796.996337890625,791.3552856445312,788.5347900390625
29,796.1904907226562,799.010986328125,793.3699340820312,788.5347900390625
30,798.6080322265625,803.8461303710938,794.1758422851562,788.5347900390625
31,801.025634765625,803.8461303710938,792.1611938476562,796.1904907226562
32,796.1904907226562,798.6080322265625,794.1758422851562,798.6080322265625
33,794.1758422851562,793.7728881835938,797.3992919921875,797.3992919921875
34,798.6080322265625,791.7582397460938,795.7875366210938,805.054931640625
35,799.010986328125,794.1758422851562,797.8021850585938,805.8607788085938
36,799.4139404296875,797.8021850585938,804.2490844726562,804.2490844726562
37,799.8168334960938,801.025634765625,803.040283203125,800.2197875976562
38,795.7875366210938,797.3992919921875,800.2197875976562,801.4285888671875
39,790.5494384765625,793.3699340820312,801.4285888671875,796.996337890625
40,788.937744140625,791.3552856445312,805.054931640625,788.5347900390625
41,789.7435913085938,791.3552856445312,803.8461303710938,790.5494384765625
42,792.1611938476562,792.1611938476562,794.5787353515625,789.3406372070312
43,788.5347900390625,790.5494384765625,796.1904907226562,783.2966918945312
44,783.2966918945312,786.1171875,799.8168334960938,783.6996459960938
45,786.1171875,782.893798828125,800.2197875976562,786.1171875
46,786.923095703125,790.1465454101562,800.6226806640625,799.4139404296875
47,785.3113403320312,794.5787353515625,799.8168334960938,804.2490844726562
48,784.1025390625,789.3406372070312,796.1904907226562,790.1465454101562
49,793.3699340820312,795.3846435546875,794.1758422851562,780.879150390625
50,802.2344360351562,805.054931640625,796.1904907226562,789.7435913085938
51,797.8021850585938,802.6373901367188,794.5787353515625,790.952392578125
52,793.3699340820312,793.7728881835938,794.5787353515625,780.879150390625
53,796.996337890625,799.8168334960938,796.5933837890625,783.6996459960938
54,799.8168334960938,798.2051391601562,789.3406372070312,786.5201416015625
55,798.6080322265625,794.981689453125,787.7289428710938,784.1025390625
56,792.1611938476562,799.8168334960938,791.3552856445312,784.1025390625
57,788.937744140625,796.996337890625,790.1465454101562,787.3259887695312
58,795.7875366210938,796.1904907226562,788.1318969726562,798.2051391601562
59,796.1904907226562,795.7875366210938,789.7435913085938,795.7875366210938
60,791.3552856445312,793.3699340820312,790.1465454101562,784.908447265625
61,795.7875366210938,796.1904907226562,792.5640869140625,787.3259887695312
62,798.6080322265625,801.025634765625,793.3699340820312,790.952392578125
63,793.7728881835938,797.8021850585938,786.5201416015625,790.5494384765625
64,796.996337890625,796.1904907226562,787.3259887695312,797.8021850585938
65,805.8607788085938,794.5787353515625,789.7435913085938,808.6813354492188
66,805.4578857421875,798.2051391601562,787.3259887695312,808.2783813476562
67,799.4139404296875,799.8168334960938,789.3406372070312,798.2051391601562
68,793.3699340820312,796.5933837890625,791.7582397460938,787.7289428710938
69,796.1904907226562,792.5640869140625,789.3406372070312,788.5347900390625
70,801.4285888671875,789.7435913085938,787.3259887695312,793.3699340820312
71,796.1904907226562,793.3699340820312,790.952392578125,792.967041015625
72,790.5494384765625,796.5933837890625,791.7582397460938,793.7728881835938
73,789.3406372070312,795.7875366210938,788.937744140625,795.3846435546875
74,792.1611938476562,794.5787353515625,787.3259887695312,793.3699340820312
75,794.5787353515625,794.981689453125,791.7582397460938,794.1758422851562
76,792.5640869140625,793.7728881835938,790.1465454101562,794.5787353515625
77,802.2344360351562,793.7728881835938,788.937744140625,796.5933837890625
78,803.8461303710938,787.3259887695312,790.5494384765625,798.6080322265625
79,797.8021850585938,791.3552856445312,792.967041015625,791.7582397460938
80,802.2344360351562,801.025634765625,795.3846435546875,794.981689453125
81,800.2197875976562,795.7875366210938,792.1611938476562,802.6373901367188
82,792.5640869140625,797.3992919921875,797.8021850585938,799.4139404296875
83,792.1611938476562,800.2197875976562,801.025634765625,801.025634765625
84,796.5933837890625,795.7875366210938,797.3992919921875,804.6520385742188
85,799.8168334960938,792.967041015625,794.981689453125,801.8314819335938
86,792.967041015625,790.1465454101562,790.5494384765625,785.7142944335938
87,785.7142944335938,789.3406372070312,786.923095703125,776.0439453125
88,785.3113403320312,788.937744140625,786.5201416015625,785.3113403320312
89,788.5347900390625,787.3259887695312,791.3552856445312,798.6080322265625
90,789.3406372070312,782.087890625,792.967041015625,799.010986328125
91,790.5494384765625,784.908447265625,794.1758422851562,792.967041015625
92,784.5054931640625,784.908447265625,789.3406372070312,788.1318969726562
93,778.8644409179688,783.2966918945312,785.3113403320312,788.5347900390625
94,779.2673950195312,790.5494384765625,788.937744140625,787.3259887695312
95,776.0439453125,792.967041015625,788.937744140625,786.1171875
96,779.6703491210938,790.5494384765625,785.3113403320312,785.3113403320312
97,782.893798828125,790.952392578125,782.087890625,777.6557006835938
98,781.6849975585938,790.1465454101562,787.7289428710938,770.4029541015625
99,786.923095703125,788.937744140625,786.923095703125,770.0
100,793.7728881835938,790.1465454101562,786.5201416015625,775.6410522460938
101,791.3552856445312,789.3406372070312,792.5640869140625,781.6849975585938
102,788.5347900390625,789.3406372070312,791.3552856445312,789.7435913085938
103,790.1465454101562,788.937744140625,794.5787353515625,780.879150390625
104,787.7289428710938,786.1171875,790.952392578125,780.4761962890625
105,789.3406372070312,788.1318969726562,790.5494384765625,783.6996459960938
106,795.7875366210938,794.981689453125,797.3992919921875,783.6996459960938
107,795.3846435546875,791.7582397460938,792.5640869140625,784.908447265625
108,794.5787353515625,790.1465454101562,794.1758422851562,792.5640869140625
109,794.1758422851562,794.981689453125,796.1904907226562,791.7582397460938
110,792.1611938476562,794.5787353515625,790.5494384765625,786.923095703125
111,791.7582397460938,794.5787353515625,787.7289428710938,792.967041015625
112,793.7728881835938,794.981689453125,787.3259887695312,792.967041015625
113,797.8021850585938,792.1611938476562,787.3259887695312,794.5787353515625
114,799.010986328125,794.5787353515625,787.3259887695312,800.6226806640625
115,792.967041015625,795.7875366210938,792.5640869140625,803.040283203125
116,793.7728881835938,791.7582397460938,794.1758422851562,805.4578857421875
117,795.3846435546875,795.3846435546875,794.1758422851562,800.2197875976562
118,792.967041015625,799.010986328125,790.5494384765625,796.996337890625
119,794.981689453125,796.1904907226562,790.5494384765625,792.5640869140625
120,799.4139404296875,793.7728881835938,789.3406372070312,792.5640869140625
121,801.8314819335938,795.3846435546875,792.1611938476562,797.8021850585938
122,799.8168334960938,796.996337890625,797.3992919921875,795.3846435546875
123,796.996337890625,800.2197875976562,795.3846435546875,789.7435913085938
124,792.1611938476562,795.7875366210938,793.3699340820312,789.7435913085938
125,797.3992919921875,793.7728881835938,794.5787353515625,799.8168334960938
126,800.6226806640625,794.5787353515625,796.1904907226562,801.025634765625
127,797.3992919921875,794.5787353515625,794.5787353515625,801.8314819335938
128,800.2197875976562,798.2051391601562,795.7875366210938,805.4578857421875
129,801.025634765625,801.8314819335938,796.5933837890625,800.6226806640625
130,801.4285888671875,801.025634765625,794.1758422851562,799.8168334960938
131,801.025634765625,794.5787353515625,794.981689453125,807.87548828125
132,787.7289428710938,790.5494384765625,795.3846435546875,794.981689453125
133,786.923095703125,788.1318969726562,792.1611938476562,790.1465454101562
134,794.1758422851562,784.5054931640625,792.5640869140625,800.6226806640625
135,790.952392578125,790.5494384765625,789.7435913085938,800.2197875976562
136,792.1611938476562,790.952392578125,788.1318969726562,793.7728881835938
137,793.3699340820312,788.5347900390625,788.937744140625,791.3552856445312
138,790.1465454101562,790.5494384765625,784.908447265625,794.5787353515625
139,786.5201416015625,790.952392578125,786.923095703125,788.1318969726562
140,784.5054931640625,799.010986328125,788.5347900390625,778.8644409179688
141,790.5494384765625,804.2490844726562,792.5640869140625,780.0732421875
142,792.5640869140625,798.2051391601562,795.3846435546875,785.7142944335938
143,789.7435913085938,793.7728881835938,796.5933837890625,794.5787353515625
144,790.1465454101562,796.5933837890625,801.4285888671875,794.5787353515625
145,791.3552856445312,796.996337890625,802.2344360351562,791.7582397460938
146,795.3846435546875,790.5494384765625,800.6226806640625,795.3846435546875
147,792.5640869140625,786.923095703125,798.2051391601562,799.8168334960938
148,791.3552856445312,790.5494384765625,796.1904907226562,792.967041015625
149,788.937744140625,793.7728881835938,795.7875366210938,788.5347900390625
150,784.5054931640625,789.7435913085938,799.8168334960938,796.1904907226562
151,791.7582397460938,790.5494384765625,804.6520385742188,796.5933837890625
152,792.967041015625,796.996337890625,802.2344360351562,788.1318969726562
153,789.7435913085938,798.6080322265625,797.3992919921875,784.908447265625
154,789.3406372070312,794.981689453125,794.981689453125,790.952392578125
155,788.5347900390625,789.7435913085938,792.967041015625,782.893798828125
156,793.7728881835938,793.7728881835938,793.3699340820312,775.2380981445312
157,794.5787353515625,796.5933837890625,794.1758422851562,780.879150390625
158,793.3699340820312,790.952392578125,794.1758422851562,786.923095703125
159,790.5494384765625,792.5640869140625,798.2051391601562,786.1171875
160,788.1318969726562,801.4285888671875,799.8168334960938,786.5201416015625
161,786.5201416015625,801.4285888671875,800.2197875976562,787.3259887695312
162,782.893798828125,797.3992919921875,799.4139404296875,782.087890625
163,785.3113403320312,796.5933837890625,796.996337890625,784.908447265625
164,783.2966918945312,795.7875366210938,799.8168334960938,788.937744140625
165,780.879150390625,797.3992919921875,795.7875366210938,784.908447265625
166,784.908447265625,801.4285888671875,792.5640869140625,788.5347900390625
167,786.1171875,801.4285888671875,794.981689453125,788.5347900390625
168,782.4908447265625,796.5933837890625,790.5494384765625,782.087890625
169,780.879150390625,794.5787353515625,795.3846435546875,777.6557006835938
170,782.087890625,793.7728881835938,800.6226806640625,775.2380981445312
171,783.2966918945312,794.981689453125,796.1904907226562,771.2088012695312
172,780.0732421875,790.952392578125,796.1904907226562,771.2088012695312
173,782.087890625,786.923095703125,799.8168334960938,785.3113403320312
174,780.4761962890625,787.7289428710938,799.4139404296875,784.5054931640625
175,778.4615478515625,791.3552856445312,803.040283203125,777.6557006835938
176,785.3113403320312,799.4139404296875,799.4139404296875,782.4908447265625
177,794.5787353515625,800.6226806640625,794.1758422851562,790.952392578125
178,796.996337890625,798.2051391601562,794.5787353515625,787.3259887695312
179,792.967041015625,800.2197875976562,792.967041015625,780.4761962890625
180,797.8021850585938,799.4139404296875,791.7582397460938,779.2673950195312
181,800.2197875976562,799.8168334960938,793.7728881835938,786.1171875
182,796.996337890625,796.5933837890625,792.5640869140625,788.1318969726562
183,795.7875366210938,792.1611938476562,789.3406372070312,787.7289428710938
184,799.4139404296875,793.3699340820312,788.1318969726562,796.1904907226562
185,803.040283203125,790.952392578125,789.7435913085938,799.4139404296875
186,800.6226806640625,788.5347900390625,792.5640869140625,795.7875366210938
187,799.010986328125,790.5494384765625,797.3992919921875,796.1904907226562
188,794.981689453125,790.1465454101562,796.1904907226562,797.3992919921875
189,789.7435913085938,785.3113403320312,788.5347900390625,796.5933837890625
190,784.5054931640625,783.6996459960938,790.1465454101562,787.7289428710938
191,782.893798828125,783.6996459960938,791.3552856445312,786.923095703125
192,788.937744140625,793.7728881835938,794.1758422851562,792.1611938476562
193,784.908447265625,801.025634765625,792.1611938476562,788.1318969726562
194,782.893798828125,799.8168334960938,792.967041015625,787.7289428710938
195,786.1171875,794.1758422851562,794.981689453125,787.7289428710938
196,787.3259887695312,791.3552856445312,789.3406372070312,784.5054931640625
197,786.923095703125,790.5494384765625,790.952392578125,784.908447265625
198,784.908447265625,788.937744140625,789.3406372070312,782.893798828125
199,783.6996459960938,794.1758422851562,787.3259887695312,780.4761962890625
200,784.5054931640625,793.3699340820312,788.937744140625,787.7289428710938
201,787.7289428710938,788.1318969726562,790.952392578125,792.5640869140625
202,784.908447265625,785.3113403320312,795.7875366210938,790.5494384765625
203,787.3259887695312,792.5640869140625,798.2051391601562,793.3699340820312
204,795.3846435546875,794.5787353515625,795.7875366210938,793.3699340820312
205,791.7582397460938,788.937744140625,793.7728881835938,788.1318969726562
206,786.5201416015625,792.5640869140625,793.3699340820312,784.1025390625
207,793.7728881835938,793.3699340820312,789.3406372070312,786.1171875
208,801.4285888671875,796.996337890625,789.3406372070312,796.1904907226562
209,801.4285888671875,797.8021850585938,790.5494384765625,793.7728881835938
210,804.2490844726562,794.5787353515625,790.952392578125,793.3699340820312
211,804.2490844726562,792.1611938476562,788.1318969726562,799.010986328125
212,808.6813354492188,792.5640869140625,785.7142944335938,805.4578857421875
213,813.113525390625,799.8168334960938,791.7582397460938,801.025634765625
214,811.5018310546875,800.6226806640625,792.5640869140625,794.1758422851562
215,807.87548828125,798.2051391601562,792.1611938476562,797.8021850585938
216,803.4432373046875,791.7582397460938,793.7728881835938,799.4139404296875
217,803.4432373046875,787.7289428710938,799.010986328125,790.1465454101562
218,803.8461303710938,794.981689453125,797.3992919921875,790.952392578125
219,795.7875366210938,796.5933837890625,794.5787353515625,799.010986328125
220,794.981689453125,796.1904907226562,797.8021850585938,798.2051391601562
221,797.8021850585938,797.3992919921875,796.5933837890625,791.7582397460938
222,799.010986328125,797.8021850585938,791.7582397460938,793.7728881835938
223,809.89013671875,797.8021850585938,788.1318969726562,804.6520385742188
224,810.2930297851562,797.3992919921875,791.3552856445312,809.4871826171875
225,796.5933837890625,797.3992919921875,797.8021850585938,801.4285888671875
226,782.087890625,796.996337890625,797.3992919921875,789.7435913085938
227,780.4761962890625,792.5640869140625,792.5640869140625,784.1025390625
228,789.3406372070312,794.1758422851562,790.952392578125,783.6996459960938
229,798.2051391601562,796.5933837890625,794.5787353515625,792.5640869140625
230,804.6520385742188,793.3699340820312,797.8021850585938,803.4432373046875
231,804.2490844726562,797.3992919921875,795.3846435546875,815.1282348632812
232,796.1904907226562,800.2197875976562,799.010986328125,811.90478515625
233,802.6373901367188,796.996337890625,802.2344360351562,816.3369750976562
234,810.6959838867188,790.952392578125,800.6226806640625,826.00732421875
235,808.2783813476562,792.1611938476562,800.2197875976562,818.3516235351562
236,809.084228515625,792.5640869140625,797.8021850585938,809.084228515625
237,805.054931640625,782.4908447265625,794.1758422851562,796.996337890625
238,805.4578857421875,786.923095703125,791.3552856445312,801.8314819335938
239,804.2490844726562,792.1611938476562,795.7875366210938,811.90478515625
240,800.2197875976562,788.937744140625,799.010986328125,807.87548828125
241,804.2490844726562,784.1025390625,800.2197875976562,811.90478515625
242,804.2490844726562,788.937744140625,798.6080322265625,819.96337890625
243,802.2344360351562,788.937744140625,790.1465454101562,815.1282348632812
244,804.2490844726562,782.4908447265625,792.1611938476562,809.084228515625
245,807.4725341796875,791.7582397460938,797.3992919921875,816.7399291992188
246,804.2490844726562,795.7875366210938,799.8168334960938,817.1428833007812
247,799.4139404296875,790.5494384765625,802.2344360351562,804.2490844726562
248,804.6520385742188,796.1904907226562,800.6226806640625,801.025634765625
249,812.3076782226562,801.025634765625,798.2051391601562,807.4725341796875
250,809.89013671875,802.2344360351562,794.1758422851562,809.89013671875
251,805.8607788085938,797.8021850585938,794.1758422851562,800.2197875976562
252,805.4578857421875,792.967041015625,794.981689453125,796.5933837890625
253,807.069580078125,791.7582397460938,796.996337890625,798.2051391601562
254,804.6520385742188,793.7728881835938,798.6080322265625,793.3699340820312
255,805.8607788085938,792.967041015625,800.6226806640625,790.1465454101562
256,813.113525390625,788.1318969726562,804.6520385742188,795.7875366210938
257,813.113525390625,791.7582397460938,804.6520385742188,805.054931640625
258,814.7252807617188,799.010986328125,801.4285888671875,807.4725341796875
259,816.3369750976562,792.5640869140625,799.4139404296875,807.4725341796875
260,811.098876953125,793.3699340820312,797.3992919921875,800.2197875976562
261,802.6373901367188,791.7582397460938,801.025634765625,797.8021850585938
262,796.996337890625,787.3259887695312,799.4139404296875,799.4139404296875
263,792.967041015625,790.952392578125,793.7728881835938,790.952392578125
264,795.3846435546875,793.7728881835938,794.981689453125,791.7582397460938
265,800.2197875976562,794.5787353515625,797.3992919921875,792.967041015625
266,793.3699340820312,790.5494384765625,798.6080322265625,791.3552856445312
267,785.3113403320312,794.5787353515625,797.8021850585938,794.981689453125
268,788.1318969726562,792.5640869140625,793.7728881835938,791.3552856445312
269,790.952392578125,787.3259887695312,793.7728881835938,792.1611938476562
270,785.3113403320312,786.923095703125,794.5787353515625,795.3846435546875
271,785.3113403320312,782.4908447265625,794.1758422851562,788.1318969726562
272,781.6849975585938,781.6849975585938,793.3699340820312,782.893798828125
273,786.5201416015625,784.908447265625,792.967041015625,785.7142944335938
274,791.3552856445312,787.3259887695312,791.3552856445312,785.7142944335938
275,784.1025390625,787.7289428710938,788.937744140625,783.6996459960938
276,783.2966918945312,785.3113403320312,790.1465454101562,782.087890625
277,785.3113403320312,784.908447265625,788.5347900390625,788.937744140625
278,782.4908447265625,786.1171875,787.3259887695312,790.1465454101562
279,782.4908447265625,786.1171875,788.5347900390625,789.7435913085938
280,789.3406372070312,786.923095703125,788.5347900390625,796.1904907226562
281,793.3699340820312,790.5494384765625,790.1465454101562,791.7582397460938
282,792.967041015625,794.5787353515625,784.5054931640625,785.3113403320312
283,792.5640869140625,798.2051391601562,787.7289428710938,786.1171875
284,796.996337890625,795.3846435546875,794.5787353515625,789.3406372070312
285,807.4725341796875,795.3846435546875,792.1611938476562,798.2051391601562
286,803.040283203125,796.5933837890625,789.7435913085938,788.937744140625
287,795.7875366210938,795.7875366210938,789.3406372070312,781.2820434570312
288,796.1904907226562,792.5640869140625,791.7582397460938,792.1611938476562
289,792.5640869140625,790.1465454101562,790.1465454101562,789.3406372070312
290,791.7582397460938,794.5787353515625,789.7435913085938,782.893798828125
291,793.3699340820312,791.7582397460938,790.1465454101562,786.5201416015625
292,789.3406372070312,788.5347900390625,792.967041015625,787.3259887695312
293,784.5054931640625,788.5347900390625,791.7582397460938,784.5054931640625
294,787.3259887695312,781.6849975585938,787.7289428710938,786.923095703125
295,788.5347900390625,779.6703491210938,792.1611938476562,785.7142944335938
296,791.3552856445312,785.7142944335938,795.3846435546875,792.967041015625
297,788.937744140625,786.1171875,796.996337890625,794.5787353515625
298,790.5494384765625,782.087890625,799.010986328125,787.7289428710938
299,790.5494384765625,787.7289428710938,797.3992919921875,792.5640869140625
300,783.6996459960938,788.937744140625,798.2051391601562,798.2051391601562
301,784.1025390625,791.7582397460938,799.4139404296875,790.952392578125
302,788.937744140625,789.3406372070312,799.8168334960938,796.996337890625
303,801.8314819335938,782.087890625,803.040283203125,818.7545776367188
304,797.3992919921875,792.1611938476562,801.4285888671875,809.4871826171875
305,782.087890625,796.5933837890625,794.1758422851562,785.7142944335938
306,790.952392578125,796.5933837890625,789.7435913085938,791.3552856445312
307,791.3552856445312,799.4139404296875,788.937744140625,787.7289428710938
308,788.5347900390625,795.3846435546875,787.3259887695312,787.7289428710938
309,800.6226806640625,801.025634765625,788.1318969726562,792.1611938476562
310,799.4139404296875,802.6373901367188,791.3552856445312,786.5201416015625
311,798.6080322265625,799.4139404296875,790.952392578125,783.6996459960938
312,804.2490844726562,795.3846435546875,784.5054931640625,785.7142944335938
313,801.8314819335938,797.3992919921875,780.879150390625,790.1465454101562
314,797.8021850585938,802.6373901367188,777.6557006835938,792.5640869140625
315,798.2051391601562,800.2197875976562,783.2966918945312,796.5933837890625
316,798.6080322265625,798.2051391601562,788.937744140625,799.010986328125
317,798.2051391601562,799.8168334960938,787.3259887695312,794.981689453125
318,796.996337890625,803.040283203125,789.7435913085938,790.5494384765625
319,799.010986328125,799.8168334960938,789.3406372070312,798.6080322265625
320,796.5933837890625,799.8168334960938,783.6996459960938,795.7875366210938
321,792.1611938476562,794.981689453125,780.4761962890625,794.1758422851562
322,790.952392578125,789.7435913085938,784.908447265625,796.5933837890625
323,788.5347900390625,792.5640869140625,791.3552856445312,794.5787353515625
324,788.937744140625,796.996337890625,790.1465454101562,790.952392578125
325,792.967041015625,801.025634765625,788.937744140625,788.1318969726562
326,792.967041015625,801.4285888671875,792.5640869140625,787.7289428710938
327,794.1758422851562,797.3992919921875,794.5787353515625,797.3992919921875
328,799.010986328125,790.952392578125,795.7875366210938,797.8021850585938
329,804.2490844726562,795.3846435546875,801.4285888671875,795.3846435546875
330,795.3846435546875,796.5933837890625,796.5933837890625,797.8021850585938
331,788.937744140625,790.1465454101562,789.3406372070312,796.996337890625
332,795.7875366210938,790.1465454101562,793.7728881835938,795.3846435546875
333,796.1904907226562,793.7728881835938,796.996337890625,793.7728881835938
334,796.996337890625,797.3992919921875,796.1904907226562,796.5933837890625
335,796.1904907226562,796.1904907226562,798.6080322265625,799.010986328125
336,796.1904907226562,795.7875366210938,802.2344360351562,797.8021850585938
337,802.6373901367188,796.5933837890625,801.025634765625,796.996337890625
338,800.6226806640625,794.1758422851562,794.5787353515625,796.996337890625
339,797.3992919921875,792.1611938476562,796.1904907226562,792.967041015625
340,797.8021850585938,792.967041015625,798.2051391601562,790.952392578125
341,795.3846435546875,794.5787353515625,799.010986328125,795.3846435546875
342,792.967041015625,794.5787353515625,799.4139404296875,796.996337890625
343,793.3699340820312,799.8168334960938,797.3992919921875,792.967041015625
344,793.7728881835938,797.8021850585938,796.5933837890625,785.7142944335938
345,788.937744140625,787.3259887695312,796.1904907226562,782.087890625
346,789.3406372070312,787.3259887695312,796.1904907226562,790.1465454101562
347,792.1611938476562,795.7875366210938,793.7728881835938,790.5494384765625
348,794.1758422851562,801.025634765625,792.5640869140625,786.1171875
349,795.7875366210938,798.6080322265625,793.7728881835938,787.3259887695312
350,789.7435913085938,797.3992919921875,792.967041015625,788.1318969726562
351,787.3259887695312,799.4139404296875,787.7289428710938,790.5494384765625
352,788.937744140625,797.8021850585938,785.7142944335938,799.8168334960938
353,791.3552856445312,793.7728881835938,787.3259887695312,804.6520385742188
354,789.7435913085938,788.937744140625,786.923095703125,802.6373901367188
355,790.952392578125,786.5201416015625,787.3259887695312,801.025634765625
356,797.3992919921875,787.7289428710938,788.5347900390625,792.967041015625
357,799.4139404296875,786.923095703125,786.5201416015625,788.937744140625
358,799.010986328125,788.937744140625,787.3259887695312,796.1904907226562
359,797.8021850585938,796.1904907226562,787.3259887695312,791.7582397460938
360,797.3992919921875,794.1758422851562,783.2966918945312,783.2966918945312
361,795.7875366210938,794.1758422851562,786.1171875,784.5054931640625
362,788.5347900390625,798.6080322265625,787.3259887695312,785.3113403320312
363,787.3259887695312,799.4139404296875,788.5347900390625,786.1171875
364,789.7435913085938,795.3846435546875,794.1758422851562,786.5201416015625
365,790.1465454101562,794.1758422851562,791.3552856445312,779.6703491210938
366,792.1611938476562,789.7435913085938,783.6996459960938,773.2234497070312
367,793.3699340820312,789.7435913085938,785.7142944335938,778.8644409179688
368,793.3699340820312,796.5933837890625,789.3406372070312,782.087890625
369,795.7875366210938,791.7582397460938,786.1171875,789.7435913085938
370,790.1465454101562,787.3259887695312,792.1611938476562,788.1318969726562
371,792.5640869140625,792.967041015625,793.7728881835938,788.5347900390625
372,791.7582397460938,792.5640869140625,784.1025390625,788.5347900390625
373,780.4761962890625,787.7289428710938,786.923095703125,789.3406372070312
374,780.4761962890625,794.1758422851562,790.1465454101562,797.8021850585938
375,784.5054931640625,797.8021850585938,790.1465454101562,795.7875366210938
376,792.1611938476562,797.3992919921875,788.937744140625,796.1904907226562
377,794.5787353515625,794.981689453125,793.3699340820312,799.8168334960938
378,788.937744140625,792.967041015625,796.5933837890625,790.5494384765625
379,781.6849975585938,793.7728881835938,791.7582397460938,778.05859375
380,780.0732421875,790.5494384765625,790.5494384765625,783.2966918945312
381,785.7142944335938,786.923095703125,794.1758422851562,793.3699340820312
382,790.5494384765625,793.3699340820312,799.4139404296875,790.5494384765625
383,792.1611938476562,796.1904907226562,801.8314819335938,796.996337890625
384,788.937744140625,791.3552856445312,798.6080322265625,799.8168334960938
385,785.7142944335938,790.5494384765625,796.1904907226562,788.937744140625
386,793.7728881835938,791.3552856445312,796.1904907226562,791.3552856445312
387,800.2197875976562,792.5640869140625,796.5933837890625,803.4432373046875
388,796.1904907226562,794.981689453125,796.1904907226562,803.040283203125
389,791.7582397460938,796.5933837890625,796.5933837890625,791.3552856445312
390,793.3699340820312,799.8168334960938,792.1611938476562,789.7435913085938
391,794.5787353515625,801.025634765625,788.937744140625,794.5787353515625
392,795.3846435546875,793.3699340820312,790.1465454101562,803.040283203125
393,798.2051391601562,792.5640869140625,791.3552856445312,801.025634765625
394,797.3992919921875,793.3699340820312,791.3552856445312,797.8021850585938
395,798.6080322265625,787.3259887695312,791.7582397460938,799.4139404296875
396,803.4432373046875,792.5640869140625,792.967041015625,799.4139404296875
397,799.4139404296875,797.8021850585938,793.7728881835938,795.7875366210938
398,797.3992919921875,800.6226806640625,791.3552856445312,791.3552856445312
399,805.054931640625,801.025634765625,794.5787353515625,802.2344360351562
400,801.4285888671875,797.3992919921875,795.7875366210938,805.4578857421875
401,806.6666870117188,792.967041015625,795.3846435546875,802.2344360351562
402,817.5457763671875,790.1465454101562,797.3992919921875,806.6666870117188
403,812.7106323242188,789.3406372070312,799.010986328125,801.4285888671875
404,806.2637329101562,795.3846435546875,798.2051391601562,794.1758422851562
405,798.2051391601562,800.6226806640625,795.7875366210938,786.5201416015625
406,798.6080322265625,796.996337890625,798.2051391601562,790.952392578125
407,801.025634765625,787.3259887695312,800.2197875976562,790.952392578125
408,795.7875366210938,786.1171875,796.996337890625,788.1318969726562
409,790.952392578125,797.3992919921875,796.1904907226562,795.7875366210938
410,790.1465454101562,797.8021850585938,799.4139404296875,795.7875366210938
411,790.1465454101562,794.5787353515625,797.8021850585938,793.3699340820312
412,789.7435913085938,794.5787353515625,799.8168334960938,797.3992919921875
413,788.1318969726562,792.967041015625,800.6226806640625,794.1758422851562
414,788.1318969726562,791.7582397460938,799.8168334960938,797.8021850585938
415,794.981689453125,791.3552856445312,799.8168334960938,807.4725341796875
416,797.3992919921875,792.1611938476562,799.8168334960938,804.2490844726562
417,794.981689453125,794.1758422851562,796.996337890625,801.8314819335938
418,793.7728881835938,791.7582397460938,793.3699340820312,799.4139404296875
419,793.7728881835938,786.923095703125,794.981689453125,792.5640869140625
420,794.981689453125,791.3552856445312,793.7728881835938,792.1611938476562
421,792.5640869140625,797.3992919921875,791.3552856445312,790.1465454101562
422,792.5640869140625,795.3846435546875,792.1611938476562,782.087890625
423,794.981689453125,791.3552856445312,789.7435913085938,778.4615478515625
424,798.6080322265625,797.8021850585938,790.952392578125,784.1025390625
425,797.3992919921875,799.8168334960938,792.1611938476562,786.5201416015625
426,796.1904907226562,797.3992919921875,796.1904907226562,792.1611938476562
427,800.6226806640625,795.7875366210938,801.025634765625,799.010986328125
428,798.2051391601562,790.5494384765625,799.010986328125,792.967041015625
429,792.5640869140625,791.3552856445312,796.5933837890625,787.7289428710938
430,790.5494384765625,793.7728881835938,797.3992919921875,790.1465454101562
431,793.7728881835938,790.952392578125,802.2344360351562,787.7289428710938
432,799.8168334960938,792.967041015625,794.5787353515625,784.5054931640625
433,795.7875366210938,794.1758422851562,791.7582397460938,788.937744140625
434,795.3846435546875,792.1611938476562,797.3992919921875,796.5933837890625
435,799.4139404296875,793.3699340820312,799.010986328125,803.8461303710938
436,796.1904907226562,793.7728881835938,803.040283203125,798.6080322265625
437,799.010986328125,793.7728881835938,804.2490844726562,792.1611938476562
438,803.4432373046875,795.3846435546875,802.2344360351562,791.3552856445312
439,801.8314819335938,795.3846435546875,805.4578857421875,792.967041015625
440,797.8021850585938,793.3699340820312,804.2490844726562,790.1465454101562
441,795.3846435546875,791.3552856445312,795.3846435546875,786.5201416015625
442,801.4285888671875,789.7435913085938,792.967041015625,795.3846435546875
443,797.3992919921875,795.3846435546875,792.967041015625,787.3259887695312
444,798.2051391601562,796.5933837890625,794.1758422851562,782.893798828125
445,801.8314819335938,794.981689453125,794.981689453125,792.5640869140625
446,797.8021850585938,796.1904907226562,792.5640869140625,796.996337890625
447,797.8021850585938,793.7728881835938,792.967041015625,791.7582397460938
448,801.025634765625,789.3406372070312,799.4139404296875,790.5494384765625
449,802.6373901367188,794.5787353515625,795.3846435546875,797.8021850585938
450,796.5933837890625,797.3992919921875,790.5494384765625,794.1758422851562
451,791.7582397460938,796.996337890625,792.967041015625,794.981689453125
452,793.7728881835938,792.1611938476562,795.3846435546875,793.7728881835938
453,798.2051391601562,788.5347900390625,795.3846435546875,793.7728881835938
454,800.2197875976562,790.5494384765625,793.7728881835938,797.3992919921875
455,795.3846435546875,799.4139404296875,790.1465454101562,788.937744140625
456,790.952392578125,801.8314819335938,789.7435913085938,788.5347900390625
457,794.1758422851562,796.996337890625,788.937744140625,794.5787353515625
458,793.3699340820312,796.5933837890625,791.7582397460938,792.967041015625
459,790.952392578125,792.1611938476562,794.1758422851562,790.1465454101562
460,791.3552856445312,788.937744140625,790.952392578125,790.952392578125
461,790.1465454101562,788.1318969726562,791.3552856445312,796.996337890625
462,788.1318969726562,790.5494384765625,793.7728881835938,797.8021850585938
463,784.908447265625,790.1465454101562,795.3846435546875,790.5494384765625
464,789.7435913085938,789.7435913085938,791.7582397460938,794.1758422851562
465,791.7582397460938,795.7875366210938,788.5347900390625,799.010986328125
466,784.5054931640625,795.7875366210938,796.1904907226562,787.3259887695312
467,783.2966918945312,792.967041015625,795.7875366210938,779.2673950195312
468,785.7142944335938,794.5787353515625,794.981689453125,780.4761962890625
469,784.908447265625,792.1611938476562,796.996337890625,787.3259887695312
470,786.5201416015625,788.5347900390625,794.981689453125,784.5054931640625
471,785.7142944335938,780.879150390625,794.981689453125,774.8351440429688
472,783.6996459960938,778.05859375,793.7728881835938,779.6703491210938
473,786.1171875,786.5201416015625,797.8021850585938,788.5347900390625
474,791.7582397460938,795.3846435546875,802.2344360351562,792.1611938476562
475,795.3846435546875,800.2197875976562,799.4139404296875,792.967041015625
476,790.1465454101562,798.2051391601562,795.7875366210938,789.3406372070312
477,788.5347900390625,791.3552856445312,794.1758422851562,791.7582397460938
478,789.7435913085938,788.937744140625,794.5787353515625,786.5201416015625
479,788.1318969726562,791.3552856445312,793.7728881835938,785.3113403320312
480,787.7289428710938,791.3552856445312,790.952392578125,794.5787353515625
481,789.7435913085938,784.908447265625,791.7582397460938,796.1904907226562
482,793.3699340820312,782.893798828125,794.1758422851562,791.3552856445312
483,790.5494384765625,786.1171875,794.1758422851562,785.3113403320312
484,790.5494384765625,788.5347900390625,792.5640869140625,786.1171875
485,792.967041015625,792.967041015625,791.3552856445312,783.6996459960938
486,791.7582397460938,796.5933837890625,793.7728881835938,787.7289428710938
487,791.7582397460938,792.967041015625,795.3846435546875,794.1758422851562
488,792.5640869140625,793.3699340820312,794.1758422851562,796.5933837890625
489,792.5640869140625,799.4139404296875,797.8021850585938,792.1611938476562
490,791.7582397460938,796.5933837890625,797.3992919921875,790.952392578125
491,788.937744140625,788.937744140625,796.5933837890625,794.1758422851562
492,792.1611938476562,790.1465454101562,801.4285888671875,792.1611938476562
493,796.1904907226562,794.981689453125,797.3992919921875,783.2966918945312
494,791.7582397460938,795.7875366210938,790.952392578125,779.2673950195312
495,793.7728881835938,796.5933837890625,793.3699340820312,791.3552856445312
496,794.1758422851562,800.6226806640625,795.7875366210938,797.8021850585938
497,790.1465454101562,798.2051391601562,794.5787353515625,794.981689453125
498,791.3552856445312,792.967041015625,797.3992919921875,795.7875366210938
499,792.1611938476562,792.967041015625,799.010986328125,797.3992919921875
500,789.7435913085938,792.967041015625,795.3846435546875,801.025634765625
501,791.7582397460938,790.1465454101562,797.3992919921875,797.3992919921875
502,797.8021850585938,788.5347900390625,798.6080322265625,796.1904907226562
503,798.2051391601562,793.3699340820312,796.5933837890625,803.4432373046875
504,798.6080322265625,795.7875366210938,797.8021850585938,803.4432373046875
505,798.2051391601562,788.937744140625,798.2051391601562,802.2344360351562
506,800.6226806640625,789.3406372070312,793.7728881835938,798.2051391601562
507,799.4139404296875,792.967041015625,796.1904907226562,788.937744140625
508,792.1611938476562,795.7875366210938,796.996337890625,788.5347900390625
509,796.1904907226562,800.2197875976562,796.1904907226562,797.3992919921875
510,803.8461303710938,796.5933837890625,800.2197875976562,797.8021850585938
511,799.8168334960938,787.3259887695312,797.3992919921875,802.2344360351562
512,798.2051391601562,783.6996459960938,791.7582397460938,795.7875366210938
513,796.996337890625,791.7582397460938,792.967041015625,780.0732421875
514,791.3552856445312,801.4285888671875,792.967041015625,786.1171875
515,794.1758422851562,801.025634765625,792.967041015625,795.7875366210938
516,797.3992919921875,794.5787353515625,796.1904907226562,791.7582397460938
517,793.3699340820312,793.3699340820312,796.996337890625,790.5494384765625
518,795.7875366210938,798.2051391601562,805.8607788085938,798.2051391601562
519,799.010986328125,799.4139404296875,809.89013671875,799.010986328125
520,794.1758422851562,794.5787353515625,806.6666870117188,789.7435913085938
521,797.3992919921875,792.5640869140625,804.2490844726562,791.7582397460938
522,794.5787353515625,790.1465454101562,799.4139404296875,793.7728881835938
523,785.7142944335938,782.087890625,789.3406372070312,790.1465454101562
524,786.5201416015625,785.7142944335938,790.952392578125,793.7728881835938
525,788.5347900390625,793.7728881835938,796.1904907226562,795.3846435546875
526,791.3552856445312,792.967041015625,796.5933837890625,797.3992919921875
527,796.1904907226562,799.4139404296875,799.4139404296875,802.6373901367188
528,802.2344360351562,803.040283203125,795.7875366210938,796.5933837890625
529,801.025634765625,793.3699340820312,797.8021850585938,792.5640869140625
530,798.6080322265625,789.7435913085938,805.4578857421875,797.8021850585938
531,805.054931640625,795.7875366210938,807.87548828125,796.996337890625
532,810.2930297851562,801.8314819335938,804.6520385742188,801.025634765625
533,798.2051391601562,801.8314819335938,799.010986328125,796.996337890625
534,793.7728881835938,803.040283203125,793.3699340820312,788.1318969726562
535,799.4139404296875,798.6080322265625,786.5201416015625,790.1465454101562
536,792.967041015625,792.1611938476562,791.3552856445312,787.3259887695312
537,785.3113403320312,792.1611938476562,795.3846435546875,782.087890625
538,795.7875366210938,792.967041015625,790.1465454101562,791.3552856445312
539,795.7875366210938,792.967041015625,789.7435913085938,787.7289428710938
540,793.7728881835938,792.967041015625,799.4139404296875,781.6849975585938
541,800.6226806640625,799.010986328125,793.7728881835938,785.3113403320312
542,802.6373901367188,802.6373901367188,792.967041015625,788.5347900390625
543,802.2344360351562,801.8314819335938,801.025634765625,791.3552856445312
544,795.7875366210938,792.1611938476562,796.5933837890625,784.908447265625
545,792.1611938476562,790.1465454101562,793.3699340820312,782.4908447265625
546,788.1318969726562,796.996337890625,794.981689453125,785.3113403320312
547,790.952392578125,792.5640869140625,797.3992919921875,788.1318969726562
548,796.1904907226562,790.5494384765625,794.981689453125,788.1318969726562
549,794.5787353515625,794.1758422851562,793.7728881835938,790.5494384765625
550,786.923095703125,793.7728881835938,795.7875366210938,795.3846435546875
551,782.4908447265625,794.5787353515625,791.3552856445312,786.5201416015625
552,786.5201416015625,796.1904907226562,793.7728881835938,783.6996459960938
553,788.5347900390625,796.1904907226562,794.1758422851562,789.3406372070312
554,789.3406372070312,792.967041015625,794.981689453125,786.5201416015625
555,790.5494384765625,792.967041015625,796.5933837890625,788.1318969726562
556,790.1465454101562,794.1758422851562,794.5787353515625,792.967041015625
557,796.1904907226562,792.967041015625,796.1904907226562,794.1758422851562
558,794.981689453125,791.7582397460938,797.3992919921875,792.5640869140625
559,790.1465454101562,791.7582397460938,792.967041015625,794.981689453125
560,796.996337890625,791.7582397460938,784.1025390625,799.010986328125
561,798.2051391601562,791.3552856445312,784.1025390625,801.8314819335938
562,791.7582397460938,791.7582397460938,792.1611938476562,799.010986328125
563,787.7289428710938,788.1318969726562,792.1611938476562,790.5494384765625
564,792.5640869140625,792.5640869140625,786.1171875,787.7289428710938
565,796.1904907226562,795.7875366210938,789.7435913085938,791.7582397460938
566,792.1611938476562,792.967041015625,796.1904907226562,790.1465454101562
567,788.1318969726562,787.3259887695312,792.967041015625,787.7289428710938
568,787.3259887695312,792.1611938476562,788.937744140625,790.1465454101562
569,792.1611938476562,797.8021850585938,793.3699340820312,791.7582397460938
570,793.7728881835938,790.1465454101562,794.981689453125,789.3406372070312
571,790.952392578125,781.2820434570312,790.952392578125,784.1025390625
572,787.7289428710938,782.087890625,789.3406372070312,790.1465454101562
573,788.937744140625,788.937744140625,789.7435913085938,801.025634765625
574,788.5347900390625,789.3406372070312,790.5494384765625,791.7582397460938
575,789.7435913085938,794.981689453125,794.5787353515625,789.3406372070312
576,794.1758422851562,796.1904907226562,797.3992919921875,796.5933837890625
577,792.967041015625,796.1904907226562,798.6080322265625,794.5787353515625
578,787.7289428710938,794.981689453125,796.1904907226562,788.937744140625
579,792.1611938476562,794.981689453125,793.3699340820312,791.3552856445312
580,799.4139404296875,796.996337890625,792.967041015625,796.5933837890625
581,800.2197875976562,790.952392578125,791.7582397460938,794.5787353515625
582,792.967041015625,782.087890625,786.923095703125,788.5347900390625
583,793.3699340820312,782.4908447265625,790.1465454101562,789.7435913085938
584,799.8168334960938,790.952392578125,790.1465454101562,801.025634765625
585,793.7728881835938,792.1611938476562,788.1318969726562,798.6080322265625
586,786.1171875,789.7435913085938,792.967041015625,787.7289428710938
587,790.1465454101562,787.7289428710938,794.981689453125,785.3113403320312
588,787.3259887695312,795.3846435546875,797.8021850585938,786.923095703125
589,784.908447265625,798.6080322265625,798.6080322265625,786.5201416015625
590,787.3259887695312,796.1904907226562,794.981689453125,787.7289428710938
591,789.3406372070312,799.4139404296875,795.7875366210938,795.3846435546875
592,793.3699340820312,801.8314819335938,794.981689453125,796.5933837890625
593,799.010986328125,795.3846435546875,788.1318969726562,791.7582397460938
594,798.2051391601562,785.7142944335938,792.1611938476562,789.7435913085938
595,794.1758422851562,786.5201416015625,796.1904907226562,787.7289428710938
596,798.6080322265625,790.952392578125,792.967041015625,797.8021850585938
597,797.8021850585938,791.3552856445312,794.5787353515625,794.981689453125
598,789.7435913085938,786.1171875,789.7435913085938,780.4761962890625
599,792.967041015625,788.5347900390625,790.1465454101562,784.5054931640625
600,798.2051391601562,799.010986328125,792.967041015625,790.1465454101562
601,796.1904907226562,803.4432373046875,792.1611938476562,787.3259887695312
602,793.7728881835938,799.010986328125,790.5494384765625,787.3259887695312
603,797.3992919921875,790.952392578125,786.1171875,788.937744140625
604,792.1611938476562,790.952392578125,786.1171875,786.5201416015625
605,781.2820434570312,784.908447265625,792.5640869140625,785.7142944335938
606,779.6703491210938,782.893798828125,792.5640869140625,789.7435913085938
607,782.087890625,786.923095703125,789.7435913085938,794.981689453125
608,781.2820434570312,796.5933837890625,792.1611938476562,790.1465454101562
609,780.0732421875,795.3846435546875,790.952392578125,781.2820434570312
610,780.879150390625,785.3113403320312,786.923095703125,778.4615478515625
611,784.5054931640625,788.1318969726562,788.1318969726562,779.6703491210938
612,785.3113403320312,790.5494384765625,793.7728881835938,784.5054931640625
613,786.923095703125,794.5787353515625,792.1611938476562,783.6996459960938
614,788.1318969726562,799.010986328125,790.1465454101562,782.4908447265625
615,785.3113403320312,794.5787353515625,792.1611938476562,784.908447265625
616,783.6996459960938,792.5640869140625,794.981689453125,784.908447265625
617,787.3259887695312,794.981689453125,792.1611938476562,784.908447265625
618,787.3259887695312,791.7582397460938,791.3552856445312,786.5201416015625
619,789.7435913085938,792.967041015625,793.3699340820312,794.981689453125
620,791.3552856445312,791.7582397460938,790.1465454101562,797.8021850585938
621,786.923095703125,786.923095703125,788.937744140625,793.7728881835938
622,789.3406372070312,789.7435913085938,791.7582397460938,796.996337890625
623,791.3552856445312,788.937744140625,786.923095703125,801.025634765625
624,791.3552856445312,792.1611938476562,786.5201416015625,801.025634765625
625,789.3406372070312,789.7435913085938,792.967041015625,801.025634765625
626,789.3406372070312,788.937744140625,794.5787353515625,807.069580078125
627,786.923095703125,794.5787353515625,790.1465454101562,803.040283203125
628,790.5494384765625,792.1611938476562,787.3259887695312,790.1465454101562
629,795.7875366210938,788.1318969726562,789.3406372070312,785.7142944335938
630,796.1904907226562,788.937744140625,787.7289428710938,792.967041015625
631,795.3846435546875,792.5640869140625,791.7582397460938,793.3699340820312
632,794.1758422851562,788.5347900390625,793.7728881835938,783.6996459960938
633,798.2051391601562,782.893798828125,792.5640869140625,788.5347900390625
634,802.6373901367188,786.923095703125,795.3846435546875,803.8461303710938
635,800.6226806640625,783.6996459960938,801.4285888671875,801.025634765625
636,799.010986328125,780.4761962890625,800.6226806640625,796.5933837890625
637,799.010986328125,792.1611938476562,794.1758422851562,802.6373901367188
638,799.8168334960938,798.6080322265625,794.981689453125,810.2930297851562
639,798.2051391601562,799.010986328125,793.3699340820312,812.3076782226562
640,795.7875366210938,792.967041015625,790.5494384765625,805.054931640625
641,799.4139404296875,793.3699340820312,795.3846435546875,805.4578857421875
642,797.3992919921875,800.2197875976562,796.5933837890625,807.87548828125
643,792.5640869140625,799.8168334960938,794.5787353515625,806.6666870117188
644,793.3699340820312,800.6226806640625,797.3992919921875,806.2637329101562
645,800.2197875976562,796.1904907226562,792.967041015625,807.87548828125
646,796.5933837890625,788.5347900390625,788.1318969726562,808.6813354492188
647,790.952392578125,784.1025390625,796.996337890625,798.2051391601562
648,796.5933837890625,786.5201416015625,803.040283203125,793.3699340820312
649,801.025634765625,792.1611938476562,798.6080322265625,796.1904907226562
650,799.8168334960938,800.2197875976562,796.996337890625,794.981689453125
651,799.8168334960938,803.8461303710938,800.2197875976562,792.1611938476562
652,800.6226806640625,797.3992919921875,796.996337890625,790.952392578125
653,801.8314819335938,797.3992919921875,795.7875366210938,791.3552856445312
654,800.6226806640625,797.8021850585938,800.6226806640625,794.5787353515625
655,798.6080322265625,793.3699340820312,800.6226806640625,794.981689453125
656,795.3846435546875,791.7582397460938,804.2490844726562,796.5933837890625
657,793.3699340820312,789.7435913085938,799.4139404296875,801.025634765625
658,797.3992919921875,786.923095703125,796.996337890625,799.8168334960938
659,798.2051391601562,786.1171875,805.4578857421875,797.8021850585938
660,792.5640869140625,787.7289428710938,804.6520385742188,801.025634765625
661,786.1171875,782.893798828125,801.4285888671875,805.4578857421875
662,786.1171875,785.3113403320312,794.981689453125,803.040283203125
663,794.981689453125,788.937744140625,792.967041015625,804.6520385742188
664,801.4285888671875,788.937744140625,799.010986328125,805.8607788085938
665,798.6080322265625,793.7728881835938,797.8021850585938,799.8168334960938
666,792.967041015625,788.1318969726562,791.3552856445312,798.2051391601562
667,790.952392578125,782.4908447265625,791.3552856445312,796.5933837890625
668,796.996337890625,787.3259887695312,794.1758422851562,796.5933837890625
669,795.3846435546875,786.1171875,793.7728881835938,793.7728881835938
670,792.967041015625,785.3113403320312,792.5640869140625,790.5494384765625
671,796.5933837890625,788.5347900390625,790.952392578125,794.1758422851562
672,797.3992919921875,791.3552856445312,792.5640869140625,796.1904907226562
673,795.7875366210938,794.981689453125,794.981689453125,794.1758422851562
674,796.996337890625,798.6080322265625,792.5640869140625,790.5494384765625
675,797.8021850585938,796.996337890625,796.996337890625,792.1611938476562
676,792.967041015625,794.981689453125,800.6226806640625,799.010986328125
677,793.7728881835938,797.3992919921875,792.967041015625,799.8168334960938
678,788.937744140625,793.7728881835938,796.1904907226562,794.981689453125
679,789.7435913085938,792.1611938476562,801.8314819335938,795.3846435546875
680,792.967041015625,790.5494384765625,792.5640869140625,801.4285888671875
681,790.952392578125,792.967041015625,795.3846435546875,804.6520385742188
682,786.923095703125,795.7875366210938,798.6080322265625,800.2197875976562
683,786.5201416015625,792.1611938476562,791.3552856445312,797.3992919921875
684,791.7582397460938,795.3846435546875,793.3699340820312,797.8021850585938
685,790.952392578125,799.4139404296875,792.967041015625,788.5347900390625
686,790.5494384765625,797.8021850585938,791.3552856445312,781.2820434570312
687,799.4139404296875,798.6080322265625,794.981689453125,788.5347900390625
688,799.4139404296875,798.2051391601562,795.3846435546875,792.967041015625
689,798.6080322265625,792.5640869140625,798.2051391601562,789.3406372070312
690,802.6373901367188,787.3259887695312,803.4432373046875,788.5347900390625
691,802.2344360351562,793.3699340820312,802.6373901367188,791.3552856445312
692,799.010986328125,796.1904907226562,799.010986328125,790.952392578125
693,793.3699340820312,797.3992919921875,798.6080322265625,781.6849975585938
694,796.996337890625,799.010986328125,796.5933837890625,778.4615478515625
695,798.2051391601562,795.7875366210938,790.952392578125,781.2820434570312
696,788.937744140625,790.5494384765625,793.3699340820312,782.893798828125
697,782.4908447265625,790.952392578125,793.3699340820312,780.879150390625
698,782.893798828125,793.7728881835938,788.5347900390625,782.893798828125
699,787.7289428710938,794.5787353515625,788.5347900390625,793.7728881835938
700,792.1611938476562,794.5787353515625,792.967041015625,800.2197875976562
701,790.952392578125,791.7582397460938,795.7875366210938,798.2051391601562
702,792.5640869140625,792.967041015625,794.1758422851562,795.7875366210938
703,792.967041015625,794.981689453125,798.2051391601562,796.1904907226562
704,795.3846435546875,786.923095703125,796.996337890625,800.6226806640625
705,802.6373901367188,793.7728881835938,790.952392578125,791.3552856445312
706,798.2051391601562,799.010986328125,789.3406372070312,777.2527465820312
707,792.5640869140625,795.7875366210938,786.1171875,782.087890625
708,789.7435913085938,795.3846435546875,786.5201416015625,777.6557006835938
709,794.981689453125,793.7728881835938,794.5787353515625,779.6703491210938
710,796.1904907226562,789.3406372070312,792.967041015625,784.908447265625
711,792.1611938476562,786.923095703125,790.5494384765625,783.6996459960938
712,788.5347900390625,790.952392578125,794.1758422851562,787.3259887695312
713,788.937744140625,793.3699340820312,792.5640869140625,791.3552856445312
714,796.5933837890625,791.3552856445312,792.1611938476562,796.1904907226562
715,803.8461303710938,786.923095703125,794.1758422851562,797.8021850585938
716,800.6226806640625,791.7582397460938,795.7875366210938,793.3699340820312
717,795.3846435546875,795.3846435546875,794.981689453125,790.1465454101562
718,794.5787353515625,787.7289428710938,789.3406372070312,789.7435913085938
719,796.5933837890625,784.5054931640625,789.3406372070312,793.3699340820312
720,798.6080322265625,792.5640869140625,794.981689453125,792.5640869140625
721,798.2051391601562,795.7875366210938,794.5787353515625,793.3699340820312
722,792.967041015625,795.3846435546875,787.3259887695312,790.952392578125
723,787.3259887695312,790.952392578125,786.923095703125,789.3406372070312
724,784.1025390625,789.3406372070312,789.7435913085938,791.7582397460938
725,781.2820434570312,788.1318969726562,787.3259887695312,788.1318969726562
726,782.4908447265625,786.1171875,786.1171875,793.3699340820312
727,782.087890625,790.1465454101562,787.7289428710938,800.2197875976562
728,776.8497924804688,782.4908447265625,789.3406372070312,797.3992919921875
729,778.4615478515625,779.2673950195312,782.4908447265625,787.7289428710938
730,782.4908447265625,787.3259887695312,778.4615478515625,787.3259887695312
731,786.5201416015625,790.5494384765625,787.3259887695312,789.3406372070312
732,789.3406372070312,790.1465454101562,790.952392578125,784.5054931640625
733,785.3113403320312,786.5201416015625,785.7142944335938,778.4615478515625
734,788.5347900390625,782.893798828125,788.1318969726562,773.6264038085938
735,789.7435913085938,783.6996459960938,786.923095703125,772.4176025390625
736,788.5347900390625,788.937744140625,789.7435913085938,775.2380981445312
737,790.1465454101562,790.5494384765625,790.952392578125,778.4615478515625
738,788.1318969726562,788.1318969726562,790.5494384765625,783.6996459960938
739,782.087890625,791.7582397460938,789.7435913085938,788.937744140625
740,780.4761962890625,791.7582397460938,788.937744140625,786.1171875
741,783.2966918945312,782.087890625,786.923095703125,788.1318969726562
742,779.2673950195312,783.2966918945312,788.1318969726562,792.5640869140625
743,776.4468994140625,788.5347900390625,785.7142944335938,783.2966918945312
744,782.087890625,786.923095703125,786.1171875,782.893798828125
745,782.893798828125,790.5494384765625,791.3552856445312,789.7435913085938
746,790.1465454101562,791.7582397460938,792.967041015625,797.3992919921875
747,787.7289428710938,785.3113403320312,789.3406372070312,797.3992919921875
748,778.4615478515625,785.3113403320312,787.7289428710938,795.7875366210938
749,782.4908447265625,791.7582397460938,792.1611938476562,798.6080322265625
750,786.1171875,790.952392578125,793.3699340820312,796.996337890625
751,790.5494384765625,787.3259887695312,792.5640869140625,790.952392578125
752,799.4139404296875,788.937744140625,795.7875366210938,788.5347900390625
753,794.5787353515625,787.7289428710938,789.7435913085938,789.3406372070312
754,792.5640869140625,789.7435913085938,788.937744140625,786.5201416015625
755,797.8021850585938,788.5347900390625,792.5640869140625,786.5201416015625
756,795.7875366210938,784.908447265625,796.5933837890625,788.937744140625
757,792.5640869140625,786.5201416015625,799.010986328125,792.967041015625
758,801.4285888671875,786.923095703125,800.2197875976562,801.025634765625
759,810.2930297851562,794.1758422851562,799.8168334960938,802.2344360351562
760,803.040283203125,804.2490844726562,795.7875366210938,790.952392578125
761,793.7728881835938,804.2490844726562,788.5347900390625,784.5054931640625
762,786.923095703125,797.3992919921875,785.3113403320312,783.6996459960938
763,784.5054931640625,798.6080322265625,792.1611938476562,789.7435913085938
764,782.087890625,794.1758422851562,792.1611938476562,794.981689453125
765,784.5054931640625,792.5640869140625,786.923095703125,796.996337890625
766,790.5494384765625,799.010986328125,788.937744140625,795.7875366210938
767,788.5347900390625,792.967041015625,792.1611938476562,794.1758422851562
768,786.5201416015625,787.3259887695312,792.1611938476562,796.1904907226562
769,790.5494384765625,788.5347900390625,792.967041015625,795.7875366210938
770,794.5787353515625,784.5054931640625,796.1904907226562,792.1611938476562
771,799.8168334960938,787.3259887695312,796.996337890625,793.3699340820312
772,801.025634765625,796.5933837890625,799.8168334960938,792.5640869140625
773,793.7728881835938,797.8021850585938,796.996337890625,786.5201416015625
774,793.3699340820312,795.3846435546875,794.1758422851562,792.5640869140625
775,794.5787353515625,792.5640869140625,797.3992919921875,798.2051391601562
776,794.981689453125,792.967041015625,794.5787353515625,795.7875366210938
777,794.981689453125,794.981689453125,796.5933837890625,793.3699340820312
778,793.7728881835938,795.7875366210938,795.3846435546875,786.923095703125
779,795.3846435546875,794.981689453125,791.7582397460938,786.1171875
780,792.5640869140625,788.5347900390625,794.981689453125,787.7289428710938
781,791.3552856445312,786.5201416015625,793.3699340820312,783.2966918945312
782,790.952392578125,793.3699340820312,792.967041015625,784.5054931640625
783,786.5201416015625,795.7875366210938,790.952392578125,780.0732421875
784,781.2820434570312,790.1465454101562,787.7289428710938,776.4468994140625
785,790.952392578125,787.3259887695312,796.996337890625,781.6849975585938
786,796.996337890625,796.1904907226562,799.8168334960938,784.1025390625
787,790.952392578125,795.3846435546875,790.5494384765625,788.937744140625
788,788.5347900390625,787.7289428710938,789.3406372070312,799.8168334960938
789,791.7582397460938,789.7435913085938,797.3992919921875,796.5933837890625
790,797.8021850585938,794.1758422851562,798.6080322265625,788.5347900390625
791,798.2051391601562,790.952392578125,793.3699340820312,790.5494384765625
792,795.3846435546875,786.1171875,797.8021850585938,789.3406372070312
793,797.8021850585938,790.952392578125,801.4285888671875,786.1171875
794,800.6226806640625,799.8168334960938,800.2197875976562,787.7289428710938
795,800.2197875976562,803.4432373046875,804.2490844726562,789.7435913085938
796,799.4139404296875,798.6080322265625,808.6813354492188,791.3552856445312
797,796.5933837890625,792.1611938476562,804.6520385742188,789.3406372070312
798,793.7728881835938,796.996337890625,800.2197875976562,785.7142944335938
799,795.3846435546875,799.4139404296875,798.2051391601562,788.937744140625
800,794.981689453125,793.7728881835938,798.6080322265625,789.3406372070312
801,794.1758422851562,796.5933837890625,799.010986328125,791.7582397460938
802,796.1904907226562,798.6080322265625,792.967041015625,799.010986328125
803,787.7289428710938,788.5347900390625,792.967041015625,804.2490844726562
804,782.893798828125,790.5494384765625,800.2197875976562,803.040283203125
805,783.6996459960938,796.996337890625,798.2051391601562,799.8168334960938
806,784.908447265625,792.1611938476562,795.7875366210938,797.3992919921875
807,790.5494384765625,785.7142944335938,801.025634765625,796.1904907226562
808,789.7435913085938,789.3406372070312,798.2051391601562,791.7582397460938
809,788.5347900390625,797.3992919921875,793.3699340820312,781.6849975585938
810,791.7582397460938,792.967041015625,796.1904907226562,785.7142944335938
811,797.8021850585938,789.3406372070312,799.8168334960938,797.8021850585938
812,797.3992919921875,792.5640869140625,798.6080322265625,790.5494384765625
813,796.996337890625,792.967041015625,794.5787353515625,787.3259887695312
814,791.7582397460938,794.1758422851562,780.4761962890625,792.967041015625
815,787.7289428710938,792.967041015625,782.4908447265625,791.3552856445312
816,792.967041015625,792.967041015625,796.996337890625,788.5347900390625
817,794.1758422851562,793.7728881835938,794.981689453125,787.3259887695312
818,790.5494384765625,792.1611938476562,790.5494384765625,784.908447265625
819,789.7435913085938,794.981689453125,789.3406372070312,786.5201416015625
820,797.3992919921875,793.7728881835938,790.1465454101562,791.7582397460938
821,795.7875366210938,784.908447265625,794.5787353515625,790.1465454101562
822,790.5494384765625,778.8644409179688,791.7582397460938,789.3406372070312
823,795.3846435546875,781.2820434570312,790.5494384765625,792.1611938476562
824,795.7875366210938,781.6849975585938,796.5933837890625,790.5494384765625
825,794.1758422851562,788.937744140625,795.3846435546875,791.7582397460938
826,794.981689453125,792.5640869140625,791.3552856445312,795.3846435546875
827,792.967041015625,793.7728881835938,791.3552856445312,790.5494384765625
828,790.5494384765625,795.7875366210938,790.952392578125,783.6996459960938
829,789.3406372070312,790.1465454101562,791.7582397460938,784.908447265625
830,784.908447265625,785.7142944335938,790.1465454101562,784.5054931640625
831,783.6996459960938,788.1318969726562,790.1465454101562,788.937744140625
832,790.952392578125,790.1465454101562,791.7582397460938,792.5640869140625
833,797.8021850585938,784.1025390625,795.3846435546875,792.5640869140625
834,795.3846435546875,777.6557006835938,794.5787353515625,794.1758422851562
835,790.5494384765625,780.4761962890625,792.967041015625,789.3406372070312
836,790.952392578125,791.3552856445312,790.1465454101562,786.923095703125
837,797.8021850585938,798.2051391601562,789.7435913085938,790.952392578125
838,801.025634765625,797.8021850585938,790.1465454101562,790.1465454101562
839,797.3992919921875,800.2197875976562,789.7435913085938,792.1611938476562
840,789.7435913085938,796.996337890625,788.937744140625,792.967041015625
841,793.3699340820312,794.5787353515625,792.967041015625,789.3406372070312
842,797.3992919921875,793.7728881835938,797.8021850585938,788.5347900390625
843,799.8168334960938,793.7728881835938,796.5933837890625,791.7582397460938
844,799.010986328125,788.5347900390625,795.3846435546875,792.967041015625
845,791.3552856445312,784.908447265625,793.3699340820312,791.7582397460938
846,790.5494384765625,791.7582397460938,789.3406372070312,794.981689453125
847,796.5933837890625,793.7728881835938,790.1465454101562,795.3846435546875
848,791.3552856445312,791.3552856445312,792.967041015625,792.1611938476562
849,788.937744140625,790.1465454101562,792.967041015625,794.5787353515625
850,792.5640869140625,789.7435913085938,796.1904907226562,797.3992919921875
851,792.5640869140625,792.967041015625,794.981689453125,797.8021850585938
852,789.7435913085938,794.5787353515625,795.7875366210938,798.2051391601562
853,788.5347900390625,793.3699340820312,799.010986328125,798.6080322265625
854,787.7289428710938,792.1611938476562,801.4285888671875,795.3846435546875
855,791.3552856445312,788.5347900390625,803.8461303710938,790.1465454101562
856,792.5640869140625,789.7435913085938,799.010986328125,789.7435913085938
857,788.937744140625,790.1465454101562,796.996337890625,795.3846435546875
858,792.1611938476562,792.1611938476562,797.3992919921875,797.3992919921875
859,792.5640869140625,789.7435913085938,799.4139404296875,795.7875366210938
860,792.967041015625,782.893798828125,800.2197875976562,797.8021850585938
861,791.3552856445312,786.1171875,795.7875366210938,803.4432373046875
862,790.1465454101562,796.996337890625,800.2197875976562,801.8314819335938
863,794.1758422851562,798.6080322265625,801.8314819335938,798.2051391601562
864,792.5640869140625,787.7289428710938,796.996337890625,799.010986328125
865,785.3113403320312,788.1318969726562,795.7875366210938,800.6226806640625
866,786.923095703125,797.3992919921875,795.7875366210938,793.7728881835938
867,794.981689453125,796.1904907226562,791.7582397460938,792.1611938476562
868,796.996337890625,792.967041015625,790.952392578125,801.4285888671875
869,795.7875366210938,797.3992919921875,793.7728881835938,804.2490844726562
870,797.3992919921875,798.2051391601562,797.3992919921875,803.040283203125
871,799.4139404296875,792.5640869140625,798.6080322265625,799.010986328125
872,799.4139404296875,788.1318969726562,791.3552856445312,798.6080322265625
873,797.8021850585938,789.3406372070312,793.3699340820312,798.2051391601562
874,796.1904907226562,792.967041015625,797.3992919921875,798.2051391601562
875,796.5933837890625,796.996337890625,794.981689453125,799.4139404296875
876,798.6080322265625,799.010986328125,799.4139404296875,798.6080322265625
877,799.4139404296875,796.5933837890625,799.4139404296875,797.8021850585938
878,791.3552856445312,789.7435913085938,794.1758422851562,799.8168334960938
879,794.981689453125,793.3699340820312,800.2197875976562,803.040283203125
880,798.2051391601562,796.996337890625,801.4285888671875,801.4285888671875
881,789.3406372070312,790.952392578125,799.4139404296875,796.5933837890625
882,788.5347900390625,782.4908447265625,801.025634765625,799.010986328125
883,790.952392578125,775.2380981445312,796.1904907226562,798.6080322265625
884,791.7582397460938,780.4761962890625,792.5640869140625,800.6226806640625
885,791.7582397460938,788.1318969726562,791.7582397460938,794.5787353515625
886,788.937744140625,792.5640869140625,790.952392578125,788.1318969726562
887,787.3259887695312,794.981689453125,789.3406372070312,786.5201416015625
888,787.7289428710938,791.7582397460938,787.3259887695312,783.2966918945312
889,793.3699340820312,790.5494384765625,788.1318969726562,781.6849975585938
890,789.3406372070312,791.3552856445312,790.952392578125,786.5201416015625
891,780.0732421875,791.3552856445312,794.1758422851562,792.5640869140625
892,785.7142944335938,791.7582397460938,794.981689453125,793.3699340820312
893,792.967041015625,780.879150390625,796.5933837890625,798.6080322265625
894,792.5640869140625,778.4615478515625,797.8021850585938,797.3992919921875
895,794.5787353515625,786.5201416015625,794.981689453125,802.2344360351562
896,793.7728881835938,794.981689453125,794.1758422851562,803.4432373046875
897,787.7289428710938,799.010986328125,794.981689453125,790.952392578125
898,792.5640869140625,793.7728881835938,794.981689453125,791.7582397460938
899,794.1758422851562,790.952392578125,786.923095703125,796.5933837890625
900,792.5640869140625,794.981689453125,792.967041015625,800.6226806640625
901,792.1611938476562,791.3552856445312,798.6080322265625,795.3846435546875
902,787.3259887695312,788.1318969726562,790.952392578125,786.5201416015625
903,782.4908447265625,794.5787353515625,790.952392578125,789.7435913085938
904,784.5054931640625,798.6080322265625,797.8021850585938,788.1318969726562
905,789.7435913085938,790.1465454101562,797.8021850585938,781.2820434570312
906,784.908447265625,786.923095703125,790.1465454101562,781.2820434570312
907,783.2966918945312,791.3552856445312,787.3259887695312,778.8644409179688
908,782.893798828125,792.5640869140625,791.3552856445312,780.879150390625
909,780.879150390625,793.3699340820312,792.967041015625,783.2966918945312
910,786.923095703125,799.8168334960938,793.7728881835938,789.7435913085938
911,785.7142944335938,792.967041015625,795.3846435546875,793.3699340820312
912,778.4615478515625,786.1171875,791.7582397460938,787.3259887695312
913,785.3113403320312,795.7875366210938,791.3552856445312,786.1171875
914,790.5494384765625,796.996337890625,792.967041015625,788.1318969726562
915,786.923095703125,791.7582397460938,790.952392578125,787.3259887695312
916,792.1611938476562,786.923095703125,794.1758422851562,782.4908447265625
917,792.5640869140625,786.923095703125,794.5787353515625,782.4908447265625
918,789.7435913085938,795.7875366210938,792.967041015625,790.1465454101562
919,790.952392578125,801.8314819335938,796.996337890625,791.7582397460938
920,789.7435913085938,799.8168334960938,793.7728881835938,789.7435913085938
921,787.7289428710938,794.5787353515625,788.937744140625,786.923095703125
922,791.7582397460938,794.1758422851562,786.5201416015625,793.7728881835938
923,792.5640869140625,796.996337890625,787.7289428710938,793.7728881835938
924,790.5494384765625,797.3992919921875,789.3406372070312,788.1318969726562
925,796.5933837890625,795.3846435546875,788.937744140625,794.981689453125
926,796.1904907226562,797.8021850585938,787.3259887695312,789.7435913085938
927,794.1758422851562,789.7435913085938,788.937744140625,780.879150390625
928,795.7875366210938,778.05859375,792.5640869140625,780.0732421875
929,795.7875366210938,791.3552856445312,789.7435913085938,782.087890625
930,791.3552856445312,799.4139404296875,789.3406372070312,782.4908447265625
931,789.3406372070312,798.6080322265625,788.937744140625,784.1025390625
932,791.3552856445312,797.8021850585938,790.1465454101562,790.5494384765625
933,796.996337890625,792.1611938476562,791.3552856445312,796.1904907226562
934,798.6080322265625,789.7435913085938,789.7435913085938,796.1904907226562
935,796.5933837890625,792.967041015625,791.7582397460938,791.7582397460938
936,793.3699340820312,795.7875366210938,795.3846435546875,791.3552856445312
937,792.5640869140625,790.5494384765625,794.5787353515625,794.1758422851562
938,794.981689453125,790.1465454101562,792.5640869140625,794.5787353515625
939,792.967041015625,792.5640869140625,789.7435913085938,799.4139404296875
940,789.3406372070312,790.5494384765625,786.1171875,798.6080322265625
941,786.5201416015625,789.7435913085938,789.7435913085938,796.1904907226562
942,785.7142944335938,791.3552856445312,788.5347900390625,792.5640869140625
943,782.087890625,790.952392578125,786.923095703125,786.923095703125
944,785.7142944335938,791.3552856445312,790.5494384765625,792.1611938476562
945,793.3699340820312,788.5347900390625,784.5054931640625,797.3992919921875
946,793.7728881835938,788.5347900390625,783.2966918945312,790.1465454101562
947,789.7435913085938,790.5494384765625,784.908447265625,780.879150390625
948,786.923095703125,784.5054931640625,781.6849975585938,777.2527465820312
949,789.7435913085938,786.5201416015625,786.5201416015625,780.0732421875
950,792.1611938476562,790.1465454101562,790.5494384765625,786.5201416015625
951,791.3552856445312,784.908447265625,786.923095703125,786.1171875
952,788.1318969726562,790.952392578125,785.7142944335938,789.3406372070312
953,786.5201416015625,794.1758422851562,784.5054931640625,793.3699340820312
954,791.3552856445312,792.1611938476562,785.3113403320312,791.7582397460938
955,793.7728881835938,794.981689453125,789.3406372070312,789.3406372070312
956,792.967041015625,795.7875366210938,788.937744140625,790.1465454101562
957,794.1758422851562,796.996337890625,788.5347900390625,793.3699340820312
958,792.967041015625,797.8021850585938,789.7435913085938,788.5347900390625
959,792.967041015625,797.3992919921875,786.923095703125,786.5201416015625
960,790.5494384765625,790.1465454101562,786.1171875,783.6996459960938
961,785.3113403320312,780.4761962890625,788.937744140625,784.5054931640625
962,787.3259887695312,782.087890625,790.1465454101562,787.7289428710938
963,793.3699340820312,789.7435913085938,785.3113403320312,791.7582397460938
964,790.952392578125,790.1465454101562,780.879150390625,788.5347900390625
965,786.1171875,790.952392578125,786.923095703125,786.5201416015625
966,785.3113403320312,793.7728881835938,790.1465454101562,790.5494384765625
967,776.4468994140625,790.5494384765625,788.937744140625,787.7289428710938
968,780.879150390625,788.5347900390625,784.1025390625,787.3259887695312
969,783.6996459960938,792.5640869140625,784.1025390625,789.7435913085938
970,783.6996459960938,797.3992919921875,791.7582397460938,792.967041015625
971,784.1025390625,794.1758422851562,793.7728881835938,793.7728881835938
972,779.2673950195312,792.1611938476562,790.952392578125,788.1318969726562
973,788.5347900390625,794.5787353515625,789.7435913085938,789.7435913085938
974,795.7875366210938,788.5347900390625,794.5787353515625,795.3846435546875
975,793.7728881835938,786.1171875,786.923095703125,792.1611938476562
976,794.1758422851562,796.996337890625,783.6996459960938,787.7289428710938
977,790.5494384765625,799.4139404296875,786.5201416015625,784.908447265625
978,790.1465454101562,797.8021850585938,787.3259887695312,784.1025390625
979,793.3699340820312,794.5787353515625,785.3113403320312,784.908447265625
980,794.1758422851562,790.952392578125,786.1171875,791.3552856445312
981,798.6080322265625,795.7875366210938,793.7728881835938,794.5787353515625
982,800.2197875976562,798.6080322265625,797.8021850585938,794.981689453125
983,799.4139404296875,796.1904907226562,795.7875366210938,799.010986328125
984,798.6080322265625,794.1758422851562,793.3699340820312,802.6373901367188
985,809.4871826171875,790.5494384765625,794.5787353515625,802.6373901367188
986,815.5311279296875,795.3846435546875,796.5933837890625,802.2344360351562
987,808.2783813476562,798.2051391601562,789.7435913085938,797.8021850585938
988,805.8607788085938,797.8021850585938,786.923095703125,794.1758422851562
989,800.2197875976562,796.996337890625,792.967041015625,791.7582397460938
990,795.3846435546875,790.952392578125,791.3552856445312,790.1465454101562
991,797.3992919921875,792.5640869140625,794.1758422851562,799.4139404296875
992,788.937744140625,792.967041015625,801.025634765625,798.2051391601562
993,785.3113403320312,788.5347900390625,796.996337890625,784.5054931640625
994,791.7582397460938,787.7289428710938,796.1904907226562,787.3259887695312
995,790.952392578125,788.937744140625,799.8168334960938,793.3699340820312
996,788.937744140625,791.3552856445312,805.4578857421875,793.7728881835938
997,787.3259887695312,784.5054931640625,805.054931640625,798.2051391601562
998,782.893798828125,790.952392578125,801.8314819335938,795.3846435546875
999,780.0732421875,800.2197875976562,798.6080322265625,791.7582397460938
1000,787.7289428710938,802.6373901367188,796.996337890625,792.5640869140625
1001,794.981689453125,797.8021850585938,800.2197875976562,797.3992919921875
1002,796.996337890625,792.5640869140625,797.8021850585938,802.2344360351562
1003,798.2051391601562,797.8021850585938,794.1758422851562,799.010986328125
1004,794.981689453125,800.6226806640625,798.2051391601562,788.937744140625
1005,798.6080322265625,798.2051391601562,801.8314819335938,788.1318969726562
1006,803.040283203125,797.8021850585938,803.040283203125,796.5933837890625
1007,799.010986328125,792.967041015625,800.6226806640625,798.6080322265625
1008,796.1904907226562,780.879150390625,796.5933837890625,795.3846435546875
1009,792.1611938476562,772.0146484375,794.5787353515625,794.5787353515625
1010,792.5640869140625,785.3113403320312,791.7582397460938,797.3992919921875
1011,794.1758422851562,793.7728881835938,790.5494384765625,796.1904907226562
1012,796.5933837890625,787.7289428710938,794.1758422851562,790.952392578125
1013,796.1904907226562,791.7582397460938,799.4139404296875,790.5494384765625
1014,794.981689453125,797.8021850585938,797.8021850585938,792.967041015625
1015,793.7728881835938,794.981689453125,793.7728881835938,787.3259887695312
1016,787.7289428710938,788.937744140625,796.5933837890625,784.5054931640625
1017,788.5347900390625,790.5494384765625,794.981689453125,793.7728881835938
1018,789.7435913085938,787.7289428710938,794.981689453125,805.054931640625
1019,786.923095703125,779.2673950195312,795.3846435546875,798.6080322265625
1020,789.7435913085938,778.4615478515625,791.3552856445312,792.1611938476562
1021,796.996337890625,780.0732421875,792.5640869140625,794.5787353515625
1022,801.025634765625,790.5494384765625,795.7875366210938,797.3992919921875
1023,795.3846435546875,796.996337890625,794.981689453125,799.010986328125
1024,794.981689453125,795.7875366210938,794.981689453125,795.7875366210938
1025,801.025634765625,797.3992919921875,797.3992919921875,786.1171875
1026,800.2197875976562,795.7875366210938,795.3846435546875,786.923095703125
1027,793.7728881835938,790.952392578125,796.1904907226562,792.1611938476562
1028,788.1318969726562,788.5347900390625,797.8021850585938,789.7435913085938
1029,790.1465454101562,786.5201416015625,798.2051391601562,797.8021850585938
1030,791.7582397460938,784.908447265625,799.010986328125,813.113525390625
1031,790.5494384765625,788.1318969726562,800.2197875976562,807.069580078125
1032,790.5494384765625,792.967041015625,802.2344360351562,797.8021850585938
1033,792.967041015625,786.923095703125,794.981689453125,801.8314819335938
1034,795.3846435546875,779.2673950195312,790.5494384765625,802.6373901367188
1035,796.1904907226562,782.893798828125,796.996337890625,791.7582397460938
1036,797.8021850585938,788.5347900390625,794.5787353515625,782.087890625
1037,803.8461303710938,790.5494384765625,793.3699340820312,789.3406372070312
1038,800.6226806640625,786.923095703125,793.7728881835938,794.1758422851562
1039,793.7728881835938,782.4908447265625,789.3406372070312,784.5054931640625
1040,791.7582397460938,787.7289428710938,790.952392578125,787.7289428710938
1041,796.996337890625,792.1611938476562,792.967041015625,803.8461303710938
1042,796.996337890625,788.1318969726562,792.1611938476562,792.5640869140625
1043,792.1611938476562,787.7289428710938,791.3552856445312,780.0732421875
1044,790.5494384765625,784.1025390625,790.5494384765625,782.893798828125
1045,787.7289428710938,780.0732421875,790.5494384765625,780.0732421875
1046,793.3699340820312,789.7435913085938,786.1171875,786.1171875
1047,795.7875366210938,792.967041015625,782.893798828125,790.952392578125
1048,791.3552856445312,792.5640869140625,788.1318969726562,790.952392578125
1049,794.1758422851562,790.952392578125,793.7728881835938,790.952392578125
1050,799.010986328125,785.3113403320312,793.7728881835938,788.5347900390625
1051,794.5787353515625,782.4908447265625,790.5494384765625,787.7289428710938
1052,790.5494384765625,787.7289428710938,791.7582397460938,792.5640869140625
1053,790.952392578125,792.1611938476562,792.967041015625,789.7435913085938
1054,794.981689453125,791.3552856445312,791.3552856445312,784.1025390625
1055,800.6226806640625,789.3406372070312,789.7435913085938,787.3259887695312
1056,799.8168334960938,790.952392578125,789.7435913085938,792.1611938476562
1057,793.7728881835938,790.1465454101562,792.967041015625,788.1318969726562
1058,794.981689453125,791.3552856445312,793.3699340820312,786.1171875
1059,799.4139404296875,792.967041015625,792.1611938476562,788.1318969726562
1060,793.3699340820312,788.1318969726562,787.3259887695312,788.5347900390625
1061,788.5347900390625,786.1171875,788.1318969726562,791.7582397460938
1062,791.7582397460938,796.996337890625,792.1611938476562,787.7289428710938
1063,790.5494384765625,801.8314819335938,787.7289428710938,788.1318969726562
1064,790.1465454101562,786.5201416015625,782.893798828125,796.1904907226562
1065,792.1611938476562,786.1171875,780.879150390625,795.7875366210938
1066,790.952392578125,800.2197875976562,784.908447265625,790.1465454101562
1067,792.1611938476562,797.8021850585938,793.7728881835938,792.5640869140625
1068,794.981689453125,785.7142944335938,793.7728881835938,790.1465454101562
1069,792.1611938476562,785.7142944335938,792.1611938476562,783.2966918945312
1070,785.3113403320312,793.3699340820312,792.5640869140625,782.087890625
1071,788.937744140625,799.4139404296875,796.996337890625,792.5640869140625
1072,792.1611938476562,798.6080322265625,800.6226806640625,796.5933837890625
1073,786.5201416015625,796.5933837890625,793.7728881835938,788.1318969726562
1074,792.967041015625,795.3846435546875,788.5347900390625,790.5494384765625
1075,795.7875366210938,792.1611938476562,789.7435913085938,793.7728881835938
1076,791.7582397460938,787.3259887695312,789.7435913085938,794.1758422851562
1077,790.952392578125,788.1318969726562,792.1611938476562,792.5640869140625
1078,788.1318969726562,786.1171875,794.1758422851562,792.1611938476562
1079,793.3699340820312,785.7142944335938,796.5933837890625,793.7728881835938
1080,791.7582397460938,794.5787353515625,796.1904907226562,790.952392578125
1081,786.1171875,794.5787353515625,791.7582397460938,791.7582397460938
1082,791.7582397460938,794.981689453125,786.5201416015625,790.5494384765625
1083,794.981689453125,797.8021850585938,788.937744140625,796.1904907226562
1084,791.7582397460938,796.996337890625,793.7728881835938,797.8021850585938
1085,788.937744140625,795.3846435546875,789.3406372070312,789.3406372070312
1086,791.3552856445312,788.937744140625,785.3113403320312,793.3699340820312
1087,793.3699340820312,788.5347900390625,782.087890625,799.4139404296875
1088,796.996337890625,796.996337890625,790.952392578125,798.6080322265625
1089,794.1758422851562,796.5933837890625,797.8021850585938,793.3699340820312
1090,792.967041015625,793.3699340820312,800.6226806640625,794.1758422851562
1091,796.1904907226562,790.952392578125,801.8314819335938,799.4139404296875
1092,796.1904907226562,789.3406372070312,801.4285888671875,795.7875366210938
1093,794.5787353515625,795.3846435546875,804.2490844726562,790.5494384765625
1094,793.7728881835938,798.6080322265625,802.6373901367188,796.1904907226562
1095,794.5787353515625,799.8168334960938,797.8021850585938,796.996337890625
1096,792.967041015625,795.3846435546875,799.8168334960938,792.5640869140625
1097,801.025634765625,789.3406372070312,795.7875366210938,801.025634765625
1098,807.4725341796875,789.7435913085938,793.7728881835938,809.89013671875
1099,791.7582397460938,786.5201416015625,798.6080322265625,796.5933837890625
1100,784.5054931640625,782.893798828125,796.996337890625,783.6996459960938
1101,790.1465454101562,788.937744140625,794.5787353515625,788.937744140625
1102,795.3846435546875,788.1318969726562,794.5787353515625,792.5640869140625
1103,795.7875366210938,792.1611938476562,796.996337890625,793.7728881835938
1104,793.7728881835938,800.2197875976562,800.6226806640625,797.3992919921875
1105,786.923095703125,797.3992919921875,800.2197875976562,794.1758422851562
1106,781.6849975585938,794.1758422851562,796.5933837890625,792.5640869140625
1107,786.1171875,791.7582397460938,797.8021850585938,795.3846435546875
1108,792.967041015625,790.5494384765625,796.996337890625,796.1904907226562
1109,794.5787353515625,794.981689453125,792.1611938476562,797.3992919921875
1110,794.981689453125,796.996337890625,792.5640869140625,799.4139404296875
1111,793.3699340820312,796.5933837890625,796.5933837890625,794.1758422851562
1112,787.7289428710938,794.5787353515625,798.2051391601562,786.5201416015625
1113,791.7582397460938,797.3992919921875,801.025634765625,792.5640869140625
1114,801.4285888671875,801.025634765625,802.6373901367188,805.4578857421875
1115,798.2051391601562,800.2197875976562,798.6080322265625,792.1611938476562
1116,791.3552856445312,800.6226806640625,798.2051391601562,788.1318969726562
1117,797.3992919921875,799.8168334960938,803.040283203125,803.040283203125
1118,799.8168334960938,803.8461303710938,804.2490844726562,804.6520385742188
1119,797.3992919921875,804.2490844726562,803.4432373046875,801.4285888671875
1120,796.5933837890625,793.3699340820312,801.025634765625,799.010986328125
1121,787.3259887695312,790.952392578125,795.7875366210938,794.1758422851562
1122,780.879150390625,792.1611938476562,790.5494384765625,791.7582397460938
1123,790.1465454101562,793.7728881835938,792.967041015625,801.4285888671875
1124,795.3846435546875,794.5787353515625,795.3846435546875,800.6226806640625
1125,799.8168334960938,792.967041015625,792.5640869140625,803.4432373046875
1126,801.8314819335938,799.8168334960938,792.5640869140625,812.3076782226562
1127,801.025634765625,807.069580078125,796.996337890625,805.4578857421875
1128,801.8314819335938,805.054931640625,796.1904907226562,800.2197875976562
1129,800.6226806640625,800.2197875976562,792.5640869140625,805.054931640625
1130,800.2197875976562,793.3699340820312,792.5640869140625,809.084228515625
1131,799.8168334960938,799.4139404296875,794.5787353515625,806.2637329101562
1132,801.025634765625,804.2490844726562,790.5494384765625,801.4285888671875
1133,800.6226806640625,799.4139404296875,790.1465454101562,801.8314819335938
1134,801.025634765625,796.996337890625,796.1904907226562,799.8168334960938
1135,798.6080322265625,794.1758422851562,799.4139404296875,795.3846435546875
1136,792.967041015625,794.1758422851562,797.3992919921875,788.5347900390625
1137,795.7875366210938,794.5787353515625,794.1758422851562,789.3406372070312
1138,791.3552856445312,790.5494384765625,789.3406372070312,785.3113403320312
1139,792.967041015625,790.952392578125,790.952392578125,776.8497924804688
1140,794.5787353515625,797.3992919921875,793.7728881835938,781.6849975585938
1141,787.3259887695312,798.2051391601562,797.3992919921875,791.3552856445312
1142,791.3552856445312,794.981689453125,797.3992919921875,794.5787353515625
1143,790.1465454101562,795.3846435546875,790.5494384765625,792.1611938476562
1144,790.1465454101562,796.1904907226562,788.937744140625,796.996337890625
1145,794.981689453125,790.5494384765625,796.1904907226562,798.2051391601562
1146,791.7582397460938,788.937744140625,796.1904907226562,788.937744140625
1147,789.3406372070312,790.952392578125,792.1611938476562,783.2966918945312
1148,793.7728881835938,791.7582397460938,794.981689453125,794.981689453125
1149,795.3846435546875,790.1465454101562,793.7728881835938,802.6373901367188
1150,790.952392578125,791.3552856445312,793.3699340820312,792.967041015625
1151,792.1611938476562,795.3846435546875,793.7728881835938,788.5347900390625
1152,793.3699340820312,794.5787353515625,794.1758422851562,787.3259887695312
1153,791.7582397460938,788.1318969726562,799.4139404296875,793.7728881835938
1154,787.7289428710938,782.893798828125,800.2197875976562,795.3846435546875
1155,784.1025390625,784.1025390625,790.5494384765625,791.3552856445312
1156,788.937744140625,786.1171875,792.5640869140625,792.5640869140625
1157,791.3552856445312,788.5347900390625,795.7875366210938,796.5933837890625
1158,783.2966918945312,786.5201416015625,792.967041015625,792.5640869140625
1159,776.4468994140625,788.5347900390625,793.7728881835938,791.7582397460938
1160,780.4761962890625,788.1318969726562,794.981689453125,801.8314819335938
1161,790.1465454101562,789.3406372070312,799.010986328125,804.6520385742188
1162,788.5347900390625,791.7582397460938,799.010986328125,799.4139404296875
1163,786.923095703125,791.7582397460938,799.8168334960938,798.2051391601562
1164,791.3552856445312,792.5640869140625,799.4139404296875,798.2051391601562
1165,791.3552856445312,793.3699340820312,800.2197875976562,800.6226806640625
1166,796.1904907226562,796.1904907226562,799.8168334960938,801.4285888671875
1167,797.8021850585938,797.8021850585938,795.7875366210938,800.2197875976562
1168,790.952392578125,795.3846435546875,795.3846435546875,798.6080322265625
1169,792.5640869140625,798.6080322265625,796.996337890625,790.952392578125
1170,801.025634765625,800.6226806640625,797.3992919921875,791.3552856445312
1171,805.4578857421875,798.2051391601562,799.4139404296875,797.3992919921875
1172,804.2490844726562,798.6080322265625,796.996337890625,805.054931640625
1173,797.8021850585938,798.2051391601562,799.4139404296875,796.996337890625
1174,794.981689453125,797.8021850585938,797.3992919921875,786.1171875
1175,798.2051391601562,798.6080322265625,791.3552856445312,791.3552856445312
1176,801.8314819335938,800.6226806640625,799.8168334960938,796.996337890625
1177,801.4285888671875,800.2197875976562,798.6080322265625,793.7728881835938
1178,807.069580078125,793.3699340820312,796.996337890625,797.8021850585938
1179,806.6666870117188,790.952392578125,798.2051391601562,805.054931640625
1180,803.4432373046875,796.5933837890625,797.8021850585938,802.2344360351562
1181,801.8314819335938,799.8168334960938,799.4139404296875,800.2197875976562
1182,794.1758422851562,796.5933837890625,799.4139404296875,796.1904907226562
1183,790.1465454101562,791.3552856445312,793.7728881835938,793.7728881835938
1184,787.7289428710938,790.1465454101562,791.3552856445312,793.7728881835938
1185,786.923095703125,793.3699340820312,796.5933837890625,797.3992919921875
1186,787.3259887695312,794.5787353515625,801.025634765625,799.8168334960938
1187,787.3259887695312,788.5347900390625,796.1904907226562,801.4285888671875
1188,785.7142944335938,781.6849975585938,789.3406372070312,796.5933837890625
1189,786.923095703125,782.087890625,794.1758422851562,789.3406372070312
1190,791.7582397460938,787.7289428710938,797.8021850585938,792.1611938476562
1191,791.7582397460938,787.3259887695312,792.5640869140625,785.3113403320312
1192,796.5933837890625,787.7289428710938,790.952392578125,782.087890625
1193,799.4139404296875,792.5640869140625,797.8021850585938,786.5201416015625
1194,794.5787353515625,792.967041015625,798.6080322265625,784.1025390625
1195,792.1611938476562,791.3552856445312,792.5640869140625,782.893798828125
1196,795.3846435546875,795.3846435546875,793.7728881835938,782.893798828125
1197,790.952392578125,794.1758422851562,797.8021850585938,783.6996459960938
1198,784.5054931640625,794.981689453125,794.981689453125,780.4761962890625
1199,788.5347900390625,794.1758422851562,788.5347900390625,778.8644409179688
1200,791.7582397460938,785.7142944335938,791.3552856445312,778.8644409179688
1201,792.1611938476562,788.5347900390625,791.7582397460938,786.1171875
1202,796.5933837890625,797.3992919921875,788.937744140625,792.1611938476562
1203,797.3992919921875,800.6226806640625,798.2051391601562,792.967041015625
1204,794.5787353515625,794.981689453125,800.6226806640625,789.7435913085938
1205,787.3259887695312,789.3406372070312,799.010986328125,787.7289428710938
1206,783.2966918945312,786.5201416015625,797.8021850585938,789.7435913085938
1207,787.7289428710938,788.937744140625,796.5933837890625,792.967041015625
1208,784.1025390625,789.3406372070312,797.3992919921875,792.967041015625
1209,786.5201416015625,786.923095703125,799.010986328125,795.3846435546875
1210,792.1611938476562,789.7435913085938,795.7875366210938,797.3992919921875
1211,788.5347900390625,790.5494384765625,799.010986328125,787.7289428710938
1212,790.1465454101562,791.7582397460938,804.6520385742188,778.4615478515625
1213,789.7435913085938,799.010986328125,803.040283203125,784.908447265625
1214,779.6703491210938,795.7875366210938,796.1904907226562,788.1318969726562
1215,776.8497924804688,782.087890625,790.952392578125,779.2673950195312
1216,776.4468994140625,782.087890625,788.937744140625,772.0146484375
1217,780.4761962890625,788.937744140625,788.937744140625,782.893798828125
1218,792.1611938476562,790.1465454101562,791.3552856445312,794.981689453125
1219,790.952392578125,790.952392578125,788.5347900390625,788.937744140625
1220,790.952392578125,794.1758422851562,790.5494384765625,788.5347900390625
1221,792.5640869140625,793.3699340820312,794.981689453125,791.7582397460938
1222,793.3699340820312,792.967041015625,792.1611938476562,791.3552856445312
1223,793.7728881835938,785.3113403320312,788.5347900390625,792.5640869140625
1224,795.3846435546875,785.7142944335938,789.7435913085938,788.937744140625
1225,796.5933837890625,789.7435913085938,790.952392578125,786.1171875
1226,792.1611938476562,790.952392578125,786.5201416015625,788.937744140625
1227,794.981689453125,796.5933837890625,786.1171875,796.996337890625
1228,796.996337890625,792.967041015625,788.937744140625,801.025634765625
1229,794.5787353515625,781.2820434570312,792.1611938476562,803.4432373046875
1230,794.981689453125,783.2966918945312,793.3699340820312,811.098876953125
1231,789.7435913085938,789.7435913085938,788.5347900390625,796.5933837890625
1232,788.1318969726562,790.952392578125,785.7142944335938,785.3113403320312
1233,790.5494384765625,792.5640869140625,781.2820434570312,792.1611938476562
1234,789.7435913085938,791.3552856445312,784.1025390625,786.5201416015625
1235,787.3259887695312,782.893798828125,790.1465454101562,780.0732421875
1236,785.7142944335938,783.6996459960938,788.937744140625,786.1171875
1237,791.3552856445312,788.937744140625,792.5640869140625,789.7435913085938
1238,792.5640869140625,788.937744140625,794.5787353515625,785.3113403320312
1239,787.7289428710938,794.981689453125,788.1318969726562,785.7142944335938
1240,792.5640869140625,793.3699340820312,787.7289428710938,793.3699340820312
1241,794.981689453125,783.6996459960938,794.981689453125,796.1904907226562
1242,794.5787353515625,783.2966918945312,792.967041015625,787.3259887695312
1243,798.2051391601562,784.5054931640625,789.7435913085938,782.087890625
1244,798.2051391601562,789.7435913085938,796.5933837890625,788.937744140625
1245,796.996337890625,794.5787353515625,796.996337890625,790.5494384765625
1246,797.3992919921875,794.5787353515625,796.5933837890625,787.7289428710938
1247,796.1904907226562,788.1318969726562,794.981689453125,788.5347900390625
1248,796.1904907226562,790.5494384765625,789.3406372070312,794.1758422851562
1249,792.967041015625,794.5787353515625,789.3406372070312,801.4285888671875
1250,791.3552856445312,796.5933837890625,793.7728881835938,797.8021850585938
1251,791.7582397460938,798.2051391601562,793.3699340820312,797.8021850585938
1252,787.3259887695312,795.3846435546875,791.7582397460938,795.3846435546875
1253,788.937744140625,792.1611938476562,794.5787353515625,792.967041015625
1254,793.3699340820312,788.937744140625,790.5494384765625,794.5787353515625
1255,791.7582397460938,787.3259887695312,789.7435913085938,790.952392578125
1256,789.3406372070312,786.5201416015625,791.7582397460938,799.4139404296875
1257,788.937744140625,792.5640869140625,798.6080322265625,805.8607788085938
1258,786.5201416015625,790.952392578125,798.6080322265625,796.1904907226562
1259,788.1318969726562,790.5494384765625,790.1465454101562,794.1758422851562
1260,792.5640869140625,796.1904907226562,792.967041015625,796.1904907226562
1261,792.5640869140625,793.3699340820312,797.8021850585938,791.7582397460938
1262,791.7582397460938,791.3552856445312,797.8021850585938,788.5347900390625
1263,796.1904907226562,788.937744140625,793.7728881835938,791.7582397460938
1264,795.3846435546875,786.1171875,793.3699340820312,796.996337890625
1265,796.5933837890625,790.1465454101562,796.5933837890625,798.2051391601562
1266,803.040283203125,791.3552856445312,788.937744140625,797.8021850585938
1267,801.4285888671875,788.937744140625,786.923095703125,795.3846435546875
1268,798.6080322265625,790.952392578125,790.1465454101562,799.010986328125
1269,801.025634765625,796.5933837890625,793.7728881835938,801.8314819335938
1270,801.025634765625,794.981689453125,796.996337890625,796.5933837890625
1271,802.6373901367188,798.2051391601562,793.7728881835938,793.7728881835938
1272,799.4139404296875,799.8168334960938,794.1758422851562,790.952392578125
1273,794.1758422851562,798.6080322265625,795.7875366210938,789.7435913085938
1274,792.1611938476562,798.6080322265625,792.967041015625,796.5933837890625
1275,790.952392578125,790.952392578125,792.967041015625,799.8168334960938
1276,790.1465454101562,786.923095703125,791.7582397460938,798.2051391601562
1277,795.7875366210938,789.7435913085938,793.7728881835938,799.8168334960938
1278,801.4285888671875,793.3699340820312,796.996337890625,802.2344360351562
1279,801.8314819335938,793.3699340820312,792.967041015625,807.069580078125
1280,797.8021850585938,785.7142944335938,795.7875366210938,808.6813354492188
1281,794.981689453125,779.2673950195312,797.3992919921875,796.996337890625
1282,796.1904907226562,786.923095703125,792.5640869140625,788.1318969726562
1283,798.2051391601562,798.2051391601562,793.3699340820312,789.7435913085938
1284,796.1904907226562,799.8168334960938,797.8021850585938,794.5787353515625
1285,795.3846435546875,798.2051391601562,799.010986328125,795.7875366210938
1286,797.3992919921875,793.7728881835938,796.996337890625,799.8168334960938
1287,798.6080322265625,792.967041015625,798.6080322265625,798.6080322265625
1288,796.996337890625,796.5933837890625,799.8168334960938,791.3552856445312
1289,795.7875366210938,801.8314819335938,798.6080322265625,794.1758422851562
1290,800.2197875976562,804.6520385742188,797.8021850585938,798.6080322265625
1291,802.6373901367188,803.8461303710938,792.967041015625,796.5933837890625
1292,800.2197875976562,800.2197875976562,793.7728881835938,794.1758422851562
1293,796.1904907226562,795.3846435546875,794.5787353515625,792.5640869140625
1294,796.996337890625,788.5347900390625,791.3552856445312,792.1611938476562
1295,796.996337890625,789.7435913085938,792.967041015625,796.1904907226562
1296,789.7435913085938,791.3552856445312,796.5933837890625,796.5933837890625
1297,786.5201416015625,792.1611938476562,801.4285888671875,793.7728881835938
1298,791.7582397460938,793.3699340820312,804.2490844726562,799.8168334960938
1299,795.3846435546875,794.981689453125,801.8314819335938,802.2344360351562
1300,790.1465454101562,792.967041015625,799.010986328125,795.7875366210938
1301,788.5347900390625,783.2966918945312,799.4139404296875,799.4139404296875
1302,784.5054931640625,782.4908447265625,792.5640869140625,798.6080322265625
1303,788.5347900390625,796.1904907226562,790.5494384765625,794.1758422851562
1304,795.7875366210938,803.040283203125,795.7875366210938,796.5933837890625
1305,795.3846435546875,794.981689453125,798.2051391601562,799.4139404296875
1306,797.3992919921875,792.5640869140625,799.8168334960938,804.2490844726562
1307,802.2344360351562,797.3992919921875,799.4139404296875,807.069580078125
1308,809.4871826171875,796.996337890625,796.5933837890625,800.2197875976562
1309,813.113525390625,798.6080322265625,798.6080322265625,797.8021850585938
1310,807.069580078125,797.3992919921875,796.996337890625,799.010986328125
1311,804.2490844726562,796.5933837890625,795.3846435546875,793.3699340820312
1312,802.6373901367188,800.2197875976562,798.2051391601562,790.952392578125
1313,804.2490844726562,798.6080322265625,798.6080322265625,796.996337890625
1314,809.4871826171875,800.6226806640625,799.4139404296875,796.996337890625
1315,810.6959838867188,807.069580078125,796.5933837890625,786.5201416015625
1316,808.2783813476562,801.4285888671875,795.3846435546875,783.2966918945312
1317,806.2637329101562,792.967041015625,794.5787353515625,788.937744140625
1318,801.4285888671875,795.7875366210938,791.3552856445312,791.3552856445312
1319,798.6080322265625,795.7875366210938,792.967041015625,787.7289428710938
1320,799.4139404296875,792.5640869140625,791.7582397460938,784.1025390625
1321,798.2051391601562,792.1611938476562,790.952392578125,787.3259887695312
1322,789.3406372070312,790.5494384765625,794.5787353515625,790.1465454101562
1323,788.937744140625,788.1318969726562,797.3992919921875,792.1611938476562
1324,789.7435913085938,788.1318969726562,796.5933837890625,792.967041015625
1325,784.5054931640625,786.1171875,797.8021850585938,793.3699340820312
1326,785.7142944335938,782.893798828125,794.981689453125,794.981689453125
1327,787.7289428710938,790.1465454101562,794.981689453125,791.7582397460938
1328,788.1318969726562,794.981689453125,798.2051391601562,786.923095703125
1329,791.3552856445312,791.3552856445312,792.967041015625,794.1758422851562
1330,787.3259887695312,794.1758422851562,793.7728881835938,790.5494384765625
1331,787.3259887695312,794.981689453125,795.3846435546875,780.4761962890625
1332,790.1465454101562,789.7435913085938,793.7728881835938,782.893798828125
1333,789.3406372070312,791.3552856445312,794.981689453125,786.1171875
1334,791.7582397460938,792.967041015625,798.2051391601562,788.5347900390625
1335,791.3552856445312,793.7728881835938,795.3846435546875,786.5201416015625
1336,787.7289428710938,789.7435913085938,788.1318969726562,782.893798828125
1337,792.1611938476562,790.5494384765625,786.1171875,785.3113403320312
1338,796.1904907226562,790.952392578125,792.1611938476562,788.937744140625
1339,793.7728881835938,790.952392578125,793.3699340820312,791.3552856445312
1340,792.1611938476562,798.6080322265625,790.952392578125,785.3113403320312
1341,791.3552856445312,806.6666870117188,791.7582397460938,778.05859375
1342,792.5640869140625,801.4285888671875,789.7435913085938,773.2234497070312
1343,798.2051391601562,794.5787353515625,790.1465454101562,775.2380981445312
1344,799.8168334960938,794.5787353515625,790.952392578125,792.967041015625
1345,800.6226806640625,795.7875366210938,792.967041015625,799.010986328125
1346,794.1758422851562,799.4139404296875,796.1904907226562,791.3552856445312
1347,787.7289428710938,796.996337890625,789.7435913085938,788.937744140625
1348,788.1318969726562,796.1904907226562,783.6996459960938,790.1465454101562
1349,789.3406372070312,796.1904907226562,790.952392578125,795.3846435546875
1350,787.7289428710938,792.967041015625,791.7582397460938,797.3992919921875
1351,786.923095703125,788.937744140625,787.7289428710938,798.2051391601562
1352,785.7142944335938,781.6849975585938,786.923095703125,804.2490844726562
1353,790.5494384765625,783.2966918945312,786.5201416015625,801.4285888671875
1354,794.981689453125,785.7142944335938,790.952392578125,789.7435913085938
1355,794.1758422851562,779.6703491210938,793.3699340820312,789.3406372070312
1356,794.5787353515625,785.7142944335938,790.952392578125,791.7582397460938
1357,794.5787353515625,794.1758422851562,794.5787353515625,795.7875366210938
1358,789.7435913085938,792.1611938476562,797.8021850585938,798.2051391601562
1359,790.5494384765625,789.3406372070312,792.967041015625,791.7582397460938
1360,790.5494384765625,790.5494384765625,788.1318969726562,787.3259887695312
1361,786.923095703125,790.5494384765625,790.1465454101562,785.7142944335938
1362,786.1171875,788.937744140625,792.967041015625,781.6849975585938
1363,784.5054931640625,790.1465454101562,790.5494384765625,781.2820434570312
1364,779.6703491210938,790.952392578125,791.7582397460938,779.2673950195312
1365,777.6557006835938,791.7582397460938,791.7582397460938,775.2380981445312
1366,779.2673950195312,793.7728881835938,793.7728881835938,774.8351440429688
1367,777.6557006835938,784.908447265625,791.7582397460938,778.05859375
1368,778.8644409179688,787.3259887695312,786.1171875,780.879150390625
1369,785.3113403320312,799.4139404296875,789.7435913085938,781.6849975585938
1370,786.923095703125,799.010986328125,794.981689453125,777.2527465820312
1371,788.937744140625,790.952392578125,795.3846435546875,783.2966918945312
1372,786.1171875,791.3552856445312,800.2197875976562,792.1611938476562
1373,774.4322509765625,794.1758422851562,801.4285888671875,787.3259887695312
1374,773.2234497070312,788.5347900390625,795.7875366210938,795.7875366210938
1375,780.4761962890625,788.1318969726562,792.967041015625,807.87548828125
1376,784.908447265625,792.1611938476562,792.967041015625,796.5933837890625
1377,782.4908447265625,791.3552856445312,790.5494384765625,786.5201416015625
1378,779.2673950195312,787.7289428710938,786.1171875,793.3699340820312
1379,786.1171875,789.7435913085938,788.1318969726562,801.4285888671875
1380,792.967041015625,790.1465454101562,792.5640869140625,797.3992919921875
1381,798.2051391601562,786.5201416015625,792.967041015625,791.3552856445312
1382,794.981689453125,790.1465454101562,790.1465454101562,788.1318969726562
1383,790.5494384765625,795.7875366210938,793.3699340820312,789.3406372070312
1384,792.967041015625,800.6226806640625,791.3552856445312,792.967041015625
1385,794.1758422851562,797.8021850585938,788.937744140625,787.7289428710938
1386,794.981689453125,791.3552856445312,789.3406372070312,784.1025390625
1387,791.3552856445312,790.952392578125,786.923095703125,784.908447265625
1388,795.3846435546875,794.5787353515625,791.3552856445312,783.2966918945312
1389,800.6226806640625,792.1611938476562,793.3699340820312,787.3259887695312
1390,807.87548828125,788.1318969726562,790.952392578125,803.8461303710938
1391,808.6813354492188,793.3699340820312,798.2051391601562,817.1428833007812
1392,790.1465454101562,799.4139404296875,804.2490844726562,794.5787353515625
1393,779.2673950195312,794.1758422851562,800.6226806640625,776.8497924804688
1394,786.1171875,790.952392578125,791.3552856445312,778.8644409179688
1395,784.5054931640625,797.3992919921875,786.1171875,777.2527465820312
1396,779.6703491210938,797.8021850585938,792.5640869140625,781.2820434570312
1397,780.4761962890625,790.952392578125,798.6080322265625,792.5640869140625
1398,780.879150390625,788.937744140625,791.7582397460938,790.1465454101562
1399,784.5054931640625,788.937744140625,790.1465454101562,785.7142944335938
1400,788.1318969726562,784.908447265625,793.7728881835938,790.952392578125
1401,787.3259887695312,785.3113403320312,793.7728881835938,792.5640869140625
1402,791.3552856445312,792.967041015625,793.3699340820312,794.981689453125
1403,795.3846435546875,801.025634765625,794.1758422851562,796.996337890625
1404,786.5201416015625,791.3552856445312,786.5201416015625,789.7435913085938
1405,788.1318969726562,784.908447265625,788.937744140625,791.7582397460938
1406,799.010986328125,793.7728881835938,797.3992919921875,800.6226806640625
1407,796.1904907226562,792.5640869140625,795.7875366210938,794.1758422851562
1408,788.1318969726562,789.7435913085938,800.6226806640625,792.5640869140625
1409,796.1904907226562,793.7728881835938,807.87548828125,800.2197875976562
1410,798.6080322265625,794.981689453125,806.6666870117188,805.4578857421875
1411,791.7582397460938,794.5787353515625,799.8168334960938,801.025634765625
1412,794.5787353515625,795.3846435546875,796.1904907226562,799.4139404296875
1413,792.967041015625,793.3699340820312,794.5787353515625,801.8314819335938
1414,792.5640869140625,792.967041015625,790.1465454101562,796.1904907226562
1415,804.6520385742188,793.3699340820312,782.893798828125,799.010986328125
1416,806.6666870117188,795.3846435546875,786.1171875,797.3992919921875
1417,803.8461303710938,793.7728881835938,791.3552856445312,797.8021850585938
1418,808.2783813476562,794.1758422851562,791.3552856445312,805.8607788085938
1419,805.054931640625,795.7875366210938,798.6080322265625,794.5787353515625
1420,799.010986328125,793.3699340820312,797.3992919921875,788.937744140625
1421,796.1904907226562,796.5933837890625,792.5640869140625,794.5787353515625
1422,794.981689453125,800.6226806640625,792.967041015625,799.8168334960938
1423,793.3699340820312,799.010986328125,795.7875366210938,799.010986328125
1424,790.1465454101562,796.996337890625,796.1904907226562,796.5933837890625
1425,795.3846435546875,791.3552856445312,795.7875366210938,807.4725341796875
1426,797.3992919921875,788.937744140625,799.8168334960938,807.4725341796875
1427,792.1611938476562,794.5787353515625,798.6080322265625,803.8461303710938
1428,790.952392578125,798.2051391601562,796.996337890625,802.2344360351562
1429,790.5494384765625,793.7728881835938,798.2051391601562,796.996337890625
1430,790.5494384765625,792.967041015625,794.5787353515625,792.5640869140625
1431,791.3552856445312,794.1758422851562,792.967041015625,792.5640869140625
1432,797.3992919921875,794.1758422851562,800.2197875976562,797.8021850585938
1433,797.3992919921875,791.3552856445312,801.025634765625,793.3699340820312
1434,794.5787353515625,794.981689453125,794.981689453125,789.3406372070312
1435,794.1758422851562,796.5933837890625,792.5640869140625,790.1465454101562
1436,791.7582397460938,790.1465454101562,785.3113403320312,789.7435913085938
1437,794.5787353515625,788.5347900390625,784.5054931640625,796.5933837890625
1438,793.7728881835938,796.5933837890625,789.7435913085938,788.1318969726562
1439,792.1611938476562,800.2197875976562,791.3552856445312,785.7142944335938
1440,803.4432373046875,800.6226806640625,793.3699340820312,789.3406372070312
1441,803.040283203125,805.8607788085938,790.5494384765625,788.5347900390625
1442,803.8461303710938,807.4725341796875,792.5640869140625,789.3406372070312
1443,802.6373901367188,796.1904907226562,793.7728881835938,789.7435913085938
1444,798.2051391601562,800.2197875976562,795.3846435546875,792.1611938476562
1445,799.010986328125,804.2490844726562,794.981689453125,789.3406372070312
1446,797.8021850585938,799.010986328125,789.7435913085938,783.6996459960938
1447,795.7875366210938,799.8168334960938,788.937744140625,784.908447265625
1448,793.3699340820312,798.2051391601562,789.3406372070312,798.6080322265625
1449,794.981689453125,792.967041015625,793.3699340820312,813.91943359375
1450,798.2051391601562,795.3846435546875,799.4139404296875,808.2783813476562
1451,799.010986328125,801.025634765625,795.7875366210938,803.8461303710938
1452,796.5933837890625,799.010986328125,793.7728881835938,806.2637329101562
1453,795.3846435546875,802.6373901367188,793.7728881835938,803.040283203125
1454,799.010986328125,797.8021850585938,792.967041015625,794.981689453125
1455,798.6080322265625,787.7289428710938,793.7728881835938,786.5201416015625
1456,796.996337890625,794.5787353515625,791.7582397460938,791.7582397460938
1457,794.1758422851562,799.8168334960938,790.952392578125,799.010986328125
1458,790.1465454101562,794.5787353515625,793.3699340820312,795.3846435546875
1459,795.3846435546875,794.981689453125,791.7582397460938,793.7728881835938
1460,799.4139404296875,799.4139404296875,789.7435913085938,792.5640869140625
1461,793.7728881835938,793.7728881835938,789.3406372070312,787.7289428710938
1462,792.1611938476562,793.3699340820312,788.937744140625,781.6849975585938
1463,793.7728881835938,798.6080322265625,786.5201416015625,782.893798828125
1464,794.981689453125,800.2197875976562,792.1611938476562,786.1171875
1465,789.7435913085938,796.5933837890625,799.010986328125,781.6849975585938
1466,790.5494384765625,790.952392578125,794.981689453125,782.087890625
1467,794.1758422851562,796.1904907226562,794.5787353515625,786.1171875
1468,793.7728881835938,791.3552856445312,796.5933837890625,785.7142944335938
1469,789.3406372070312,785.3113403320312,790.1465454101562,778.8644409179688
1470,784.1025390625,791.3552856445312,791.7582397460938,781.6849975585938
1471,789.3406372070312,791.7582397460938,793.7728881835938,794.1758422851562
1472,785.7142944335938,791.7582397460938,791.7582397460938,795.3846435546875
1473,780.879150390625,785.3113403320312,788.5347900390625,789.3406372070312
1474,780.879150390625,786.5201416015625,786.923095703125,784.908447265625
1475,781.6849975585938,792.5640869140625,788.937744140625,782.893798828125
1476,785.7142944335938,792.1611938476562,790.5494384765625,785.7142944335938
1477,784.5054931640625,792.5640869140625,790.952392578125,784.908447265625
1478,788.1318969726562,791.3552856445312,791.7582397460938,787.7289428710938
1479,792.967041015625,790.1465454101562,789.7435913085938,789.7435913085938
1480,784.1025390625,784.1025390625,789.7435913085938,783.6996459960938
1481,779.6703491210938,788.5347900390625,791.7582397460938,779.6703491210938
1482,780.879150390625,799.010986328125,790.1465454101562,778.8644409179688
1483,780.0732421875,794.5787353515625,788.937744140625,782.4908447265625
1484,783.2966918945312,795.3846435546875,790.5494384765625,788.5347900390625
1485,785.7142944335938,798.6080322265625,792.1611938476562,784.1025390625
1486,787.7289428710938,795.7875366210938,793.3699340820312,780.4761962890625
1487,790.952392578125,793.3699340820312,796.5933837890625,784.1025390625
1488,787.3259887695312,793.7728881835938,794.981689453125,782.087890625
1489,785.7142944335938,792.5640869140625,790.1465454101562,779.6703491210938
1490,782.893798828125,793.3699340820312,792.5640869140625,784.908447265625
1491,779.6703491210938,794.981689453125,794.981689453125,788.1318969726562
1492,781.6849975585938,788.937744140625,796.996337890625,784.1025390625
1493,789.3406372070312,791.7582397460938,796.996337890625,790.5494384765625
1494,794.981689453125,796.1904907226562,792.5640869140625,790.5494384765625
1495,792.1611938476562,796.1904907226562,794.5787353515625,783.2966918945312
1496,790.952392578125,800.6226806640625,796.1904907226562,790.1465454101562
1497,796.996337890625,803.4432373046875,798.2051391601562,802.2344360351562
1498,804.6520385742188,802.2344360351562,801.025634765625,809.89013671875
1499,804.6520385742188,799.010986328125,806.2637329101562,811.098876953125
1500,799.8168334960938,792.1611938476562,805.8607788085938,808.6813354492188
1501,800.6226806640625,794.1758422851562,802.6373901367188,805.4578857421875
1502,794.981689453125,799.8168334960938,798.6080322265625,800.6226806640625
1503,791.3552856445312,803.040283203125,794.1758422851562,802.6373901367188
1504,795.7875366210938,803.4432373046875,800.6226806640625,809.084228515625
1505,795.3846435546875,799.010986328125,805.054931640625,810.2930297851562
1506,794.981689453125,796.5933837890625,801.025634765625,804.6520385742188
1507,792.1611938476562,803.4432373046875,798.2051391601562,794.5787353515625
1508,784.908447265625,806.6666870117188,796.5933837890625,790.952392578125
1509,789.3406372070312,803.040283203125,795.3846435546875,794.5787353515625
1510,794.1758422851562,802.6373901367188,795.3846435546875,791.3552856445312
1511,794.5787353515625,799.010986328125,792.5640869140625,784.908447265625
1512,792.967041015625,794.1758422851562,792.1611938476562,781.6849975585938
1513,794.5787353515625,798.6080322265625,792.5640869140625,785.7142944335938
1514,795.3846435546875,800.2197875976562,792.5640869140625,788.937744140625
1515,793.7728881835938,798.6080322265625,798.6080322265625,786.5201416015625
1516,793.3699340820312,792.5640869140625,800.2197875976562,786.923095703125
1517,790.1465454101562,789.7435913085938,797.3992919921875,786.1171875
1518,791.3552856445312,792.967041015625,796.1904907226562,793.3699340820312
1519,796.5933837890625,800.2197875976562,797.8021850585938,796.996337890625
1520,795.3846435546875,799.010986328125,796.996337890625,788.1318969726562
1521,794.981689453125,787.3259887695312,796.996337890625,803.040283203125
1522,794.1758422851562,787.7289428710938,797.8021850585938,805.8607788085938
1523,792.1611938476562,791.7582397460938,793.7728881835938,791.3552856445312
1524,800.6226806640625,795.3846435546875,790.952392578125,801.025634765625
1525,800.2197875976562,796.5933837890625,793.3699340820312,801.8314819335938
1526,792.967041015625,791.7582397460938,794.981689453125,794.5787353515625
1527,792.5640869140625,794.5787353515625,791.7582397460938,795.7875366210938
1528,794.1758422851562,796.996337890625,790.1465454101562,796.5933837890625
1529,791.7582397460938,794.1758422851562,791.3552856445312,793.7728881835938
1530,789.3406372070312,792.1611938476562,792.5640869140625,794.981689453125
1531,785.3113403320312,788.5347900390625,790.5494384765625,790.952392578125
1532,789.3406372070312,787.3259887695312,790.5494384765625,790.5494384765625
1533,792.5640869140625,790.1465454101562,792.1611938476562,795.3846435546875
1534,784.1025390625,791.3552856445312,793.7728881835938,785.7142944335938
1535,785.3113403320312,793.7728881835938,797.8021850585938,786.5201416015625
1536,788.937744140625,797.3992919921875,797.3992919921875,790.952392578125
1537,786.5201416015625,794.1758422851562,796.1904907226562,788.5347900390625
1538,785.3113403320312,791.7582397460938,799.4139404296875,790.952392578125
1539,789.3406372070312,787.3259887695312,800.6226806640625,792.967041015625
1540,790.1465454101562,784.5054931640625,796.1904907226562,792.967041015625
1541,786.5201416015625,790.5494384765625,795.3846435546875,789.7435913085938
1542,788.5347900390625,792.967041015625,796.996337890625,788.937744140625
1543,790.952392578125,791.3552856445312,793.3699340820312,793.3699340820312
1544,787.7289428710938,788.937744140625,790.952392578125,790.952392578125
1545,792.1611938476562,796.1904907226562,787.3259887695312,793.3699340820312
1546,792.5640869140625,791.7582397460938,786.5201416015625,797.3992919921875
1547,790.952392578125,789.7435913085938,790.1465454101562,798.6080322265625
1548,796.5933837890625,790.1465454101562,785.3113403320312,809.4871826171875
1549,795.3846435546875,777.6557006835938,794.1758422851562,806.2637329101562
1550,794.981689453125,787.3259887695312,805.4578857421875,795.3846435546875
1551,792.1611938476562,802.6373901367188,800.2197875976562,797.3992919921875
1552,790.1465454101562,804.6520385742188,792.5640869140625,794.5787353515625
1553,795.3846435546875,805.8607788085938,792.967041015625,791.7582397460938
1554,802.2344360351562,804.2490844726562,793.7728881835938,797.8021850585938
1555,799.4139404296875,802.6373901367188,792.5640869140625,798.2051391601562
1556,794.5787353515625,804.6520385742188,795.3846435546875,796.5933837890625
1557,795.3846435546875,804.2490844726562,796.996337890625,801.8314819335938
1558,798.2051391601562,798.2051391601562,796.1904907226562,806.2637329101562
1559,801.4285888671875,796.1904907226562,797.8021850585938,806.6666870117188
1560,804.2490844726562,795.3846435546875,800.6226806640625,808.2783813476562
1561,801.025634765625,794.5787353515625,804.2490844726562,802.6373901367188
1562,799.8168334960938,803.8461303710938,801.025634765625,790.952392578125
1563,801.025634765625,805.8607788085938,793.3699340820312,786.923095703125
1564,802.6373901367188,802.2344360351562,794.1758422851562,788.5347900390625
1565,802.6373901367188,804.2490844726562,797.3992919921875,791.3552856445312
1566,804.2490844726562,803.4432373046875,794.1758422851562,794.1758422851562
1567,800.6226806640625,791.7582397460938,792.1611938476562,799.4139404296875
1568,797.3992919921875,783.2966918945312,794.5787353515625,799.010986328125
1569,797.8021850585938,789.3406372070312,795.7875366210938,795.3846435546875
1570,794.1758422851562,790.5494384765625,794.981689453125,793.7728881835938
1571,792.5640869140625,788.5347900390625,797.8021850585938,797.8021850585938
1572,790.5494384765625,793.3699340820312,799.4139404296875,801.8314819335938
1573,790.952392578125,798.6080322265625,799.4139404296875,794.981689453125
1574,792.5640869140625,798.6080322265625,797.8021850585938,786.923095703125
1575,794.981689453125,796.996337890625,795.7875366210938,786.923095703125
1576,789.7435913085938,791.7582397460938,790.1465454101562,784.908447265625
1577,785.7142944335938,789.7435913085938,788.1318969726562,783.2966918945312
1578,790.1465454101562,793.7728881835938,791.7582397460938,788.5347900390625
1579,792.1611938476562,792.1611938476562,790.1465454101562,792.5640869140625
1580,796.996337890625,789.7435913085938,790.952392578125,788.5347900390625
