timestamp,RAW_TP9,RAW_AF7,RAW_AF8,RAW_TP10
1,791.3552856445312,790.1465454101562,790.1465454101562,785.7142944335938
2,797.8021850585938,792.1611938476562,793.7728881835938,788.937744140625
3,801.025634765625,792.5640869140625,792.1611938476562,790.5494384765625
4,794.5787353515625,795.3846435546875,788.5347900390625,784.908447265625
5,792.5640869140625,794.981689453125,785.7142944335938,790.952392578125
6,796.5933837890625,791.7582397460938,790.5494384765625,792.967041015625
7,796.5933837890625,795.3846435546875,792.5640869140625,788.937744140625
8,794.1758422851562,799.4139404296875,782.4908447265625,794.5787353515625
9,801.4285888671875,796.996337890625,787.3259887695312,799.8168334960938
10,802.2344360351562,795.7875366210938,791.7582397460938,801.8314819335938
11,792.5640869140625,795.7875366210938,792.967041015625,797.8021850585938
12,793.7728881835938,793.3699340820312,797.3992919921875,799.4139404296875
13,793.7728881835938,789.3406372070312,794.981689453125,806.6666870117188
14,792.5640869140625,788.1318969726562,796.1904907226562,805.054931640625
15,795.3846435546875,785.3113403320312,798.2051391601562,799.4139404296875
16,800.6226806640625,787.7289428710938,796.996337890625,808.6813354492188
17,800.2197875976562,788.937744140625,795.7875366210938,815.5311279296875
18,775.6410522460938,787.7289428710938,798.2051391601562,790.5494384765625
19,765.5677490234375,791.7582397460938,801.025634765625,779.2673950195312
20,783.2966918945312,794.981689453125,799.8168334960938,798.6080322265625
21,786.923095703125,792.967041015625,798.2051391601562,799.8168334960938
22,786.5201416015625,792.967041015625,800.6226806640625,796.5933837890625
23,790.5494384765625,795.7875366210938,800.6226806640625,794.981689453125
24,787.7289428710938,794.5787353515625,802.2344360351562,787.3259887695312
25,783.2966918945312,787.7289428710938,803.4432373046875,786.1171875
26,779.6703491210938,782.087890625,801.4285888671875,785.3113403320312
27,785.7142944335938,782.893798828125,794.5787353515625,789.3406372070312
28,796.1904907226562,784.5054931640625,792.967041015625,791.7582397460938
29,789.7435913085938,784.1025390625,800.6226806640625,786.1171875
30,779.6703491210938,785.7142944335938,802.2344360351562,787.3259887695312
31,782.087890625,788.5347900390625,802.2344360351562,794.5787353515625
32,785.3113403320312,790.1465454101562,798.6080322265625,798.2051391601562
33,788.937744140625,792.1611938476562,793.3699340820312,792.5640869140625
34,788.937744140625,788.1318969726562,790.952392578125,790.1465454101562
35,786.5201416015625,785.7142944335938,793.7728881835938,786.5201416015625
36,790.5494384765625,786.5201416015625,795.3846435546875,791.3552856445312
37,794.1758422851562,792.967041015625,795.7875366210938,799.010986328125
38,795.3846435546875,796.1904907226562,802.6373901367188,799.8168334960938
39,799.4139404296875,788.937744140625,803.040283203125,806.2637329101562
40,798.2051391601562,782.4908447265625,799.4139404296875,811.098876953125
41,795.3846435546875,787.3259887695312,797.3992919921875,808.2783813476562
42,795.7875366210938,794.5787353515625,800.2197875976562,801.025634765625
43,798.2051391601562,796.996337890625,802.6373901367188,803.4432373046875
44,797.3992919921875,793.7728881835938,795.3846435546875,803.040283203125
45,792.5640869140625,794.1758422851562,793.7728881835938,793.3699340820312
46,789.3406372070312,799.010986328125,796.996337890625,794.5787353515625
47,796.1904907226562,799.4139404296875,800.2197875976562,805.4578857421875
48,796.5933837890625,792.5640869140625,799.4139404296875,810.6959838867188
49,795.7875366210938,788.5347900390625,799.010986328125,802.2344360351562
50,799.4139404296875,788.1318969726562,802.2344360351562,795.7875366210938
51,803.040283203125,791.3552856445312,806.2637329101562,805.4578857421875
52,806.6666870117188,791.3552856445312,806.2637329101562,807.87548828125
53,800.6226806640625,792.1611938476562,802.2344360351562,801.4285888671875
54,793.7728881835938,793.7728881835938,797.8021850585938,798.2051391601562
55,786.923095703125,790.5494384765625,792.1611938476562,795.3846435546875
56,783.6996459960938,797.8021850585938,795.7875366210938,794.981689453125
57,784.908447265625,797.8021850585938,795.3846435546875,792.967041015625
58,784.5054931640625,791.7582397460938,790.952392578125,795.7875366210938
59,788.937744140625,790.5494384765625,793.3699340820312,802.6373901367188
60,793.3699340820312,791.7582397460938,796.1904907226562,801.8314819335938
61,794.1758422851562,790.5494384765625,793.7728881835938,793.3699340820312
62,793.7728881835938,787.7289428710938,789.3406372070312,786.1171875
63,794.5787353515625,791.7582397460938,789.7435913085938,788.1318969726562
64,795.3846435546875,798.6080322265625,797.3992919921875,792.967041015625
65,799.4139404296875,790.5494384765625,795.7875366210938,793.3699340820312
66,801.8314819335938,786.1171875,789.3406372070312,792.967041015625
67,799.8168334960938,795.3846435546875,788.1318969726562,793.7728881835938
68,793.3699340820312,795.7875366210938,785.7142944335938,789.7435913085938
69,792.5640869140625,794.5787353515625,792.5640869140625,795.3846435546875
70,800.2197875976562,795.7875366210938,792.967041015625,806.6666870117188
71,798.6080322265625,795.3846435546875,783.6996459960938,799.4139404296875
72,795.3846435546875,795.7875366210938,785.3113403320312,791.7582397460938
73,797.3992919921875,797.3992919921875,790.952392578125,796.1904907226562
74,796.1904907226562,800.6226806640625,788.937744140625,796.5933837890625
75,788.1318969726562,794.1758422851562,785.3113403320312,791.7582397460938
76,786.1171875,790.5494384765625,785.7142944335938,788.1318969726562
77,790.5494384765625,797.8021850585938,787.3259887695312,786.1171875
78,791.7582397460938,796.996337890625,788.1318969726562,792.1611938476562
79,794.1758422851562,797.3992919921875,786.923095703125,796.5933837890625
80,791.3552856445312,798.2051391601562,788.937744140625,797.8021850585938
81,792.1611938476562,793.7728881835938,793.7728881835938,799.010986328125
82,792.5640869140625,789.7435913085938,789.7435913085938,788.1318969726562
83,788.5347900390625,788.937744140625,790.952392578125,785.7142944335938
84,787.7289428710938,792.967041015625,791.7582397460938,787.7289428710938
85,800.2197875976562,793.3699340820312,786.5201416015625,786.923095703125
86,801.4285888671875,792.5640869140625,791.7582397460938,793.7728881835938
87,796.996337890625,791.3552856445312,799.8168334960938,795.7875366210938
88,799.8168334960938,789.7435913085938,794.1758422851562,794.1758422851562
89,800.2197875976562,794.1758422851562,794.5787353515625,794.5787353515625
90,799.010986328125,793.3699340820312,792.967041015625,796.5933837890625
91,792.967041015625,793.7728881835938,789.3406372070312,798.2051391601562
92,789.7435913085938,788.937744140625,793.3699340820312,800.6226806640625
93,792.967041015625,788.1318969726562,790.5494384765625,798.6080322265625
94,793.7728881835938,793.7728881835938,785.7142944335938,797.3992919921875
95,790.952392578125,792.5640869140625,791.7582397460938,798.6080322265625
96,790.5494384765625,790.952392578125,794.5787353515625,793.3699340820312
97,790.1465454101562,789.7435913085938,792.5640869140625,788.937744140625
98,788.1318969726562,789.7435913085938,795.3846435546875,786.1171875
99,789.7435913085938,792.5640869140625,799.4139404296875,790.1465454101562
100,793.7728881835938,791.3552856445312,800.2197875976562,790.952392578125
101,793.7728881835938,791.7582397460938,797.3992919921875,793.3699340820312
102,786.923095703125,794.981689453125,800.2197875976562,799.8168334960938
103,784.5054931640625,797.8021850585938,803.4432373046875,787.3259887695312
104,786.5201416015625,800.2197875976562,798.6080322265625,787.3259887695312
105,787.3259887695312,794.5787353515625,790.952392578125,791.3552856445312
106,783.2966918945312,790.1465454101562,789.3406372070312,786.923095703125
107,788.5347900390625,791.3552856445312,794.5787353515625,792.5640869140625
108,793.7728881835938,794.5787353515625,797.8021850585938,794.5787353515625
109,792.967041015625,796.1904907226562,798.2051391601562,793.3699340820312
110,803.040283203125,794.5787353515625,800.2197875976562,796.5933837890625
111,808.2783813476562,793.3699340820312,799.010986328125,796.1904907226562
112,802.6373901367188,787.7289428710938,794.5787353515625,791.3552856445312
113,797.8021850585938,787.3259887695312,794.1758422851562,796.996337890625
114,795.3846435546875,793.3699340820312,793.3699340820312,794.1758422851562
115,796.996337890625,792.5640869140625,795.7875366210938,790.952392578125
116,797.3992919921875,790.1465454101562,794.1758422851562,793.7728881835938
117,795.3846435546875,792.1611938476562,791.7582397460938,789.7435913085938
118,794.5787353515625,794.1758422851562,792.967041015625,785.7142944335938
119,793.3699340820312,795.3846435546875,791.3552856445312,783.2966918945312
120,803.4432373046875,796.996337890625,788.1318969726562,785.3113403320312
121,808.6813354492188,794.981689453125,790.952392578125,790.1465454101562
122,799.8168334960938,787.7289428710938,789.7435913085938,789.7435913085938
123,795.7875366210938,792.5640869140625,789.3406372070312,793.7728881835938
124,799.4139404296875,792.967041015625,790.952392578125,802.2344360351562
125,805.8607788085938,789.7435913085938,786.923095703125,800.2197875976562
126,805.4578857421875,796.5933837890625,790.952392578125,793.3699340820312
127,806.6666870117188,795.7875366210938,787.7289428710938,796.5933837890625
128,805.054931640625,800.2197875976562,789.3406372070312,804.6520385742188
129,794.1758422851562,801.4285888671875,793.3699340820312,801.8314819335938
130,790.1465454101562,796.996337890625,792.967041015625,794.981689453125
131,790.1465454101562,796.1904907226562,793.7728881835938,790.952392578125
132,792.5640869140625,792.967041015625,792.5640869140625,789.3406372070312
133,793.3699340820312,794.5787353515625,794.5787353515625,792.5640869140625
134,792.967041015625,794.5787353515625,790.1465454101562,789.7435913085938
135,800.2197875976562,791.7582397460938,787.3259887695312,792.1611938476562
136,798.6080322265625,794.981689453125,792.5640869140625,794.5787353515625
137,786.5201416015625,792.967041015625,794.1758422851562,786.5201416015625
138,785.3113403320312,791.3552856445312,796.996337890625,782.893798828125
139,786.5201416015625,796.1904907226562,794.5787353515625,784.5054931640625
140,791.3552856445312,798.2051391601562,790.1465454101562,786.5201416015625
141,797.3992919921875,796.1904907226562,792.5640869140625,792.1611938476562
142,796.5933837890625,796.1904907226562,789.3406372070312,789.3406372070312
143,792.5640869140625,790.5494384765625,788.937744140625,783.6996459960938
144,786.923095703125,784.5054931640625,795.3846435546875,783.2966918945312
145,783.2966918945312,792.5640869140625,790.5494384765625,780.879150390625
146,784.908447265625,796.1904907226562,790.5494384765625,777.6557006835938
147,788.937744140625,793.7728881835938,797.8021850585938,782.4908447265625
148,788.937744140625,790.5494384765625,800.6226806640625,791.7582397460938
149,790.1465454101562,785.7142944335938,800.6226806640625,791.7582397460938
150,794.5787353515625,790.5494384765625,800.6226806640625,793.3699340820312
151,792.967041015625,797.8021850585938,799.010986328125,798.2051391601562
152,785.3113403320312,794.1758422851562,794.1758422851562,794.1758422851562
153,779.6703491210938,794.981689453125,789.7435913085938,780.0732421875
154,783.6996459960938,795.3846435546875,792.1611938476562,783.2966918945312
155,791.3552856445312,792.967041015625,798.6080322265625,792.1611938476562
156,790.5494384765625,790.1465454101562,794.5787353515625,785.3113403320312
157,781.6849975585938,790.5494384765625,790.1465454101562,782.4908447265625
158,780.4761962890625,788.5347900390625,789.3406372070312,786.5201416015625
159,786.1171875,782.893798828125,786.5201416015625,790.5494384765625
160,782.893798828125,790.5494384765625,792.967041015625,787.3259887695312
161,785.7142944335938,799.4139404296875,794.1758422851562,780.0732421875
162,794.1758422851562,799.8168334960938,791.7582397460938,785.7142944335938
163,793.7728881835938,798.6080322265625,799.4139404296875,795.3846435546875
164,791.7582397460938,795.7875366210938,800.6226806640625,793.7728881835938
165,791.7582397460938,788.5347900390625,794.5787353515625,790.1465454101562
166,791.7582397460938,788.937744140625,791.3552856445312,793.3699340820312
167,791.7582397460938,786.5201416015625,789.7435913085938,798.6080322265625
168,792.1611938476562,786.923095703125,792.5640869140625,796.1904907226562
169,794.5787353515625,788.5347900390625,792.967041015625,796.996337890625
170,790.952392578125,784.1025390625,788.937744140625,802.6373901367188
171,782.087890625,783.2966918945312,787.7289428710938,799.4139404296875
172,781.2820434570312,784.1025390625,788.5347900390625,800.6226806640625
173,790.1465454101562,785.3113403320312,792.1611938476562,798.2051391601562
174,795.3846435546875,792.5640869140625,790.1465454101562,800.6226806640625
175,795.3846435546875,796.996337890625,792.967041015625,806.6666870117188
176,794.1758422851562,796.5933837890625,796.1904907226562,797.8021850585938
177,792.5640869140625,796.996337890625,790.5494384765625,793.7728881835938
178,793.7728881835938,792.5640869140625,790.5494384765625,794.981689453125
179,793.7728881835938,786.923095703125,793.7728881835938,794.1758422851562
180,797.3992919921875,794.1758422851562,796.1904907226562,788.1318969726562
181,801.8314819335938,794.5787353515625,792.5640869140625,785.3113403320312
182,799.8168334960938,789.3406372070312,786.1171875,787.3259887695312
183,797.3992919921875,790.1465454101562,788.1318969726562,790.1465454101562
184,796.1904907226562,783.6996459960938,790.5494384765625,790.5494384765625
185,798.2051391601562,784.5054931640625,792.5640869140625,789.3406372070312
186,797.3992919921875,787.7289428710938,794.1758422851562,797.8021850585938
187,794.5787353515625,786.923095703125,796.5933837890625,799.4139404296875
188,794.981689453125,790.1465454101562,798.2051391601562,792.5640869140625
189,796.1904907226562,792.967041015625,792.1611938476562,792.967041015625
190,797.3992919921875,791.3552856445312,790.952392578125,795.3846435546875
191,795.3846435546875,789.3406372070312,790.5494384765625,792.5640869140625
192,794.1758422851562,790.952392578125,783.2966918945312,789.7435913085938
193,789.3406372070312,787.3259887695312,788.937744140625,790.5494384765625
194,784.908447265625,787.7289428710938,790.5494384765625,790.952392578125
195,789.3406372070312,790.1465454101562,788.5347900390625,791.7582397460938
196,788.937744140625,787.7289428710938,796.1904907226562,790.1465454101562
197,789.3406372070312,785.3113403320312,795.7875366210938,799.4139404296875
198,786.5201416015625,791.3552856445312,793.3699340820312,802.2344360351562
199,778.4615478515625,795.7875366210938,793.3699340820312,790.5494384765625
200,778.8644409179688,798.2051391601562,792.1611938476562,790.952392578125
201,785.3113403320312,797.8021850585938,794.981689453125,796.996337890625
202,790.1465454101562,792.5640869140625,794.1758422851562,792.1611938476562
203,796.1904907226562,794.1758422851562,794.981689453125,795.7875366210938
204,798.2051391601562,791.3552856445312,791.7582397460938,804.2490844726562
205,799.010986328125,790.5494384765625,784.1025390625,799.4139404296875
206,801.4285888671875,798.6080322265625,788.5347900390625,793.7728881835938
207,800.2197875976562,798.2051391601562,794.5787353515625,789.3406372070312
208,800.2197875976562,793.7728881835938,790.1465454101562,787.3259887695312
209,809.89013671875,794.981689453125,790.5494384765625,795.3846435546875
210,804.2490844726562,797.8021850585938,793.3699340820312,794.5787353515625
211,792.967041015625,794.5787353515625,790.5494384765625,791.3552856445312
212,799.010986328125,795.3846435546875,789.3406372070312,796.5933837890625
213,798.2051391601562,791.7582397460938,792.967041015625,798.2051391601562
214,790.1465454101562,792.967041015625,790.5494384765625,795.7875366210938
215,790.5494384765625,789.3406372070312,785.7142944335938,792.5640869140625
216,795.3846435546875,785.3113403320312,790.952392578125,792.967041015625
217,794.1758422851562,791.7582397460938,793.7728881835938,788.5347900390625
218,788.937744140625,796.5933837890625,792.5640869140625,784.5054931640625
219,785.7142944335938,792.5640869140625,791.3552856445312,790.5494384765625
220,786.923095703125,784.908447265625,790.5494384765625,799.4139404296875
221,785.7142944335938,786.923095703125,795.3846435546875,803.040283203125
222,786.923095703125,796.996337890625,796.5933837890625,794.5787353515625
223,788.5347900390625,796.996337890625,790.1465454101562,792.967041015625
224,794.5787353515625,793.7728881835938,790.952392578125,796.1904907226562
225,801.8314819335938,791.7582397460938,792.967041015625,793.3699340820312
226,798.2051391601562,792.967041015625,793.7728881835938,792.1611938476562
227,797.8021850585938,794.1758422851562,791.3552856445312,791.3552856445312
228,804.2490844726562,792.1611938476562,794.5787353515625,792.1611938476562
229,800.2197875976562,788.5347900390625,796.1904907226562,792.1611938476562
230,799.010986328125,784.1025390625,794.981689453125,793.3699340820312
231,808.2783813476562,781.6849975585938,793.7728881835938,799.8168334960938
232,806.6666870117188,789.3406372070312,792.1611938476562,801.4285888671875
233,798.6080322265625,790.1465454101562,793.7728881835938,793.7728881835938
234,796.5933837890625,786.1171875,790.1465454101562,791.7582397460938
235,793.7728881835938,788.1318969726562,786.1171875,796.5933837890625
236,796.1904907226562,788.1318969726562,790.5494384765625,802.6373901367188
237,800.2197875976562,796.5933837890625,796.5933837890625,800.6226806640625
238,799.4139404296875,795.7875366210938,799.010986328125,795.7875366210938
239,801.025634765625,791.7582397460938,799.4139404296875,802.6373901367188
240,801.4285888671875,796.5933837890625,799.8168334960938,810.6959838867188
241,798.6080322265625,797.8021850585938,801.025634765625,810.6959838867188
242,800.2197875976562,796.1904907226562,799.4139404296875,808.6813354492188
243,804.2490844726562,787.3259887695312,792.1611938476562,808.6813354492188
244,800.6226806640625,792.967041015625,789.3406372070312,805.054931640625
245,793.3699340820312,800.2197875976562,794.981689453125,796.5933837890625
246,797.8021850585938,795.3846435546875,796.996337890625,796.5933837890625
247,800.2197875976562,792.5640869140625,791.7582397460938,802.6373901367188
248,798.2051391601562,790.1465454101562,792.5640869140625,802.2344360351562
249,794.5787353515625,790.1465454101562,791.3552856445312,794.981689453125
250,789.7435913085938,788.5347900390625,785.7142944335938,792.1611938476562
251,790.1465454101562,789.3406372070312,786.5201416015625,798.6080322265625
252,792.967041015625,792.967041015625,788.5347900390625,805.054931640625
253,797.8021850585938,786.1171875,790.5494384765625,801.4285888671875
254,801.4285888671875,782.893798828125,798.2051391601562,797.8021850585938
255,801.025634765625,791.3552856445312,800.6226806640625,798.6080322265625
256,799.8168334960938,791.7582397460938,790.952392578125,799.010986328125
257,800.2197875976562,784.5054931640625,785.7142944335938,797.8021850585938
258,797.8021850585938,782.4908447265625,788.1318969726562,796.1904907226562
259,799.010986328125,785.7142944335938,787.7289428710938,793.3699340820312
260,802.2344360351562,791.7582397460938,789.3406372070312,794.5787353515625
261,801.4285888671875,796.1904907226562,789.3406372070312,798.2051391601562
262,806.6666870117188,793.7728881835938,785.3113403320312,801.4285888671875
263,808.6813354492188,792.5640869140625,787.3259887695312,801.8314819335938
264,801.4285888671875,792.1611938476562,789.3406372070312,794.5787353515625
265,796.996337890625,792.5640869140625,784.5054931640625,779.6703491210938
266,799.010986328125,795.7875366210938,782.087890625,782.087890625
267,800.6226806640625,793.3699340820312,777.2527465820312,796.996337890625
268,798.6080322265625,790.1465454101562,783.6996459960938,791.7582397460938
269,802.2344360351562,790.952392578125,795.3846435546875,785.3113403320312
270,802.6373901367188,792.967041015625,791.7582397460938,788.937744140625
271,790.952392578125,788.937744140625,788.937744140625,783.2966918945312
272,785.7142944335938,792.967041015625,791.3552856445312,778.8644409179688
273,786.5201416015625,794.1758422851562,789.7435913085938,786.923095703125
274,786.923095703125,792.1611938476562,791.7582397460938,793.3699340820312
275,788.937744140625,792.1611938476562,796.5933837890625,794.981689453125
276,791.3552856445312,795.3846435546875,794.5787353515625,798.2051391601562
277,792.5640869140625,798.2051391601562,794.5787353515625,800.6226806640625
278,792.1611938476562,791.3552856445312,788.1318969726562,800.2197875976562
279,798.6080322265625,787.7289428710938,788.937744140625,801.4285888671875
280,799.8168334960938,792.5640869140625,795.7875366210938,801.025634765625
281,794.981689453125,791.7582397460938,793.3699340820312,797.3992919921875
282,790.5494384765625,786.5201416015625,796.1904907226562,797.8021850585938
283,787.7289428710938,794.1758422851562,794.5787353515625,789.7435913085938
284,785.7142944335938,799.4139404296875,789.3406372070312,788.1318969726562
285,786.1171875,794.981689453125,790.1465454101562,795.3846435546875
286,790.5494384765625,798.6080322265625,794.5787353515625,794.981689453125
287,787.3259887695312,805.054931640625,800.6226806640625,792.967041015625
288,784.908447265625,804.6520385742188,802.6373901367188,788.5347900390625
289,783.6996459960938,796.996337890625,799.010986328125,784.908447265625
290,784.1025390625,796.5933837890625,799.4139404296875,785.7142944335938
291,780.4761962890625,793.7728881835938,800.6226806640625,784.908447265625
292,784.1025390625,786.923095703125,798.2051391601562,785.7142944335938
293,793.3699340820312,787.7289428710938,790.1465454101562,790.952392578125
294,793.3699340820312,794.5787353515625,787.7289428710938,793.3699340820312
295,791.3552856445312,796.996337890625,796.1904907226562,789.3406372070312
296,789.7435913085938,791.3552856445312,797.3992919921875,786.923095703125
297,793.7728881835938,788.1318969726562,797.8021850585938,786.1171875
298,798.2051391601562,785.3113403320312,796.996337890625,791.3552856445312
299,794.1758422851562,791.7582397460938,795.3846435546875,792.1611938476562
300,794.1758422851562,798.6080322265625,796.996337890625,794.1758422851562
301,794.5787353515625,795.3846435546875,796.996337890625,801.8314819335938
302,793.3699340820312,801.4285888671875,797.3992919921875,803.8461303710938
303,793.7728881835938,801.4285888671875,795.7875366210938,799.4139404296875
304,795.7875366210938,790.5494384765625,791.7582397460938,795.3846435546875
305,794.981689453125,788.937744140625,789.3406372070312,799.8168334960938
306,792.967041015625,795.3846435546875,790.5494384765625,794.981689453125
307,794.1758422851562,795.7875366210938,790.952392578125,789.3406372070312
308,796.996337890625,795.3846435546875,785.7142944335938,792.1611938476562
309,792.967041015625,796.5933837890625,788.937744140625,796.996337890625
310,790.952392578125,797.8021850585938,794.981689453125,801.8314819335938
311,795.7875366210938,797.3992919921875,791.3552856445312,794.981689453125
312,792.1611938476562,794.981689453125,793.3699340820312,788.5347900390625
313,790.5494384765625,793.3699340820312,795.7875366210938,786.1171875
314,789.7435913085938,796.996337890625,796.996337890625,784.1025390625
315,784.5054931640625,798.6080322265625,796.996337890625,784.5054931640625
316,783.2966918945312,789.7435913085938,795.7875366210938,794.5787353515625
317,780.4761962890625,787.7289428710938,797.3992919921875,800.2197875976562
318,780.879150390625,794.5787353515625,794.5787353515625,789.3406372070312
319,789.3406372070312,798.6080322265625,794.1758422851562,790.5494384765625
320,798.6080322265625,798.6080322265625,800.6226806640625,795.7875366210938
321,797.8021850585938,792.5640869140625,801.025634765625,794.5787353515625
322,793.7728881835938,788.937744140625,801.025634765625,786.923095703125
323,796.5933837890625,790.952392578125,799.4139404296875,784.1025390625
324,797.8021850585938,793.3699340820312,794.981689453125,790.5494384765625
325,792.5640869140625,789.3406372070312,794.1758422851562,784.1025390625
326,790.5494384765625,788.1318969726562,794.1758422851562,781.2820434570312
327,793.3699340820312,789.7435913085938,792.967041015625,788.1318969726562
328,794.981689453125,788.5347900390625,792.967041015625,790.952392578125
329,788.937744140625,787.7289428710938,794.1758422851562,790.5494384765625
330,786.923095703125,787.7289428710938,789.7435913085938,789.3406372070312
331,790.1465454101562,784.1025390625,792.1611938476562,791.7582397460938
332,797.8021850585938,782.4908447265625,793.3699340820312,803.040283203125
333,804.2490844726562,795.3846435546875,790.5494384765625,805.4578857421875
334,806.2637329101562,803.4432373046875,789.7435913085938,805.054931640625
335,797.3992919921875,791.7582397460938,793.3699340820312,800.2197875976562
336,787.7289428710938,783.2966918945312,796.5933837890625,786.923095703125
337,792.967041015625,793.3699340820312,798.6080322265625,790.5494384765625
338,797.3992919921875,799.8168334960938,799.8168334960938,796.5933837890625
339,794.981689453125,792.1611938476562,799.4139404296875,792.967041015625
340,792.967041015625,787.3259887695312,793.7728881835938,785.3113403320312
341,794.1758422851562,789.7435913085938,792.5640869140625,788.5347900390625
342,793.7728881835938,792.1611938476562,793.7728881835938,791.3552856445312
343,790.952392578125,793.3699340820312,791.7582397460938,791.7582397460938
344,792.1611938476562,792.967041015625,792.1611938476562,790.952392578125
345,794.5787353515625,792.967041015625,796.5933837890625,789.7435913085938
346,790.952392578125,788.5347900390625,802.2344360351562,797.8021850585938
347,788.5347900390625,784.908447265625,803.4432373046875,799.010986328125
348,787.3259887695312,787.7289428710938,802.6373901367188,794.1758422851562
349,788.937744140625,791.3552856445312,801.8314819335938,794.1758422851562
350,792.967041015625,792.967041015625,801.025634765625,792.967041015625
351,795.7875366210938,796.996337890625,800.6226806640625,789.3406372070312
352,797.3992919921875,798.2051391601562,803.8461303710938,787.3259887695312
353,801.8314819335938,798.6080322265625,799.8168334960938,789.7435913085938
354,800.6226806640625,792.1611938476562,794.1758422851562,793.3699340820312
355,792.967041015625,780.879150390625,795.3846435546875,801.8314819335938
356,791.7582397460938,788.1318969726562,793.7728881835938,801.8314819335938
357,793.3699340820312,792.967041015625,794.981689453125,792.1611938476562
358,803.4432373046875,786.5201416015625,795.7875366210938,792.1611938476562
359,803.8461303710938,788.937744140625,791.7582397460938,794.5787353515625
360,800.2197875976562,794.1758422851562,796.996337890625,794.5787353515625
361,806.6666870117188,794.5787353515625,806.2637329101562,794.981689453125
362,803.8461303710938,790.952392578125,805.4578857421875,800.2197875976562
363,801.8314819335938,791.7582397460938,800.6226806640625,803.040283203125
364,797.8021850585938,795.7875366210938,794.981689453125,793.7728881835938
365,795.3846435546875,796.5933837890625,796.996337890625,790.952392578125
366,803.8461303710938,797.3992919921875,803.4432373046875,801.025634765625
367,802.2344360351562,795.7875366210938,802.2344360351562,801.8314819335938
368,792.1611938476562,793.3699340820312,796.996337890625,793.7728881835938
369,793.3699340820312,788.937744140625,796.5933837890625,796.5933837890625
370,794.1758422851562,789.7435913085938,792.967041015625,794.981689453125
371,793.3699340820312,796.5933837890625,788.5347900390625,794.5787353515625
372,799.4139404296875,799.4139404296875,789.7435913085938,799.010986328125
373,792.1611938476562,794.981689453125,792.1611938476562,792.967041015625
374,786.923095703125,790.5494384765625,793.3699340820312,786.923095703125
375,788.5347900390625,790.1465454101562,792.5640869140625,785.3113403320312
376,790.952392578125,794.5787353515625,797.3992919921875,789.7435913085938
377,795.7875366210938,796.1904907226562,796.996337890625,792.5640869140625
378,794.1758422851562,788.5347900390625,790.952392578125,789.3406372070312
379,791.7582397460938,787.7289428710938,791.3552856445312,786.5201416015625
380,793.7728881835938,794.5787353515625,797.3992919921875,790.5494384765625
381,797.8021850585938,795.7875366210938,794.1758422851562,796.1904907226562
382,801.025634765625,791.7582397460938,794.981689453125,794.981689453125
383,794.981689453125,794.1758422851562,797.8021850585938,791.3552856445312
384,794.5787353515625,799.010986328125,790.952392578125,781.2820434570312
385,796.1904907226562,798.6080322265625,786.923095703125,785.7142944335938
386,798.6080322265625,796.996337890625,790.1465454101562,792.967041015625
387,801.025634765625,789.3406372070312,792.967041015625,781.2820434570312
388,789.3406372070312,782.087890625,795.7875366210938,778.05859375
389,784.908447265625,785.3113403320312,790.5494384765625,785.7142944335938
390,790.952392578125,792.1611938476562,789.3406372070312,792.5640869140625
391,788.5347900390625,796.5933837890625,794.1758422851562,792.5640869140625
392,790.1465454101562,799.4139404296875,788.1318969726562,793.3699340820312
393,793.7728881835938,796.1904907226562,790.1465454101562,795.3846435546875
394,789.3406372070312,792.1611938476562,789.3406372070312,792.5640869140625
395,789.3406372070312,794.5787353515625,782.4908447265625,789.7435913085938
396,793.3699340820312,793.7728881835938,788.5347900390625,791.7582397460938
397,796.1904907226562,790.1465454101562,792.1611938476562,791.3552856445312
398,792.967041015625,790.1465454101562,788.1318969726562,793.3699340820312
399,795.7875366210938,796.1904907226562,788.5347900390625,801.025634765625
400,802.2344360351562,803.040283203125,793.3699340820312,801.4285888671875
401,801.4285888671875,795.3846435546875,793.7728881835938,805.054931640625
402,799.4139404296875,791.7582397460938,793.7728881835938,799.4139404296875
403,801.4285888671875,798.2051391601562,796.5933837890625,790.952392578125
404,796.996337890625,795.3846435546875,800.2197875976562,792.1611938476562
405,788.937744140625,790.952392578125,797.8021850585938,788.937744140625
406,791.7582397460938,788.937744140625,795.7875366210938,785.7142944335938
407,794.5787353515625,779.6703491210938,796.996337890625,785.7142944335938
408,788.937744140625,773.6264038085938,796.996337890625,787.7289428710938
409,783.6996459960938,776.4468994140625,793.3699340820312,792.1611938476562
410,781.2820434570312,782.4908447265625,791.7582397460938,792.967041015625
411,780.0732421875,785.7142944335938,792.967041015625,791.7582397460938
412,778.8644409179688,787.7289428710938,797.3992919921875,795.7875366210938
413,785.7142944335938,788.5347900390625,796.996337890625,791.3552856445312
414,788.1318969726562,789.3406372070312,792.5640869140625,785.3113403320312
415,782.4908447265625,787.7289428710938,794.5787353515625,783.2966918945312
416,785.3113403320312,786.5201416015625,792.1611938476562,780.879150390625
417,790.952392578125,786.1171875,789.3406372070312,778.4615478515625
418,783.6996459960938,781.6849975585938,791.7582397460938,779.6703491210938
419,782.087890625,779.6703491210938,795.7875366210938,783.6996459960938
420,789.3406372070312,784.908447265625,795.7875366210938,792.5640869140625
421,795.7875366210938,788.937744140625,796.996337890625,796.1904907226562
422,795.7875366210938,789.7435913085938,798.6080322265625,785.7142944335938
423,792.1611938476562,793.3699340820312,797.3992919921875,782.893798828125
424,794.981689453125,797.8021850585938,795.7875366210938,793.3699340820312
425,789.7435913085938,800.2197875976562,793.7728881835938,790.1465454101562
426,787.7289428710938,794.1758422851562,797.8021850585938,783.6996459960938
427,797.8021850585938,788.5347900390625,794.1758422851562,794.5787353515625
428,802.2344360351562,789.7435913085938,792.5640869140625,804.6520385742188
429,796.1904907226562,795.3846435546875,798.2051391601562,795.3846435546875
430,795.3846435546875,796.996337890625,799.4139404296875,786.5201416015625
431,793.7728881835938,794.5787353515625,792.967041015625,786.5201416015625
432,792.967041015625,796.5933837890625,788.937744140625,790.1465454101562
433,796.5933837890625,799.8168334960938,796.996337890625,792.967041015625
434,798.2051391601562,792.967041015625,796.996337890625,791.3552856445312
435,797.8021850585938,785.7142944335938,787.7289428710938,791.3552856445312
436,801.8314819335938,792.1611938476562,790.5494384765625,793.7728881835938
437,802.6373901367188,797.8021850585938,798.6080322265625,791.7582397460938
438,799.010986328125,795.3846435546875,801.4285888671875,789.3406372070312
439,799.8168334960938,794.1758422851562,796.996337890625,795.7875366210938
440,799.8168334960938,792.1611938476562,792.967041015625,793.3699340820312
441,796.1904907226562,790.5494384765625,794.5787353515625,786.1171875
442,790.5494384765625,792.1611938476562,796.5933837890625,790.5494384765625
443,788.1318969726562,794.981689453125,795.7875366210938,789.7435913085938
444,784.5054931640625,792.5640869140625,792.1611938476562,782.893798828125
445,784.5054931640625,792.1611938476562,792.5640869140625,780.4761962890625
446,787.7289428710938,793.3699340820312,794.5787353515625,784.1025390625
447,790.1465454101562,794.981689453125,789.3406372070312,790.952392578125
448,798.6080322265625,791.7582397460938,787.7289428710938,790.1465454101562
449,799.010986328125,790.5494384765625,789.3406372070312,786.1171875
450,797.8021850585938,797.3992919921875,792.1611938476562,789.3406372070312
451,801.8314819335938,796.1904907226562,796.1904907226562,796.5933837890625
452,799.010986328125,790.1465454101562,794.5787353515625,787.7289428710938
453,792.5640869140625,784.908447265625,789.7435913085938,781.2820434570312
454,792.967041015625,784.1025390625,790.952392578125,790.5494384765625
455,791.3552856445312,789.7435913085938,792.5640869140625,794.5787353515625
456,788.1318969726562,792.1611938476562,791.3552856445312,789.7435913085938
457,794.5787353515625,793.7728881835938,792.1611938476562,789.7435913085938
458,797.3992919921875,788.5347900390625,797.8021850585938,788.1318969726562
459,792.1611938476562,781.2820434570312,801.4285888671875,783.2966918945312
460,788.5347900390625,788.937744140625,799.8168334960938,782.087890625
461,785.3113403320312,792.5640869140625,798.2051391601562,776.4468994140625
462,783.2966918945312,789.3406372070312,796.5933837890625,780.4761962890625
463,787.3259887695312,786.923095703125,793.3699340820312,786.923095703125
464,790.952392578125,788.937744140625,792.1611938476562,784.1025390625
465,788.937744140625,792.967041015625,792.5640869140625,789.7435913085938
466,785.3113403320312,789.3406372070312,792.1611938476562,792.5640869140625
467,786.5201416015625,783.2966918945312,792.967041015625,790.1465454101562
468,788.937744140625,786.923095703125,792.967041015625,793.7728881835938
469,789.7435913085938,796.1904907226562,793.3699340820312,798.6080322265625
470,793.7728881835938,799.010986328125,790.952392578125,794.5787353515625
471,792.967041015625,793.3699340820312,794.981689453125,788.937744140625
472,789.7435913085938,789.7435913085938,797.3992919921875,784.1025390625
473,794.5787353515625,792.1611938476562,795.3846435546875,785.3113403320312
474,792.967041015625,787.7289428710938,791.3552856445312,791.3552856445312
475,790.1465454101562,788.1318969726562,792.1611938476562,788.5347900390625
476,795.7875366210938,790.952392578125,791.7582397460938,792.1611938476562
477,796.996337890625,788.5347900390625,789.3406372070312,797.8021850585938
478,796.1904907226562,791.7582397460938,791.3552856445312,802.2344360351562
479,797.3992919921875,790.952392578125,790.1465454101562,796.996337890625
480,791.7582397460938,786.5201416015625,792.1611938476562,783.6996459960938
481,787.3259887695312,786.1171875,791.3552856445312,784.5054931640625
482,794.1758422851562,790.1465454101562,790.5494384765625,789.7435913085938
483,801.4285888671875,796.5933837890625,794.5787353515625,792.967041015625
484,802.6373901367188,800.2197875976562,790.952392578125,790.952392578125
485,802.6373901367188,795.3846435546875,788.1318969726562,793.7728881835938
486,792.5640869140625,791.3552856445312,792.967041015625,795.3846435546875
487,786.1171875,792.5640869140625,793.3699340820312,783.6996459960938
488,792.1611938476562,788.937744140625,792.967041015625,784.5054931640625
489,790.952392578125,788.937744140625,790.5494384765625,790.1465454101562
490,792.1611938476562,794.5787353515625,783.6996459960938,788.937744140625
491,794.981689453125,793.7728881835938,781.6849975585938,788.1318969726562
492,792.1611938476562,793.3699340820312,781.2820434570312,787.3259887695312
493,790.952392578125,799.010986328125,780.879150390625,788.937744140625
494,793.3699340820312,793.3699340820312,785.3113403320312,791.7582397460938
495,791.3552856445312,791.7582397460938,786.923095703125,789.7435913085938
496,785.3113403320312,793.7728881835938,789.7435913085938,792.1611938476562
497,783.6996459960938,788.937744140625,792.5640869140625,801.4285888671875
498,782.893798828125,789.3406372070312,788.5347900390625,796.1904907226562
499,780.4761962890625,788.5347900390625,788.5347900390625,786.923095703125
500,786.5201416015625,784.1025390625,790.952392578125,790.952392578125
501,792.5640869140625,784.908447265625,791.3552856445312,792.967041015625
502,789.7435913085938,786.923095703125,791.7582397460938,790.5494384765625
503,786.923095703125,790.1465454101562,791.3552856445312,792.5640869140625
504,794.1758422851562,789.7435913085938,789.3406372070312,801.8314819335938
505,792.5640869140625,786.1171875,793.3699340820312,797.8021850585938
506,789.7435913085938,786.923095703125,796.5933837890625,791.3552856445312
507,794.981689453125,786.923095703125,794.981689453125,789.7435913085938
508,793.7728881835938,790.1465454101562,794.1758422851562,791.7582397460938
509,792.5640869140625,796.996337890625,790.5494384765625,794.1758422851562
510,786.923095703125,796.996337890625,790.5494384765625,796.5933837890625
511,788.937744140625,795.3846435546875,796.996337890625,799.4139404296875
512,797.8021850585938,793.7728881835938,799.010986328125,796.1904907226562
513,802.6373901367188,789.7435913085938,799.010986328125,804.6520385742188
514,809.084228515625,790.952392578125,799.8168334960938,807.87548828125
515,802.6373901367188,795.7875366210938,799.010986328125,796.5933837890625
516,793.7728881835938,799.010986328125,791.7582397460938,788.1318969726562
517,790.1465454101562,795.3846435546875,789.7435913085938,786.923095703125
518,787.7289428710938,790.5494384765625,793.7728881835938,788.937744140625
519,788.1318969726562,796.5933837890625,793.7728881835938,787.7289428710938
520,792.1611938476562,801.4285888671875,790.952392578125,788.1318969726562
521,794.981689453125,796.996337890625,796.1904907226562,788.5347900390625
522,795.3846435546875,796.5933837890625,799.4139404296875,788.5347900390625
523,797.8021850585938,796.5933837890625,790.952392578125,793.7728881835938
524,799.4139404296875,797.8021850585938,788.1318969726562,791.7582397460938
525,796.5933837890625,795.7875366210938,790.1465454101562,786.5201416015625
526,794.5787353515625,796.5933837890625,792.5640869140625,790.5494384765625
527,789.3406372070312,796.1904907226562,792.1611938476562,795.7875366210938
528,786.923095703125,789.7435913085938,786.923095703125,799.010986328125
529,792.1611938476562,793.7728881835938,788.1318969726562,796.996337890625
530,795.7875366210938,795.7875366210938,795.7875366210938,803.040283203125
531,798.2051391601562,788.5347900390625,794.1758422851562,804.6520385742188
532,797.3992919921875,789.3406372070312,792.1611938476562,793.7728881835938
533,789.3406372070312,787.7289428710938,791.7582397460938,786.923095703125
534,789.7435913085938,784.908447265625,791.7582397460938,788.5347900390625
535,796.1904907226562,793.7728881835938,786.923095703125,801.8314819335938
536,796.1904907226562,799.010986328125,789.3406372070312,806.2637329101562
537,790.5494384765625,796.996337890625,798.2051391601562,796.996337890625
538,790.5494384765625,790.952392578125,794.981689453125,793.3699340820312
539,792.1611938476562,790.952392578125,792.1611938476562,794.5787353515625
540,789.7435913085938,792.967041015625,794.5787353515625,791.3552856445312
541,792.1611938476562,788.5347900390625,794.5787353515625,787.7289428710938
542,794.1758422851562,789.3406372070312,792.5640869140625,788.5347900390625
543,788.1318969726562,790.5494384765625,789.7435913085938,786.923095703125
544,786.5201416015625,789.7435913085938,790.1465454101562,784.1025390625
545,792.1611938476562,789.3406372070312,791.3552856445312,789.3406372070312
546,792.967041015625,782.087890625,791.3552856445312,794.981689453125
547,786.1171875,782.893798828125,794.5787353515625,793.3699340820312
548,781.6849975585938,794.5787353515625,799.010986328125,779.6703491210938
549,783.6996459960938,793.3699340820312,797.3992919921875,776.4468994140625
550,786.923095703125,787.7289428710938,791.3552856445312,784.5054931640625
551,794.1758422851562,786.5201416015625,789.3406372070312,784.5054931640625
552,795.3846435546875,788.5347900390625,792.1611938476562,788.937744140625
553,789.7435913085938,792.5640869140625,792.967041015625,791.7582397460938
554,790.1465454101562,789.7435913085938,790.5494384765625,790.5494384765625
555,791.3552856445312,788.1318969726562,786.923095703125,785.7142944335938
556,786.923095703125,786.1171875,785.3113403320312,786.5201416015625
557,789.7435913085938,784.908447265625,786.923095703125,796.1904907226562
558,794.1758422851562,784.908447265625,786.923095703125,799.010986328125
559,796.1904907226562,790.952392578125,791.3552856445312,795.7875366210938
560,796.996337890625,792.5640869140625,792.967041015625,785.3113403320312
561,794.981689453125,780.4761962890625,791.3552856445312,782.4908447265625
562,792.5640869140625,781.6849975585938,793.7728881835938,786.5201416015625
563,793.3699340820312,787.7289428710938,792.5640869140625,788.937744140625
564,795.3846435546875,790.1465454101562,794.1758422851562,791.7582397460938
565,795.3846435546875,794.5787353515625,799.8168334960938,792.967041015625
566,797.3992919921875,794.5787353515625,796.5933837890625,794.5787353515625
567,796.1904907226562,794.1758422851562,796.1904907226562,801.025634765625
568,790.952392578125,790.1465454101562,792.967041015625,795.3846435546875
569,793.3699340820312,788.1318969726562,790.5494384765625,788.5347900390625
570,795.3846435546875,789.7435913085938,794.5787353515625,799.8168334960938
571,795.3846435546875,789.7435913085938,794.981689453125,799.010986328125
572,796.5933837890625,799.8168334960938,793.3699340820312,786.5201416015625
573,797.3992919921875,798.2051391601562,797.8021850585938,791.3552856445312
574,793.7728881835938,790.952392578125,796.996337890625,790.1465454101562
575,796.996337890625,794.5787353515625,792.1611938476562,787.7289428710938
576,796.5933837890625,796.996337890625,790.952392578125,789.3406372070312
577,792.5640869140625,796.1904907226562,789.7435913085938,789.3406372070312
578,796.5933837890625,797.8021850585938,793.7728881835938,794.981689453125
579,801.8314819335938,799.010986328125,800.6226806640625,792.5640869140625
580,803.8461303710938,796.1904907226562,792.5640869140625,788.5347900390625
581,799.4139404296875,795.3846435546875,791.3552856445312,793.7728881835938
582,792.5640869140625,795.3846435546875,799.010986328125,791.3552856445312
583,791.7582397460938,795.7875366210938,798.6080322265625,790.5494384765625
584,795.3846435546875,799.4139404296875,798.2051391601562,795.3846435546875
585,799.010986328125,799.4139404296875,797.8021850585938,794.1758422851562
586,800.2197875976562,796.996337890625,801.8314819335938,794.1758422851562
587,797.3992919921875,798.6080322265625,798.6080322265625,792.967041015625
588,794.1758422851562,799.010986328125,794.981689453125,787.7289428710938
589,797.3992919921875,794.981689453125,796.5933837890625,794.5787353515625
590,794.1758422851562,790.952392578125,794.5787353515625,796.1904907226562
591,789.7435913085938,795.7875366210938,794.1758422851562,788.5347900390625
592,792.1611938476562,798.6080322265625,789.7435913085938,794.5787353515625
593,788.1318969726562,793.7728881835938,789.7435913085938,802.2344360351562
594,783.6996459960938,791.7582397460938,796.5933837890625,798.2051391601562
595,786.923095703125,795.3846435546875,796.1904907226562,792.5640869140625
596,788.5347900390625,798.2051391601562,799.8168334960938,799.010986328125
597,785.7142944335938,793.7728881835938,797.8021850585938,796.1904907226562
598,784.1025390625,786.923095703125,791.3552856445312,791.3552856445312
599,781.6849975585938,787.7289428710938,795.7875366210938,792.1611938476562
600,790.1465454101562,788.1318969726562,799.8168334960938,794.1758422851562
601,796.1904907226562,784.908447265625,799.4139404296875,793.3699340820312
602,792.967041015625,787.3259887695312,798.2051391601562,792.967041015625
603,793.3699340820312,790.952392578125,792.1611938476562,790.952392578125
604,787.7289428710938,791.7582397460938,786.923095703125,791.7582397460938
605,785.7142944335938,794.5787353515625,786.923095703125,790.5494384765625
606,789.3406372070312,800.2197875976562,791.3552856445312,785.7142944335938
607,796.996337890625,796.996337890625,790.5494384765625,792.967041015625
608,796.1904907226562,790.1465454101562,789.7435913085938,796.1904907226562
609,790.1465454101562,790.5494384765625,792.967041015625,792.5640869140625
610,788.937744140625,789.7435913085938,792.1611938476562,788.937744140625
611,790.952392578125,788.937744140625,794.1758422851562,792.967041015625
612,797.3992919921875,788.5347900390625,799.010986328125,796.996337890625
613,792.967041015625,783.6996459960938,801.025634765625,791.3552856445312
614,783.2966918945312,782.893798828125,792.1611938476562,789.7435913085938
615,783.2966918945312,780.879150390625,785.7142944335938,788.1318969726562
616,783.6996459960938,785.3113403320312,792.5640869140625,789.7435913085938
617,781.6849975585938,793.3699340820312,794.5787353515625,786.923095703125
618,786.1171875,794.981689453125,792.1611938476562,784.908447265625
619,788.1318969726562,790.1465454101562,793.7728881835938,789.7435913085938
620,788.1318969726562,783.6996459960938,795.3846435546875,788.937744140625
621,791.7582397460938,786.1171875,800.2197875976562,787.3259887695312
622,792.967041015625,791.7582397460938,795.3846435546875,786.1171875
623,790.952392578125,794.1758422851562,788.1318969726562,783.2966918945312
624,786.923095703125,791.3552856445312,792.5640869140625,784.908447265625
625,781.2820434570312,786.923095703125,799.010986328125,784.1025390625
626,780.879150390625,785.3113403320312,793.3699340820312,789.7435913085938
627,788.1318969726562,788.1318969726562,786.923095703125,803.8461303710938
628,790.1465454101562,790.1465454101562,790.1465454101562,801.4285888671875
629,786.1171875,789.7435913085938,792.1611938476562,792.967041015625
630,786.923095703125,784.5054931640625,789.3406372070312,790.5494384765625
631,788.5347900390625,786.923095703125,788.1318969726562,787.7289428710938
632,789.3406372070312,794.5787353515625,796.5933837890625,789.3406372070312
633,789.7435913085938,792.5640869140625,797.8021850585938,784.908447265625
634,790.952392578125,792.967041015625,792.1611938476562,783.2966918945312
635,792.967041015625,791.3552856445312,794.1758422851562,783.6996459960938
636,791.3552856445312,789.3406372070312,796.1904907226562,785.3113403320312
637,786.5201416015625,790.1465454101562,797.3992919921875,786.923095703125
638,785.7142944335938,785.7142944335938,793.7728881835938,784.5054931640625
639,792.967041015625,786.1171875,788.5347900390625,788.1318969726562
640,792.967041015625,790.952392578125,794.5787353515625,790.952392578125
641,788.5347900390625,793.7728881835938,796.1904907226562,787.3259887695312
642,796.1904907226562,798.2051391601562,792.967041015625,792.967041015625
643,798.6080322265625,797.8021850585938,790.5494384765625,796.996337890625
644,792.1611938476562,794.981689453125,791.3552856445312,790.5494384765625
645,788.937744140625,792.967041015625,792.967041015625,788.5347900390625
646,790.1465454101562,794.1758422851562,792.967041015625,789.3406372070312
647,793.7728881835938,794.5787353515625,791.7582397460938,793.3699340820312
648,788.1318969726562,790.1465454101562,789.7435913085938,787.3259887695312
649,788.1318969726562,787.3259887695312,790.5494384765625,786.923095703125
650,792.967041015625,784.908447265625,794.5787353515625,791.3552856445312
651,788.937744140625,788.937744140625,794.5787353515625,790.5494384765625
652,784.1025390625,793.3699340820312,797.8021850585938,794.5787353515625
653,786.5201416015625,800.2197875976562,799.8168334960938,794.981689453125
654,785.3113403320312,798.6080322265625,790.952392578125,794.981689453125
655,787.3259887695312,794.1758422851562,786.1171875,790.952392578125
656,791.7582397460938,790.5494384765625,790.1465454101562,782.893798828125
657,790.5494384765625,785.3113403320312,790.1465454101562,780.4761962890625
658,794.1758422851562,784.908447265625,793.3699340820312,786.1171875
659,793.7728881835938,786.5201416015625,792.5640869140625,793.3699340820312
660,791.7582397460938,791.7582397460938,792.967041015625,794.5787353515625
661,794.981689453125,790.952392578125,800.6226806640625,797.8021850585938
662,792.967041015625,784.5054931640625,796.5933837890625,794.5787353515625
663,788.937744140625,787.7289428710938,792.967041015625,788.937744140625
664,790.1465454101562,798.2051391601562,799.4139404296875,789.3406372070312
665,790.5494384765625,798.6080322265625,799.8168334960938,792.967041015625
666,794.1758422851562,795.3846435546875,794.5787353515625,799.4139404296875
667,794.981689453125,795.3846435546875,792.967041015625,799.8168334960938
668,797.3992919921875,792.5640869140625,797.3992919921875,794.981689453125
669,796.996337890625,789.3406372070312,793.3699340820312,793.3699340820312
670,790.952392578125,791.7582397460938,791.7582397460938,794.5787353515625
671,786.5201416015625,793.7728881835938,790.5494384765625,790.952392578125
672,787.7289428710938,795.7875366210938,789.7435913085938,790.1465454101562
673,794.5787353515625,791.7582397460938,793.7728881835938,792.1611938476562
674,792.5640869140625,789.3406372070312,791.3552856445312,786.1171875
675,788.937744140625,794.5787353515625,789.7435913085938,786.1171875
676,783.6996459960938,793.7728881835938,790.952392578125,783.6996459960938
677,778.05859375,790.1465454101562,790.1465454101562,785.7142944335938
678,783.2966918945312,789.3406372070312,788.5347900390625,791.7582397460938
679,788.5347900390625,791.7582397460938,786.923095703125,780.879150390625
680,783.6996459960938,792.5640869140625,787.7289428710938,784.5054931640625
681,783.6996459960938,791.7582397460938,792.1611938476562,791.3552856445312
682,786.1171875,792.5640869140625,794.1758422851562,786.1171875
683,787.3259887695312,794.981689453125,791.7582397460938,788.937744140625
684,792.1611938476562,790.1465454101562,789.7435913085938,789.3406372070312
685,791.7582397460938,785.7142944335938,790.5494384765625,785.7142944335938
686,795.3846435546875,785.7142944335938,793.7728881835938,790.1465454101562
687,799.8168334960938,790.1465454101562,794.1758422851562,794.5787353515625
688,801.8314819335938,795.7875366210938,794.5787353515625,791.3552856445312
689,803.8461303710938,799.4139404296875,796.1904907226562,797.3992919921875
690,803.040283203125,803.040283203125,797.8021850585938,796.5933837890625
691,806.2637329101562,801.8314819335938,796.1904907226562,788.937744140625
692,800.6226806640625,798.2051391601562,793.3699340820312,792.1611938476562
693,796.996337890625,798.6080322265625,793.3699340820312,792.1611938476562
694,799.8168334960938,802.6373901367188,795.3846435546875,790.952392578125
695,793.3699340820312,799.8168334960938,796.5933837890625,790.1465454101562
696,786.1171875,794.981689453125,796.5933837890625,784.1025390625
697,790.1465454101562,795.3846435546875,796.1904907226562,784.908447265625
698,792.5640869140625,797.8021850585938,793.3699340820312,786.5201416015625
699,788.1318969726562,796.1904907226562,793.7728881835938,782.893798828125
700,791.7582397460938,789.3406372070312,793.3699340820312,790.952392578125
701,790.1465454101562,788.1318969726562,792.967041015625,793.3699340820312
702,783.2966918945312,792.1611938476562,798.6080322265625,780.4761962890625
703,791.7582397460938,792.1611938476562,794.981689453125,779.6703491210938
704,796.5933837890625,786.1171875,789.7435913085938,784.908447265625
705,792.5640869140625,786.923095703125,793.7728881835938,791.3552856445312
706,795.7875366210938,791.3552856445312,789.7435913085938,791.7582397460938
707,797.8021850585938,791.3552856445312,788.1318969726562,792.5640869140625
708,796.1904907226562,788.937744140625,790.1465454101562,792.967041015625
709,794.1758422851562,789.3406372070312,789.3406372070312,788.937744140625
710,795.3846435546875,784.5054931640625,794.1758422851562,784.908447265625
711,800.6226806640625,782.4908447265625,792.1611938476562,781.2820434570312
712,802.2344360351562,790.952392578125,789.3406372070312,789.7435913085938
713,795.3846435546875,792.967041015625,794.981689453125,792.1611938476562
714,797.3992919921875,800.2197875976562,797.3992919921875,787.7289428710938
715,798.2051391601562,800.2197875976562,796.1904907226562,792.967041015625
716,790.1465454101562,793.7728881835938,792.967041015625,794.981689453125
717,786.1171875,797.3992919921875,795.7875366210938,792.967041015625
718,785.3113403320312,799.010986328125,800.2197875976562,792.1611938476562
719,787.3259887695312,795.7875366210938,798.6080322265625,797.8021850585938
720,787.7289428710938,792.967041015625,798.2051391601562,798.6080322265625
721,786.923095703125,789.7435913085938,799.010986328125,793.3699340820312
722,788.1318969726562,786.5201416015625,792.5640869140625,793.3699340820312
723,792.967041015625,789.7435913085938,791.7582397460938,803.040283203125
724,793.3699340820312,797.8021850585938,794.981689453125,805.054931640625
725,788.937744140625,796.1904907226562,795.7875366210938,803.8461303710938
726,793.3699340820312,796.996337890625,788.5347900390625,802.6373901367188
727,800.2197875976562,794.981689453125,788.937744140625,806.2637329101562
728,801.025634765625,789.7435913085938,796.996337890625,807.069580078125
729,797.8021850585938,792.967041015625,792.967041015625,797.3992919921875
730,796.5933837890625,791.3552856445312,794.981689453125,800.6226806640625
731,800.2197875976562,786.5201416015625,793.7728881835938,801.4285888671875
732,803.040283203125,791.3552856445312,790.952392578125,796.5933837890625
733,801.4285888671875,799.8168334960938,791.3552856445312,796.5933837890625
734,794.981689453125,797.8021850585938,791.3552856445312,794.1758422851562
735,796.5933837890625,793.7728881835938,797.8021850585938,794.981689453125
736,797.3992919921875,790.5494384765625,791.7582397460938,790.1465454101562
737,791.7582397460938,791.7582397460938,785.7142944335938,787.7289428710938
738,796.1904907226562,797.3992919921875,788.5347900390625,791.3552856445312
739,795.3846435546875,791.3552856445312,786.923095703125,793.7728881835938
740,782.4908447265625,788.1318969726562,783.2966918945312,788.5347900390625
741,777.2527465820312,795.7875366210938,782.4908447265625,786.5201416015625
742,778.4615478515625,790.5494384765625,790.1465454101562,791.3552856445312
743,776.4468994140625,792.1611938476562,792.5640869140625,788.5347900390625
744,778.05859375,799.8168334960938,789.3406372070312,785.7142944335938
745,779.6703491210938,796.996337890625,791.3552856445312,787.7289428710938
746,780.0732421875,797.3992919921875,790.1465454101562,787.3259887695312
747,782.087890625,794.1758422851562,785.3113403320312,787.3259887695312
748,781.2820434570312,789.7435913085938,790.5494384765625,791.3552856445312
749,777.6557006835938,791.3552856445312,793.3699340820312,791.3552856445312
750,782.087890625,788.1318969726562,790.1465454101562,798.2051391601562
751,784.908447265625,789.7435913085938,788.5347900390625,801.025634765625
752,782.087890625,803.040283203125,790.1465454101562,795.3846435546875
753,787.3259887695312,807.4725341796875,792.1611938476562,797.8021850585938
754,793.3699340820312,792.5640869140625,792.1611938476562,794.5787353515625
755,795.7875366210938,783.2966918945312,792.5640869140625,789.3406372070312
756,792.5640869140625,789.7435913085938,788.937744140625,786.923095703125
757,792.5640869140625,790.5494384765625,786.5201416015625,789.7435913085938
758,796.5933837890625,785.7142944335938,792.1611938476562,794.5787353515625
759,793.7728881835938,786.1171875,795.3846435546875,790.5494384765625
760,789.3406372070312,784.908447265625,796.5933837890625,789.3406372070312
761,793.7728881835938,794.1758422851562,798.2051391601562,796.5933837890625
762,794.981689453125,803.040283203125,797.8021850585938,800.6226806640625
763,785.7142944335938,795.7875366210938,794.1758422851562,792.5640869140625
764,784.908447265625,789.3406372070312,794.1758422851562,782.4908447265625
765,789.3406372070312,793.3699340820312,788.937744140625,784.5054931640625
766,793.3699340820312,795.3846435546875,788.1318969726562,787.7289428710938
767,790.952392578125,792.5640869140625,792.1611938476562,784.1025390625
768,788.5347900390625,792.967041015625,794.1758422851562,788.937744140625
769,788.5347900390625,791.7582397460938,796.996337890625,794.5787353515625
770,781.2820434570312,788.5347900390625,795.3846435546875,788.937744140625
771,781.2820434570312,786.923095703125,792.1611938476562,788.1318969726562
772,785.7142944335938,791.3552856445312,790.1465454101562,789.3406372070312
773,788.937744140625,793.3699340820312,793.3699340820312,792.967041015625
774,785.7142944335938,787.7289428710938,795.7875366210938,797.3992919921875
775,780.879150390625,787.7289428710938,794.981689453125,787.3259887695312
776,782.087890625,786.5201416015625,786.5201416015625,784.5054931640625
777,780.0732421875,784.5054931640625,782.893798828125,784.5054931640625
778,779.6703491210938,787.7289428710938,792.5640869140625,781.6849975585938
779,789.3406372070312,788.937744140625,793.3699340820312,782.893798828125
780,791.7582397460938,789.7435913085938,792.1611938476562,784.5054931640625
781,791.3552856445312,793.3699340820312,792.5640869140625,790.1465454101562
782,794.981689453125,793.3699340820312,794.981689453125,794.5787353515625
783,790.952392578125,792.967041015625,799.8168334960938,797.8021850585938
784,790.5494384765625,795.3846435546875,797.8021850585938,799.8168334960938
785,795.7875366210938,792.967041015625,796.996337890625,805.4578857421875
786,794.1758422851562,789.7435913085938,801.4285888671875,800.6226806640625
787,794.5787353515625,794.5787353515625,797.3992919921875,795.7875366210938
788,788.5347900390625,792.5640869140625,792.1611938476562,795.3846435546875
789,782.087890625,791.7582397460938,794.1758422851562,790.952392578125
790,787.7289428710938,795.7875366210938,797.3992919921875,788.5347900390625
791,798.2051391601562,792.5640869140625,798.2051391601562,788.937744140625
792,799.8168334960938,796.5933837890625,796.996337890625,792.5640869140625
793,788.5347900390625,799.4139404296875,794.5787353515625,791.7582397460938
794,785.7142944335938,795.3846435546875,790.5494384765625,790.952392578125
795,791.7582397460938,790.5494384765625,796.5933837890625,792.1611938476562
796,795.7875366210938,788.1318969726562,798.6080322265625,795.3846435546875
797,792.967041015625,787.7289428710938,789.3406372070312,793.7728881835938
798,790.5494384765625,790.1465454101562,787.7289428710938,790.952392578125
799,797.3992919921875,795.3846435546875,787.7289428710938,798.2051391601562
800,804.2490844726562,797.3992919921875,789.7435913085938,802.2344360351562
801,802.2344360351562,795.7875366210938,790.1465454101562,796.5933837890625
802,800.6226806640625,797.3992919921875,790.1465454101562,791.7582397460938
803,799.4139404296875,795.7875366210938,787.3259887695312,790.5494384765625
804,794.981689453125,786.5201416015625,784.5054931640625,796.5933837890625
805,791.7582397460938,787.7289428710938,788.5347900390625,796.996337890625
806,787.7289428710938,792.967041015625,790.5494384765625,790.5494384765625
807,793.7728881835938,791.7582397460938,790.952392578125,796.996337890625
808,799.4139404296875,795.3846435546875,791.7582397460938,803.040283203125
809,791.3552856445312,794.981689453125,792.1611938476562,796.996337890625
810,786.1171875,789.3406372070312,794.5787353515625,788.1318969726562
811,788.5347900390625,789.3406372070312,793.7728881835938,784.5054931640625
812,793.3699340820312,793.7728881835938,795.7875366210938,790.1465454101562
813,790.952392578125,796.5933837890625,794.981689453125,792.967041015625
814,785.7142944335938,790.1465454101562,793.3699340820312,793.7728881835938
815,785.7142944335938,785.7142944335938,800.2197875976562,796.5933837890625
816,788.1318969726562,792.967041015625,803.040283203125,795.3846435546875
817,782.893798828125,795.7875366210938,799.8168334960938,785.3113403320312
818,780.879150390625,797.8021850585938,796.1904907226562,788.1318969726562
819,790.5494384765625,797.8021850585938,796.5933837890625,798.2051391601562
820,795.3846435546875,794.1758422851562,800.2197875976562,795.3846435546875
821,791.3552856445312,794.5787353515625,799.8168334960938,791.3552856445312
822,790.1465454101562,790.5494384765625,796.5933837890625,798.2051391601562
823,797.8021850585938,780.0732421875,795.3846435546875,802.6373901367188
824,796.5933837890625,780.4761962890625,794.1758422851562,796.1904907226562
825,790.952392578125,786.5201416015625,791.3552856445312,792.1611938476562
826,794.5787353515625,784.908447265625,790.5494384765625,793.7728881835938
827,794.1758422851562,790.5494384765625,788.1318969726562,798.6080322265625
828,795.3846435546875,799.4139404296875,790.952392578125,792.967041015625
829,794.981689453125,797.8021850585938,794.5787353515625,786.1171875
830,793.7728881835938,794.981689453125,796.996337890625,788.5347900390625
831,796.5933837890625,796.1904907226562,796.1904907226562,792.1611938476562
832,799.010986328125,794.981689453125,790.952392578125,794.5787353515625
833,796.1904907226562,790.952392578125,784.5054931640625,788.5347900390625
834,799.4139404296875,786.1171875,780.4761962890625,786.923095703125
835,799.010986328125,783.6996459960938,782.4908447265625,792.1611938476562
836,797.8021850585938,794.5787353515625,792.5640869140625,792.1611938476562
837,797.3992919921875,802.2344360351562,800.6226806640625,794.1758422851562
838,791.3552856445312,794.1758422851562,795.7875366210938,803.8461303710938
839,792.5640869140625,792.5640869140625,793.7728881835938,806.2637329101562
840,786.5201416015625,796.996337890625,794.1758422851562,797.8021850585938
841,785.3113403320312,798.2051391601562,794.1758422851562,796.5933837890625
842,791.3552856445312,790.1465454101562,792.5640869140625,797.3992919921875
843,794.1758422851562,785.7142944335938,788.1318969726562,794.5787353515625
844,796.5933837890625,792.1611938476562,792.1611938476562,791.7582397460938
845,795.7875366210938,791.7582397460938,794.981689453125,796.996337890625
846,802.2344360351562,791.7582397460938,796.1904907226562,808.2783813476562
847,799.8168334960938,795.7875366210938,792.967041015625,807.4725341796875
848,790.5494384765625,799.4139404296875,789.7435913085938,792.1611938476562
849,793.7728881835938,800.6226806640625,791.7582397460938,790.5494384765625
850,798.2051391601562,797.8021850585938,790.952392578125,793.3699340820312
851,796.1904907226562,794.981689453125,788.1318969726562,788.5347900390625
852,792.5640869140625,795.3846435546875,788.5347900390625,790.1465454101562
853,790.5494384765625,785.7142944335938,790.5494384765625,790.5494384765625
854,788.1318969726562,785.3113403320312,786.5201416015625,796.1904907226562
855,786.923095703125,791.7582397460938,788.5347900390625,803.4432373046875
856,788.1318969726562,793.3699340820312,792.5640869140625,800.6226806640625
857,788.1318969726562,790.952392578125,794.981689453125,801.4285888671875
858,786.923095703125,787.7289428710938,797.3992919921875,803.4432373046875
859,784.1025390625,794.1758422851562,796.5933837890625,793.7728881835938
860,790.1465454101562,793.3699340820312,797.3992919921875,786.1171875
861,797.8021850585938,787.7289428710938,801.4285888671875,792.1611938476562
862,792.967041015625,788.937744140625,798.6080322265625,794.1758422851562
863,795.3846435546875,792.967041015625,793.3699340820312,792.967041015625
864,794.5787353515625,796.5933837890625,792.1611938476562,792.1611938476562
865,792.967041015625,799.4139404296875,797.8021850585938,796.5933837890625
866,799.4139404296875,799.4139404296875,803.4432373046875,797.8021850585938
867,797.8021850585938,797.8021850585938,796.5933837890625,790.952392578125
868,796.1904907226562,792.5640869140625,791.3552856445312,792.1611938476562
869,797.8021850585938,791.7582397460938,791.3552856445312,799.8168334960938
870,793.3699340820312,796.5933837890625,785.7142944335938,801.025634765625
871,796.996337890625,797.3992919921875,790.952392578125,792.967041015625
872,800.2197875976562,799.4139404296875,799.8168334960938,794.1758422851562
873,794.5787353515625,801.4285888671875,799.8168334960938,790.952392578125
874,790.952392578125,799.8168334960938,795.7875366210938,788.1318969726562
875,789.7435913085938,798.6080322265625,795.7875366210938,791.7582397460938
876,788.937744140625,795.7875366210938,796.5933837890625,795.7875366210938
877,792.1611938476562,800.2197875976562,797.3992919921875,800.2197875976562
878,795.3846435546875,803.4432373046875,792.5640869140625,799.010986328125
879,795.7875366210938,796.996337890625,794.5787353515625,795.3846435546875
880,794.5787353515625,794.981689453125,804.6520385742188,791.7582397460938
881,796.5933837890625,789.3406372070312,802.2344360351562,799.8168334960938
882,796.5933837890625,787.7289428710938,803.040283203125,803.8461303710938
883,793.3699340820312,792.5640869140625,799.8168334960938,785.7142944335938
884,796.1904907226562,793.7728881835938,792.5640869140625,780.879150390625
885,796.1904907226562,793.7728881835938,798.6080322265625,792.967041015625
886,796.1904907226562,794.981689453125,800.6226806640625,794.5787353515625
887,801.025634765625,797.8021850585938,801.4285888671875,791.3552856445312
888,801.025634765625,797.3992919921875,806.6666870117188,792.5640869140625
889,797.8021850585938,793.7728881835938,804.6520385742188,787.3259887695312
890,797.8021850585938,796.5933837890625,799.4139404296875,782.893798828125
891,799.8168334960938,796.1904907226562,796.996337890625,786.1171875
892,797.8021850585938,796.996337890625,795.3846435546875,791.7582397460938
893,795.3846435546875,793.3699340820312,790.5494384765625,793.3699340820312
894,789.7435913085938,787.7289428710938,786.923095703125,793.7728881835938
895,784.5054931640625,793.3699340820312,792.1611938476562,790.952392578125
896,789.3406372070312,792.1611938476562,793.3699340820312,789.3406372070312
897,794.1758422851562,792.1611938476562,791.7582397460938,791.3552856445312
898,793.3699340820312,796.5933837890625,793.3699340820312,792.967041015625
899,796.996337890625,799.8168334960938,794.5787353515625,796.996337890625
900,792.5640869140625,796.996337890625,791.7582397460938,792.1611938476562
901,784.908447265625,792.1611938476562,792.1611938476562,786.5201416015625
902,790.1465454101562,794.981689453125,793.3699340820312,792.1611938476562
903,792.5640869140625,791.7582397460938,786.923095703125,790.952392578125
904,789.3406372070312,780.879150390625,788.937744140625,791.3552856445312
905,786.5201416015625,784.1025390625,794.1758422851562,794.1758422851562
906,784.1025390625,796.1904907226562,794.981689453125,789.7435913085938
907,792.5640869140625,794.1758422851562,799.8168334960938,792.967041015625
908,796.1904907226562,792.967041015625,797.8021850585938,799.4139404296875
909,786.5201416015625,800.6226806640625,795.7875366210938,792.967041015625
910,782.087890625,799.4139404296875,800.2197875976562,784.908447265625
911,780.879150390625,788.1318969726562,796.996337890625,783.6996459960938
912,784.5054931640625,784.908447265625,795.7875366210938,786.5201416015625
913,792.967041015625,794.1758422851562,799.8168334960938,796.5933837890625
914,794.1758422851562,794.981689453125,793.7728881835938,798.6080322265625
915,792.967041015625,784.908447265625,795.7875366210938,794.5787353515625
916,793.7728881835938,785.3113403320312,803.040283203125,799.4139404296875
917,788.1318969726562,796.1904907226562,803.8461303710938,799.4139404296875
918,781.6849975585938,796.996337890625,802.6373901367188,793.7728881835938
919,791.7582397460938,799.010986328125,804.2490844726562,799.4139404296875
920,792.5640869140625,804.2490844726562,803.8461303710938,796.996337890625
921,786.5201416015625,802.6373901367188,799.8168334960938,787.7289428710938
922,790.952392578125,796.996337890625,796.996337890625,790.1465454101562
923,785.3113403320312,794.1758422851562,799.4139404296875,793.7728881835938
924,782.087890625,789.7435913085938,800.6226806640625,793.7728881835938
925,782.087890625,781.6849975585938,799.8168334960938,790.5494384765625
926,776.8497924804688,780.879150390625,800.6226806640625,790.1465454101562
927,778.4615478515625,789.3406372070312,796.1904907226562,790.5494384765625
928,784.5054931640625,795.7875366210938,797.3992919921875,792.5640869140625
929,788.937744140625,795.3846435546875,801.8314819335938,799.4139404296875
930,793.3699340820312,796.5933837890625,799.010986328125,801.4285888671875
931,796.996337890625,793.7728881835938,797.3992919921875,804.2490844726562
932,793.3699340820312,797.3992919921875,795.7875366210938,803.4432373046875
933,790.952392578125,801.025634765625,790.952392578125,796.1904907226562
934,794.981689453125,793.3699340820312,792.967041015625,800.2197875976562
935,794.1758422851562,790.1465454101562,801.4285888671875,805.4578857421875
936,790.5494384765625,793.3699340820312,796.996337890625,802.2344360351562
937,790.5494384765625,793.7728881835938,790.1465454101562,801.4285888671875
938,788.5347900390625,790.5494384765625,794.1758422851562,794.5787353515625
939,789.3406372070312,786.1171875,792.967041015625,786.923095703125
940,787.7289428710938,784.5054931640625,789.3406372070312,788.1318969726562
941,788.937744140625,790.1465454101562,799.4139404296875,791.7582397460938
942,795.3846435546875,793.7728881835938,799.4139404296875,790.952392578125
943,794.1758422851562,795.3846435546875,794.981689453125,788.5347900390625
944,788.1318969726562,791.7582397460938,800.2197875976562,783.6996459960938
945,786.5201416015625,790.952392578125,794.981689453125,784.908447265625
946,780.0732421875,792.1611938476562,792.1611938476562,780.0732421875
947,778.4615478515625,792.5640869140625,795.7875366210938,778.4615478515625
948,782.4908447265625,789.7435913085938,799.4139404296875,787.3259887695312
949,783.2966918945312,787.7289428710938,800.2197875976562,788.937744140625
950,790.952392578125,790.5494384765625,797.8021850585938,790.952392578125
951,797.3992919921875,792.5640869140625,794.1758422851562,789.7435913085938
952,799.8168334960938,792.1611938476562,797.3992919921875,785.3113403320312
953,800.6226806640625,790.5494384765625,799.8168334960938,791.3552856445312
954,801.025634765625,794.5787353515625,795.3846435546875,803.040283203125
955,799.8168334960938,790.1465454101562,803.8461303710938,803.4432373046875
956,800.2197875976562,789.7435913085938,801.8314819335938,798.2051391601562
957,796.5933837890625,799.010986328125,795.7875366210938,794.5787353515625
958,784.1025390625,793.7728881835938,802.6373901367188,789.7435913085938
959,783.2966918945312,788.5347900390625,801.025634765625,792.5640869140625
960,789.7435913085938,788.1318969726562,799.010986328125,797.3992919921875
961,789.7435913085938,790.5494384765625,801.025634765625,799.010986328125
962,787.7289428710938,790.952392578125,801.025634765625,800.6226806640625
963,790.1465454101562,791.3552856445312,801.4285888671875,798.6080322265625
964,790.1465454101562,791.3552856445312,802.2344360351562,793.3699340820312
965,788.1318969726562,780.4761962890625,803.8461303710938,800.6226806640625
966,787.3259887695312,785.3113403320312,803.040283203125,806.2637329101562
967,784.908447265625,796.996337890625,801.8314819335938,790.1465454101562
968,784.5054931640625,798.6080322265625,796.5933837890625,782.893798828125
969,788.5347900390625,789.7435913085938,793.7728881835938,786.5201416015625
970,788.1318969726562,783.6996459960938,795.7875366210938,792.1611938476562
971,789.3406372070312,796.5933837890625,790.5494384765625,794.5787353515625
972,795.7875366210938,799.8168334960938,788.937744140625,798.2051391601562
973,796.5933837890625,794.5787353515625,793.7728881835938,803.040283203125
974,798.2051391601562,794.1758422851562,796.996337890625,796.996337890625
975,795.7875366210938,792.1611938476562,796.996337890625,790.1465454101562
976,795.3846435546875,791.7582397460938,796.1904907226562,787.7289428710938
977,799.4139404296875,796.5933837890625,796.1904907226562,789.3406372070312
978,801.4285888671875,799.010986328125,797.8021850585938,792.5640869140625
979,803.8461303710938,797.3992919921875,795.7875366210938,792.5640869140625
980,802.6373901367188,801.025634765625,790.5494384765625,792.1611938476562
981,801.8314819335938,801.4285888671875,789.7435913085938,790.5494384765625
982,799.8168334960938,794.5787353515625,790.952392578125,788.1318969726562
983,799.8168334960938,799.4139404296875,790.952392578125,791.7582397460938
984,796.5933837890625,797.8021850585938,790.5494384765625,790.1465454101562
985,799.4139404296875,794.1758422851562,788.937744140625,792.967041015625
986,799.010986328125,796.996337890625,787.7289428710938,792.1611938476562
987,787.7289428710938,792.1611938476562,783.2966918945312,785.7142944335938
988,783.2966918945312,788.1318969726562,785.7142944335938,792.5640869140625
989,793.7728881835938,787.7289428710938,791.3552856445312,801.4285888671875
990,798.6080322265625,792.5640869140625,786.5201416015625,795.3846435546875
991,792.967041015625,799.4139404296875,786.923095703125,784.1025390625
992,785.3113403320312,797.3992919921875,791.3552856445312,777.2527465820312
993,782.4908447265625,794.1758422851562,792.967041015625,780.0732421875
994,787.3259887695312,794.1758422851562,791.7582397460938,784.908447265625
995,794.5787353515625,793.7728881835938,790.5494384765625,790.5494384765625
996,792.1611938476562,791.3552856445312,795.7875366210938,791.3552856445312
997,791.7582397460938,798.6080322265625,793.7728881835938,788.5347900390625
998,794.981689453125,799.8168334960938,791.7582397460938,791.3552856445312
999,797.8021850585938,793.3699340820312,793.3699340820312,790.5494384765625
1000,799.010986328125,793.3699340820312,790.952392578125,793.7728881835938
1001,799.010986328125,790.952392578125,792.1611938476562,796.996337890625
1002,801.025634765625,793.3699340820312,792.967041015625,796.1904907226562
1003,798.6080322265625,797.3992919921875,788.1318969726562,790.952392578125
1004,794.1758422851562,801.025634765625,790.952392578125,788.937744140625
1005,792.967041015625,802.6373901367188,796.1904907226562,796.5933837890625
1006,794.1758422851562,799.4139404296875,794.981689453125,797.3992919921875
1007,796.5933837890625,795.3846435546875,794.981689453125,798.6080322265625
1008,797.8021850585938,796.996337890625,798.6080322265625,797.8021850585938
1009,793.3699340820312,794.5787353515625,798.2051391601562,786.923095703125
1010,788.937744140625,788.1318969726562,798.6080322265625,788.1318969726562
1011,786.5201416015625,792.1611938476562,796.5933837890625,794.1758422851562
1012,790.952392578125,796.5933837890625,798.6080322265625,795.3846435546875
1013,792.5640869140625,799.010986328125,797.3992919921875,790.5494384765625
1014,791.7582397460938,794.1758422851562,796.1904907226562,785.7142944335938
1015,792.1611938476562,786.5201416015625,796.1904907226562,791.7582397460938
1016,788.1318969726562,788.5347900390625,793.3699340820312,790.1465454101562
1017,786.5201416015625,795.7875366210938,793.7728881835938,785.7142944335938
1018,790.1465454101562,795.3846435546875,794.5787353515625,789.3406372070312
1019,793.3699340820312,792.967041015625,796.1904907226562,788.1318969726562
1020,790.1465454101562,787.3259887695312,790.952392578125,785.3113403320312
1021,791.3552856445312,787.7289428710938,788.5347900390625,788.5347900390625
1022,790.1465454101562,794.1758422851562,793.3699340820312,788.937744140625
1023,789.3406372070312,790.1465454101562,796.5933837890625,791.7582397460938
1024,790.5494384765625,786.923095703125,795.7875366210938,790.952392578125
1025,782.893798828125,789.7435913085938,788.937744140625,780.4761962890625
1026,784.5054931640625,788.5347900390625,786.5201416015625,778.4615478515625
1027,794.5787353515625,785.3113403320312,789.7435913085938,785.3113403320312
1028,793.7728881835938,786.923095703125,792.5640869140625,783.6996459960938
1029,791.7582397460938,788.1318969726562,790.952392578125,779.6703491210938
1030,794.981689453125,789.7435913085938,792.1611938476562,786.5201416015625
1031,796.5933837890625,786.5201416015625,795.3846435546875,788.937744140625
1032,796.5933837890625,785.3113403320312,793.3699340820312,785.7142944335938
1033,795.7875366210938,787.7289428710938,794.981689453125,788.937744140625
1034,793.3699340820312,786.5201416015625,792.967041015625,789.3406372070312
1035,792.1611938476562,788.1318969726562,793.3699340820312,789.3406372070312
1036,790.5494384765625,789.7435913085938,795.3846435546875,793.7728881835938
1037,792.967041015625,794.981689453125,790.952392578125,798.2051391601562
1038,795.3846435546875,796.5933837890625,792.5640869140625,803.8461303710938
1039,796.1904907226562,794.5787353515625,794.5787353515625,804.2490844726562
1040,800.6226806640625,796.996337890625,798.6080322265625,799.8168334960938
1041,803.8461303710938,799.010986328125,801.8314819335938,799.8168334960938
1042,802.6373901367188,798.6080322265625,801.8314819335938,798.6080322265625
1043,800.2197875976562,793.7728881835938,799.010986328125,801.4285888671875
1044,795.3846435546875,784.5054931640625,801.025634765625,804.2490844726562
1045,796.5933837890625,786.5201416015625,800.2197875976562,802.2344360351562
1046,790.1465454101562,792.967041015625,798.2051391601562,799.010986328125
1047,787.7289428710938,793.3699340820312,796.5933837890625,794.5787353515625
1048,792.967041015625,795.7875366210938,794.5787353515625,791.7582397460938
1049,792.967041015625,799.4139404296875,796.5933837890625,790.952392578125
1050,794.1758422851562,798.2051391601562,790.5494384765625,798.6080322265625
1051,794.1758422851562,795.7875366210938,790.1465454101562,799.8168334960938
1052,788.1318969726562,795.7875366210938,796.996337890625,797.3992919921875
1053,784.1025390625,794.981689453125,797.8021850585938,799.010986328125
1054,784.908447265625,798.6080322265625,794.5787353515625,788.1318969726562
1055,785.3113403320312,794.1758422851562,794.5787353515625,783.6996459960938
1056,786.5201416015625,790.1465454101562,796.5933837890625,786.1171875
1057,784.1025390625,790.5494384765625,794.5787353515625,786.5201416015625
1058,784.1025390625,793.7728881835938,790.1465454101562,785.7142944335938
1059,784.908447265625,795.7875366210938,789.3406372070312,784.1025390625
1060,786.5201416015625,789.3406372070312,792.967041015625,790.5494384765625
1061,788.1318969726562,787.3259887695312,792.967041015625,796.5933837890625
1062,784.5054931640625,787.7289428710938,795.3846435546875,790.1465454101562
1063,787.7289428710938,791.7582397460938,796.1904907226562,781.6849975585938
1064,786.923095703125,794.981689453125,794.5787353515625,782.087890625
1065,781.6849975585938,795.3846435546875,792.967041015625,787.7289428710938
1066,788.5347900390625,793.7728881835938,790.952392578125,793.3699340820312
1067,794.5787353515625,796.1904907226562,793.7728881835938,793.3699340820312
1068,796.1904907226562,794.5787353515625,799.010986328125,787.7289428710938
1069,791.3552856445312,789.7435913085938,797.8021850585938,786.5201416015625
1070,789.7435913085938,789.3406372070312,793.3699340820312,792.967041015625
1071,796.1904907226562,792.1611938476562,790.952392578125,793.3699340820312
1072,803.4432373046875,794.5787353515625,790.5494384765625,794.1758422851562
1073,809.084228515625,793.7728881835938,792.5640869140625,808.2783813476562
1074,805.8607788085938,795.7875366210938,795.3846435546875,811.5018310546875
1075,802.6373901367188,803.040283203125,795.3846435546875,801.8314819335938
1076,801.4285888671875,800.6226806640625,791.3552856445312,793.7728881835938
1077,802.6373901367188,796.1904907226562,791.7582397460938,790.1465454101562
1078,802.2344360351562,795.3846435546875,796.5933837890625,793.7728881835938
1079,803.040283203125,799.010986328125,792.5640869140625,803.4432373046875
1080,807.4725341796875,801.4285888671875,794.1758422851562,815.1282348632812
1081,805.4578857421875,800.6226806640625,798.2051391601562,815.1282348632812
1082,802.2344360351562,799.8168334960938,793.3699340820312,803.040283203125
1083,801.4285888671875,791.7582397460938,789.7435913085938,796.5933837890625
1084,799.4139404296875,789.3406372070312,788.5347900390625,795.7875366210938
1085,796.1904907226562,793.3699340820312,790.5494384765625,794.5787353515625
1086,792.5640869140625,793.3699340820312,795.3846435546875,790.952392578125
1087,791.7582397460938,793.3699340820312,791.7582397460938,785.7142944335938
1088,794.5787353515625,790.5494384765625,789.7435913085938,790.952392578125
1089,796.1904907226562,793.3699340820312,793.3699340820312,793.3699340820312
1090,795.3846435546875,799.4139404296875,790.5494384765625,782.893798828125
1091,794.5787353515625,794.1758422851562,789.3406372070312,782.087890625
1092,791.7582397460938,789.7435913085938,791.3552856445312,784.5054931640625
1093,794.981689453125,790.1465454101562,790.5494384765625,787.7289428710938
1094,800.2197875976562,796.5933837890625,793.3699340820312,795.3846435546875
1095,797.8021850585938,795.7875366210938,793.3699340820312,794.1758422851562
1096,798.6080322265625,788.937744140625,795.7875366210938,796.1904907226562
1097,794.5787353515625,791.7582397460938,799.010986328125,796.5933837890625
1098,788.5347900390625,793.7728881835938,799.010986328125,789.3406372070312
1099,788.1318969726562,788.937744140625,794.5787353515625,792.5640869140625
1100,786.1171875,779.6703491210938,790.1465454101562,794.1758422851562
1101,782.4908447265625,779.6703491210938,793.7728881835938,792.5640869140625
1102,779.2673950195312,783.2966918945312,797.8021850585938,790.1465454101562
1103,782.893798828125,782.4908447265625,791.3552856445312,785.3113403320312
1104,788.5347900390625,788.5347900390625,787.7289428710938,786.5201416015625
1105,784.1025390625,788.5347900390625,794.981689453125,783.2966918945312
1106,783.2966918945312,780.0732421875,798.6080322265625,784.1025390625
1107,789.3406372070312,780.879150390625,799.010986328125,799.010986328125
1108,791.7582397460938,785.3113403320312,798.6080322265625,809.084228515625
1109,788.1318969726562,788.5347900390625,794.981689453125,795.7875366210938
1110,786.1171875,791.7582397460938,792.967041015625,795.7875366210938
1111,780.0732421875,792.1611938476562,799.8168334960938,802.2344360351562
1112,779.6703491210938,790.5494384765625,801.025634765625,798.2051391601562
1113,781.2820434570312,792.5640869140625,797.8021850585938,794.1758422851562
1114,778.8644409179688,793.7728881835938,795.3846435546875,790.5494384765625
1115,780.4761962890625,788.5347900390625,795.7875366210938,793.3699340820312
1116,782.4908447265625,789.7435913085938,798.2051391601562,796.5933837890625
1117,779.2673950195312,788.937744140625,791.3552856445312,793.3699340820312
1118,781.6849975585938,781.6849975585938,785.3113403320312,786.923095703125
1119,790.1465454101562,788.5347900390625,788.937744140625,790.1465454101562
1120,794.981689453125,793.7728881835938,791.7582397460938,794.1758422851562
1121,802.2344360351562,791.7582397460938,791.3552856445312,800.6226806640625
1122,801.4285888671875,790.952392578125,791.7582397460938,799.4139404296875
1123,798.2051391601562,794.5787353515625,792.5640869140625,799.4139404296875
1124,798.2051391601562,803.040283203125,790.5494384765625,803.040283203125
1125,796.1904907226562,804.2490844726562,789.3406372070312,797.8021850585938
1126,799.010986328125,793.3699340820312,792.5640869140625,789.3406372070312
1127,802.6373901367188,790.1465454101562,793.3699340820312,785.7142944335938
1128,795.7875366210938,793.3699340820312,791.7582397460938,788.1318969726562
1129,797.8021850585938,796.5933837890625,795.3846435546875,792.5640869140625
1130,802.6373901367188,788.937744140625,800.2197875976562,799.4139404296875
1131,798.6080322265625,784.1025390625,797.3992919921875,803.040283203125
1132,792.5640869140625,788.5347900390625,793.7728881835938,794.981689453125
1133,792.5640869140625,787.3259887695312,796.996337890625,799.010986328125
1134,802.6373901367188,788.5347900390625,801.4285888671875,810.2930297851562
1135,802.2344360351562,792.1611938476562,794.5787353515625,802.6373901367188
1136,788.5347900390625,788.5347900390625,793.7728881835938,788.5347900390625
1137,784.908447265625,786.1171875,795.7875366210938,789.7435913085938
1138,788.5347900390625,792.967041015625,795.7875366210938,796.1904907226562
1139,790.1465454101562,797.3992919921875,794.5787353515625,797.3992919921875
1140,788.937744140625,794.981689453125,795.3846435546875,801.025634765625
1141,789.7435913085938,788.5347900390625,792.967041015625,802.2344360351562
1142,792.967041015625,786.5201416015625,789.3406372070312,798.2051391601562
1143,790.1465454101562,784.908447265625,796.1904907226562,801.8314819335938
1144,794.981689453125,796.5933837890625,794.981689453125,801.4285888671875
1145,800.2197875976562,805.8607788085938,792.1611938476562,791.7582397460938
1146,794.5787353515625,798.2051391601562,794.1758422851562,784.1025390625
1147,792.1611938476562,800.2197875976562,794.1758422851562,782.087890625
1148,791.7582397460938,801.025634765625,795.7875366210938,785.3113403320312
1149,789.7435913085938,796.1904907226562,797.3992919921875,790.1465454101562
1150,793.7728881835938,795.7875366210938,795.7875366210938,793.3699340820312
1151,796.5933837890625,796.996337890625,796.1904907226562,792.1611938476562
1152,793.7728881835938,795.7875366210938,800.2197875976562,789.3406372070312
1153,788.937744140625,791.3552856445312,792.1611938476562,787.7289428710938
1154,785.3113403320312,782.087890625,791.3552856445312,790.952392578125
1155,785.3113403320312,780.0732421875,802.2344360351562,790.5494384765625
1156,788.5347900390625,786.1171875,797.3992919921875,783.6996459960938
1157,793.3699340820312,795.3846435546875,792.5640869140625,790.952392578125
1158,789.7435913085938,802.2344360351562,799.8168334960938,799.8168334960938
1159,790.952392578125,802.2344360351562,797.8021850585938,791.7582397460938
1160,799.010986328125,798.6080322265625,793.3699340820312,786.923095703125
1161,794.5787353515625,796.1904907226562,794.981689453125,785.3113403320312
1162,798.2051391601562,797.3992919921875,793.7728881835938,790.952392578125
1163,800.2197875976562,798.6080322265625,793.7728881835938,796.996337890625
1164,799.8168334960938,794.1758422851562,800.6226806640625,799.4139404296875
1165,807.069580078125,791.3552856445312,799.010986328125,801.025634765625
1166,811.90478515625,799.8168334960938,799.4139404296875,800.2197875976562
1167,814.3223266601562,799.8168334960938,806.6666870117188,800.6226806640625
1168,809.89013671875,794.5787353515625,801.025634765625,801.025634765625
1169,805.4578857421875,794.5787353515625,797.8021850585938,807.069580078125
1170,803.8461303710938,795.3846435546875,796.996337890625,805.4578857421875
1171,801.025634765625,800.6226806640625,793.7728881835938,798.6080322265625
1172,798.2051391601562,800.2197875976562,790.1465454101562,791.3552856445312
1173,794.1758422851562,793.3699340820312,782.893798828125,783.6996459960938
1174,797.3992919921875,794.981689453125,787.7289428710938,792.5640869140625
1175,804.2490844726562,797.8021850585938,797.3992919921875,801.025634765625
1176,805.054931640625,795.3846435546875,792.967041015625,792.967041015625
1177,800.2197875976562,792.1611938476562,791.3552856445312,794.5787353515625
1178,803.040283203125,799.8168334960938,795.3846435546875,799.4139404296875
1179,807.069580078125,805.4578857421875,798.2051391601562,793.7728881835938
1180,797.3992919921875,797.8021850585938,799.8168334960938,794.1758422851562
1181,797.3992919921875,791.3552856445312,797.3992919921875,795.7875366210938
1182,799.4139404296875,789.3406372070312,797.8021850585938,786.923095703125
1183,796.1904907226562,793.7728881835938,796.996337890625,784.1025390625
1184,794.981689453125,797.3992919921875,789.7435913085938,789.3406372070312
1185,795.3846435546875,787.7289428710938,794.981689453125,790.952392578125
1186,797.3992919921875,788.5347900390625,801.8314819335938,792.5640869140625
1187,792.1611938476562,795.7875366210938,795.3846435546875,790.952392578125
1188,793.7728881835938,793.3699340820312,789.3406372070312,798.6080322265625
1189,787.3259887695312,794.981689453125,790.952392578125,794.5787353515625
1190,783.2966918945312,797.8021850585938,796.996337890625,782.893798828125
1191,794.981689453125,798.2051391601562,794.1758422851562,787.3259887695312
1192,790.952392578125,790.952392578125,786.923095703125,787.7289428710938
1193,787.7289428710938,787.7289428710938,792.967041015625,794.5787353515625
1194,784.908447265625,790.5494384765625,798.2051391601562,797.8021850585938
1195,782.4908447265625,788.937744140625,794.981689453125,795.3846435546875
1196,791.3552856445312,789.3406372070312,793.7728881835938,803.8461303710938
1197,795.7875366210938,791.7582397460938,794.5787353515625,801.4285888671875
1198,792.1611938476562,792.1611938476562,793.7728881835938,794.1758422851562
1199,794.981689453125,791.3552856445312,794.5787353515625,786.923095703125
1200,796.5933837890625,792.1611938476562,792.967041015625,781.6849975585938
1201,794.1758422851562,796.996337890625,792.1611938476562,788.5347900390625
1202,792.1611938476562,793.7728881835938,797.3992919921875,797.3992919921875
1203,792.5640869140625,796.5933837890625,798.2051391601562,803.8461303710938
1204,790.952392578125,802.6373901367188,798.2051391601562,801.8314819335938
1205,788.1318969726562,802.2344360351562,795.3846435546875,790.5494384765625
1206,789.3406372070312,797.3992919921875,798.6080322265625,789.7435913085938
1207,788.1318969726562,792.967041015625,803.040283203125,794.1758422851562
1208,788.1318969726562,794.5787353515625,801.4285888671875,788.937744140625
1209,786.923095703125,796.5933837890625,796.1904907226562,777.2527465820312
1210,786.923095703125,799.4139404296875,792.1611938476562,776.4468994140625
1211,786.5201416015625,801.8314819335938,791.3552856445312,778.8644409179688
1212,788.5347900390625,794.1758422851562,790.1465454101562,779.2673950195312
1213,785.3113403320312,791.3552856445312,792.5640869140625,781.2820434570312
1214,784.5054931640625,798.2051391601562,797.3992919921875,786.1171875
1215,786.5201416015625,794.1758422851562,796.1904907226562,784.908447265625
1216,785.7142944335938,786.923095703125,792.5640869140625,778.8644409179688
1217,788.5347900390625,788.937744140625,787.7289428710938,782.4908447265625
1218,783.6996459960938,789.3406372070312,790.5494384765625,788.1318969726562
1219,780.879150390625,785.7142944335938,796.996337890625,790.952392578125
1220,776.8497924804688,788.5347900390625,796.1904907226562,785.3113403320312
1221,774.4322509765625,790.1465454101562,794.981689453125,778.05859375
1222,779.6703491210938,789.7435913085938,793.7728881835938,778.4615478515625
1223,782.4908447265625,794.5787353515625,790.952392578125,777.2527465820312
1224,780.4761962890625,788.937744140625,792.967041015625,774.8351440429688
1225,781.2820434570312,782.893798828125,788.937744140625,778.8644409179688
1226,784.1025390625,794.981689453125,785.7142944335938,779.2673950195312
1227,786.1171875,798.2051391601562,787.7289428710938,786.923095703125
1228,790.1465454101562,795.3846435546875,791.7582397460938,792.967041015625
1229,793.7728881835938,799.8168334960938,794.1758422851562,794.1758422851562
1230,799.8168334960938,792.5640869140625,791.3552856445312,801.4285888671875
1231,794.1758422851562,788.5347900390625,789.3406372070312,793.7728881835938
1232,788.937744140625,799.010986328125,790.5494384765625,784.1025390625
1233,797.8021850585938,800.6226806640625,795.7875366210938,791.3552856445312
1234,799.8168334960938,796.1904907226562,791.3552856445312,793.3699340820312
1235,801.8314819335938,799.4139404296875,788.5347900390625,794.1758422851562
1236,803.8461303710938,803.8461303710938,794.981689453125,789.7435913085938
1237,803.040283203125,798.2051391601562,794.981689453125,784.908447265625
1238,801.4285888671875,794.5787353515625,791.7582397460938,794.1758422851562
1239,800.6226806640625,797.3992919921875,792.967041015625,796.996337890625
1240,795.7875366210938,799.8168334960938,795.3846435546875,794.1758422851562
1241,794.981689453125,800.2197875976562,794.1758422851562,798.2051391601562
1242,793.7728881835938,795.7875366210938,796.5933837890625,796.1904907226562
1243,784.908447265625,791.3552856445312,795.7875366210938,786.5201416015625
1244,786.5201416015625,793.3699340820312,793.3699340820312,784.908447265625
1245,786.1171875,798.2051391601562,789.7435913085938,787.3259887695312
1246,782.087890625,798.2051391601562,790.952392578125,791.7582397460938
1247,783.6996459960938,799.8168334960938,795.7875366210938,793.3699340820312
1248,790.1465454101562,797.3992919921875,794.981689453125,795.7875366210938
1249,791.3552856445312,788.937744140625,790.5494384765625,801.025634765625
1250,789.7435913085938,787.3259887695312,789.7435913085938,800.6226806640625
1251,790.952392578125,790.952392578125,790.5494384765625,797.3992919921875
1252,792.967041015625,796.1904907226562,797.3992919921875,799.4139404296875
1253,792.5640869140625,798.2051391601562,799.010986328125,799.8168334960938
1254,788.5347900390625,792.1611938476562,792.967041015625,793.3699340820312
1255,789.7435913085938,791.3552856445312,794.981689453125,784.5054931640625
1256,791.3552856445312,794.5787353515625,798.2051391601562,791.3552856445312
1257,790.5494384765625,798.6080322265625,793.7728881835938,794.5787353515625
1258,788.1318969726562,796.5933837890625,790.952392578125,790.1465454101562
1259,791.7582397460938,796.1904907226562,797.8021850585938,797.3992919921875
1260,792.967041015625,793.7728881835938,791.3552856445312,802.2344360351562
1261,791.7582397460938,791.3552856445312,787.7289428710938,800.6226806640625
1262,797.8021850585938,785.7142944335938,797.3992919921875,805.054931640625
1263,799.010986328125,786.5201416015625,798.2051391601562,807.4725341796875
1264,794.981689453125,794.5787353515625,793.7728881835938,799.4139404296875
1265,792.1611938476562,789.3406372070312,789.7435913085938,800.2197875976562
1266,790.5494384765625,786.923095703125,794.1758422851562,795.7875366210938
1267,796.1904907226562,788.5347900390625,793.7728881835938,791.3552856445312
1268,800.2197875976562,792.967041015625,790.1465454101562,798.2051391601562
1269,798.6080322265625,796.996337890625,796.5933837890625,800.2197875976562
1270,792.5640869140625,793.7728881835938,796.5933837890625,796.996337890625
1271,795.7875366210938,793.3699340820312,792.967041015625,794.981689453125
1272,797.3992919921875,796.5933837890625,796.1904907226562,795.7875366210938
1273,796.1904907226562,792.967041015625,799.8168334960938,790.1465454101562
1274,796.1904907226562,791.7582397460938,795.7875366210938,791.3552856445312
1275,788.1318969726562,790.1465454101562,788.1318969726562,787.3259887695312
1276,788.937744140625,788.1318969726562,781.2820434570312,789.7435913085938
1277,798.2051391601562,795.3846435546875,784.1025390625,798.6080322265625
1278,800.2197875976562,796.1904907226562,790.5494384765625,795.3846435546875
1279,799.010986328125,788.937744140625,789.7435913085938,788.937744140625
1280,799.010986328125,793.7728881835938,786.1171875,784.908447265625
1281,798.6080322265625,804.2490844726562,788.5347900390625,789.7435913085938
1282,796.996337890625,796.996337890625,786.5201416015625,787.7289428710938
1283,795.3846435546875,796.1904907226562,782.087890625,790.1465454101562
1284,801.4285888671875,801.4285888671875,788.1318969726562,793.3699340820312
1285,798.6080322265625,800.2197875976562,788.937744140625,795.7875366210938
1286,796.1904907226562,797.3992919921875,791.7582397460938,796.5933837890625
1287,798.2051391601562,796.5933837890625,795.7875366210938,798.2051391601562
1288,797.8021850585938,787.3259887695312,794.5787353515625,810.2930297851562
1289,797.3992919921875,786.5201416015625,792.1611938476562,807.069580078125
1290,797.8021850585938,796.996337890625,793.7728881835938,793.3699340820312
1291,798.6080322265625,792.967041015625,793.3699340820312,791.7582397460938
1292,796.1904907226562,793.3699340820312,793.7728881835938,794.981689453125
1293,791.7582397460938,794.1758422851562,797.8021850585938,790.952392578125
1294,788.5347900390625,790.952392578125,799.4139404296875,791.3552856445312
1295,787.3259887695312,788.5347900390625,799.4139404296875,793.3699340820312
1296,785.3113403320312,787.7289428710938,801.8314819335938,790.952392578125
1297,784.1025390625,788.5347900390625,798.2051391601562,785.7142944335938
1298,788.1318969726562,788.1318969726562,795.7875366210938,781.2820434570312
1299,791.7582397460938,790.5494384765625,794.981689453125,783.6996459960938
1300,786.923095703125,788.1318969726562,794.5787353515625,784.5054931640625
1301,783.6996459960938,786.1171875,798.2051391601562,786.1171875
1302,780.4761962890625,788.937744140625,794.1758422851562,782.893798828125
1303,782.087890625,785.3113403320312,791.7582397460938,783.2966918945312
1304,786.5201416015625,788.1318969726562,796.5933837890625,787.7289428710938
1305,781.6849975585938,792.967041015625,799.4139404296875,789.3406372070312
1306,781.6849975585938,790.1465454101562,800.6226806640625,791.7582397460938
1307,780.4761962890625,789.7435913085938,800.2197875976562,792.967041015625
1308,780.0732421875,786.5201416015625,799.8168334960938,790.952392578125
1309,785.3113403320312,786.1171875,798.2051391601562,784.1025390625
1310,783.2966918945312,792.1611938476562,796.1904907226562,786.1171875
1311,788.5347900390625,793.7728881835938,796.1904907226562,790.5494384765625
1312,795.3846435546875,793.3699340820312,794.981689453125,790.5494384765625
1313,792.1611938476562,795.3846435546875,790.5494384765625,790.952392578125
1314,794.5787353515625,797.8021850585938,793.3699340820312,787.3259887695312
1315,798.2051391601562,798.6080322265625,795.3846435546875,790.952392578125
1316,793.7728881835938,799.010986328125,793.3699340820312,795.7875366210938
1317,786.1171875,799.8168334960938,796.996337890625,794.1758422851562
1318,783.6996459960938,800.6226806640625,793.7728881835938,788.937744140625
1319,784.908447265625,796.996337890625,789.3406372070312,783.6996459960938
1320,786.5201416015625,796.1904907226562,796.1904907226562,782.087890625
1321,786.923095703125,792.1611938476562,799.8168334960938,784.5054931640625
1322,786.923095703125,788.5347900390625,795.3846435546875,789.3406372070312
1323,789.7435913085938,789.7435913085938,791.7582397460938,793.7728881835938
1324,788.1318969726562,790.1465454101562,793.7728881835938,794.5787353515625
1325,787.7289428710938,783.6996459960938,793.3699340820312,789.3406372070312
1326,784.908447265625,775.6410522460938,788.1318969726562,795.3846435546875
1327,782.893798828125,785.3113403320312,784.908447265625,803.4432373046875
1328,784.5054931640625,793.7728881835938,792.5640869140625,795.3846435546875
1329,784.5054931640625,794.981689453125,794.1758422851562,792.5640869140625
1330,787.3259887695312,794.1758422851562,788.5347900390625,788.937744140625
1331,789.3406372070312,790.1465454101562,786.1171875,784.1025390625
1332,794.981689453125,793.3699340820312,790.1465454101562,788.1318969726562
1333,793.7728881835938,792.967041015625,796.1904907226562,794.5787353515625
1334,791.3552856445312,781.2820434570312,792.1611938476562,796.996337890625
1335,790.5494384765625,784.908447265625,792.967041015625,792.5640869140625
1336,784.5054931640625,789.3406372070312,799.010986328125,790.5494384765625
1337,783.2966918945312,786.923095703125,797.3992919921875,791.3552856445312
1338,784.1025390625,794.5787353515625,795.7875366210938,799.010986328125
1339,784.908447265625,804.2490844726562,795.3846435546875,801.025634765625
1340,789.3406372070312,802.6373901367188,794.1758422851562,790.5494384765625
1341,790.5494384765625,792.967041015625,788.5347900390625,782.087890625
1342,789.7435913085938,791.7582397460938,789.3406372070312,789.7435913085938
1343,790.5494384765625,794.1758422851562,793.7728881835938,793.7728881835938
1344,796.1904907226562,799.8168334960938,792.1611938476562,792.5640869140625
1345,801.8314819335938,799.010986328125,797.3992919921875,800.6226806640625
1346,799.8168334960938,794.5787353515625,796.5933837890625,799.8168334960938
1347,793.3699340820312,790.5494384765625,786.1171875,794.981689453125
1348,790.1465454101562,789.3406372070312,788.5347900390625,799.4139404296875
1349,789.3406372070312,798.2051391601562,791.7582397460938,801.4285888671875
1350,790.952392578125,797.3992919921875,798.6080322265625,796.5933837890625
1351,788.1318969726562,796.1904907226562,800.6226806640625,790.1465454101562
1352,788.5347900390625,801.4285888671875,794.5787353515625,792.967041015625
1353,795.7875366210938,799.8168334960938,796.5933837890625,802.6373901367188
1354,796.5933837890625,796.1904907226562,799.010986328125,798.2051391601562
1355,789.3406372070312,797.3992919921875,796.996337890625,796.5933837890625
1356,792.967041015625,805.054931640625,797.8021850585938,801.025634765625
1357,798.2051391601562,802.2344360351562,797.3992919921875,803.8461303710938
1358,796.5933837890625,784.908447265625,795.7875366210938,801.025634765625
1359,796.1904907226562,792.967041015625,795.7875366210938,790.952392578125
1360,799.8168334960938,802.2344360351562,794.981689453125,789.7435913085938
1361,800.2197875976562,796.996337890625,796.996337890625,799.010986328125
1362,791.7582397460938,799.8168334960938,793.3699340820312,798.2051391601562
1363,786.923095703125,796.5933837890625,787.7289428710938,789.3406372070312
1364,794.1758422851562,796.996337890625,791.7582397460938,796.1904907226562
1365,794.981689453125,794.981689453125,797.8021850585938,793.7728881835938
1366,791.7582397460938,789.7435913085938,796.5933837890625,789.3406372070312
1367,789.7435913085938,790.1465454101562,793.3699340820312,794.981689453125
1368,791.3552856445312,789.7435913085938,792.5640869140625,801.8314819335938
1369,794.981689453125,784.1025390625,793.7728881835938,803.4432373046875
1370,795.7875366210938,780.879150390625,796.996337890625,798.2051391601562
1371,788.937744140625,791.7582397460938,794.5787353515625,786.923095703125
1372,789.7435913085938,797.8021850585938,790.952392578125,785.3113403320312
1373,792.1611938476562,792.5640869140625,793.3699340820312,791.3552856445312
1374,783.2966918945312,791.7582397460938,794.981689453125,787.3259887695312
1375,783.2966918945312,792.967041015625,793.3699340820312,788.5347900390625
1376,790.1465454101562,794.5787353515625,796.5933837890625,796.996337890625
1377,792.5640869140625,790.5494384765625,799.8168334960938,796.5933837890625
1378,787.7289428710938,782.893798828125,793.3699340820312,784.908447265625
1379,786.923095703125,786.5201416015625,789.3406372070312,782.087890625
1380,782.4908447265625,790.952392578125,789.3406372070312,780.4761962890625
1381,778.4615478515625,790.952392578125,792.1611938476562,781.6849975585938
1382,784.908447265625,791.3552856445312,794.5787353515625,785.3113403320312
1383,787.7289428710938,789.7435913085938,793.3699340820312,783.6996459960938
1384,786.1171875,790.1465454101562,792.1611938476562,792.967041015625
1385,788.5347900390625,788.1318969726562,795.3846435546875,794.1758422851562
1386,786.1171875,780.879150390625,796.996337890625,784.908447265625
1387,782.4908447265625,783.6996459960938,793.3699340820312,788.1318969726562
1388,782.087890625,784.5054931640625,793.7728881835938,787.7289428710938
1389,783.6996459960938,783.6996459960938,793.7728881835938,783.6996459960938
1390,784.5054931640625,786.1171875,796.5933837890625,787.7289428710938
1391,784.5054931640625,784.5054931640625,791.7582397460938,789.7435913085938
1392,787.7289428710938,782.893798828125,787.3259887695312,790.1465454101562
1393,790.5494384765625,788.937744140625,791.7582397460938,784.5054931640625
1394,783.6996459960938,784.1025390625,790.952392578125,783.6996459960938
1395,784.5054931640625,777.6557006835938,788.937744140625,790.1465454101562
1396,789.7435913085938,789.7435913085938,792.1611938476562,790.5494384765625
1397,786.1171875,794.981689453125,794.5787353515625,787.7289428710938
1398,788.5347900390625,795.7875366210938,796.996337890625,788.937744140625
1399,794.981689453125,788.5347900390625,798.2051391601562,791.7582397460938
1400,795.7875366210938,784.1025390625,791.7582397460938,794.5787353515625
1401,788.1318969726562,788.1318969726562,793.7728881835938,796.1904907226562
1402,790.952392578125,788.1318969726562,798.6080322265625,795.3846435546875
1403,801.8314819335938,791.3552856445312,796.996337890625,803.4432373046875
1404,807.87548828125,795.7875366210938,795.7875366210938,803.4432373046875
1405,803.040283203125,799.010986328125,792.5640869140625,787.7289428710938
1406,796.5933837890625,799.010986328125,788.937744140625,786.1171875
1407,792.1611938476562,798.2051391601562,786.923095703125,796.5933837890625
1408,787.3259887695312,794.5787353515625,791.3552856445312,795.3846435546875
1409,793.3699340820312,798.6080322265625,794.1758422851562,792.967041015625
1410,796.996337890625,805.4578857421875,793.3699340820312,796.996337890625
1411,797.3992919921875,805.8607788085938,790.1465454101562,804.6520385742188
1412,799.010986328125,799.010986328125,793.3699340820312,807.87548828125
1413,798.2051391601562,792.5640869140625,801.025634765625,797.8021850585938
1414,798.2051391601562,795.7875366210938,798.6080322265625,796.5933837890625
1415,803.040283203125,801.8314819335938,796.1904907226562,798.6080322265625
1416,805.8607788085938,797.8021850585938,796.1904907226562,794.5787353515625
1417,800.2197875976562,794.5787353515625,794.5787353515625,790.952392578125
1418,796.1904907226562,799.010986328125,795.3846435546875,797.8021850585938
1419,796.1904907226562,804.2490844726562,797.3992919921875,802.2344360351562
1420,793.3699340820312,803.4432373046875,799.8168334960938,806.2637329101562
1421,793.3699340820312,799.4139404296875,797.8021850585938,805.4578857421875
1422,798.6080322265625,801.8314819335938,792.1611938476562,799.8168334960938
1423,801.025634765625,803.8461303710938,795.7875366210938,804.6520385742188
1424,799.8168334960938,800.2197875976562,796.996337890625,797.8021850585938
1425,799.8168334960938,793.7728881835938,787.7289428710938,790.5494384765625
1426,807.069580078125,796.1904907226562,784.5054931640625,795.7875366210938
1427,804.2490844726562,800.6226806640625,787.3259887695312,795.7875366210938
1428,799.4139404296875,796.1904907226562,789.3406372070312,795.7875366210938
1429,796.996337890625,792.5640869140625,787.7289428710938,796.996337890625
1430,789.7435913085938,792.967041015625,786.5201416015625,791.3552856445312
1431,792.967041015625,793.3699340820312,791.3552856445312,795.7875366210938
1432,797.8021850585938,788.937744140625,795.3846435546875,805.054931640625
1433,796.5933837890625,782.087890625,794.1758422851562,802.6373901367188
1434,792.967041015625,785.7142944335938,797.3992919921875,806.2637329101562
1435,786.1171875,790.1465454101562,799.010986328125,805.054931640625
1436,792.1611938476562,788.5347900390625,799.8168334960938,798.6080322265625
1437,803.4432373046875,787.7289428710938,799.8168334960938,807.87548828125
1438,801.8314819335938,787.3259887695312,801.4285888671875,808.6813354492188
1439,803.040283203125,795.7875366210938,807.069580078125,803.8461303710938
1440,803.040283203125,797.3992919921875,807.87548828125,805.8607788085938
1441,796.996337890625,788.1318969726562,797.3992919921875,801.025634765625
1442,795.7875366210938,783.2966918945312,790.5494384765625,800.2197875976562
1443,798.2051391601562,783.6996459960938,799.8168334960938,805.054931640625
1444,793.3699340820312,787.3259887695312,801.025634765625,799.8168334960938
1445,792.967041015625,789.3406372070312,795.7875366210938,795.3846435546875
1446,803.8461303710938,794.981689453125,800.6226806640625,807.069580078125
1447,806.2637329101562,800.2197875976562,804.2490844726562,811.90478515625
1448,797.8021850585938,799.010986328125,799.010986328125,805.8607788085938
1449,794.5787353515625,795.3846435546875,792.5640869140625,806.6666870117188
1450,795.3846435546875,793.3699340820312,792.967041015625,805.4578857421875
1451,792.967041015625,795.3846435546875,794.5787353515625,799.010986328125
1452,796.5933837890625,794.5787353515625,794.5787353515625,798.2051391601562
1453,802.6373901367188,792.5640869140625,793.3699340820312,793.7728881835938
1454,805.054931640625,794.981689453125,794.1758422851562,796.996337890625
1455,799.8168334960938,792.5640869140625,794.5787353515625,796.1904907226562
1456,797.8021850585938,791.7582397460938,792.1611938476562,789.7435913085938
1457,802.6373901367188,790.5494384765625,794.5787353515625,799.4139404296875
1458,801.025634765625,789.7435913085938,791.7582397460938,799.8168334960938
1459,799.8168334960938,795.3846435546875,788.937744140625,790.952392578125
1460,804.6520385742188,796.996337890625,792.967041015625,794.5787353515625
1461,807.4725341796875,795.7875366210938,794.1758422851562,798.2051391601562
1462,801.4285888671875,796.5933837890625,791.3552856445312,797.8021850585938
1463,801.8314819335938,797.8021850585938,789.7435913085938,792.5640869140625
1464,806.6666870117188,802.2344360351562,784.908447265625,790.5494384765625
1465,807.4725341796875,809.084228515625,784.5054931640625,794.1758422851562
1466,805.8607788085938,807.87548828125,788.5347900390625,792.967041015625
1467,802.2344360351562,800.6226806640625,786.923095703125,794.5787353515625
1468,805.4578857421875,792.5640869140625,788.937744140625,802.2344360351562
1469,800.6226806640625,790.5494384765625,793.7728881835938,798.6080322265625
1470,790.5494384765625,798.2051391601562,793.3699340820312,790.5494384765625
1471,788.937744140625,801.025634765625,795.7875366210938,796.5933837890625
1472,791.7582397460938,797.8021850585938,800.2197875976562,799.010986328125
1473,789.7435913085938,790.952392578125,797.8021850585938,794.5787353515625
1474,783.6996459960938,792.1611938476562,794.5787353515625,792.1611938476562
1475,782.893798828125,796.5933837890625,799.4139404296875,789.7435913085938
1476,785.7142944335938,791.7582397460938,800.6226806640625,795.7875366210938
1477,783.6996459960938,787.3259887695312,799.8168334960938,797.3992919921875
1478,783.2966918945312,788.1318969726562,798.2051391601562,796.996337890625
1479,786.1171875,779.2673950195312,794.981689453125,794.1758422851562
1480,783.6996459960938,776.4468994140625,796.996337890625,791.7582397460938
1481,779.2673950195312,788.5347900390625,798.2051391601562,794.5787353515625
1482,786.1171875,791.7582397460938,799.8168334960938,795.3846435546875
1483,794.981689453125,784.1025390625,799.8168334960938,794.5787353515625
1484,791.3552856445312,786.1171875,798.2051391601562,790.952392578125
1485,789.7435913085938,792.1611938476562,799.4139404296875,794.5787353515625
1486,785.7142944335938,790.952392578125,792.967041015625,789.7435913085938
1487,787.3259887695312,791.3552856445312,790.1465454101562,787.3259887695312
1488,792.5640869140625,792.1611938476562,795.3846435546875,790.952392578125
1489,784.908447265625,791.7582397460938,796.5933837890625,789.7435913085938
1490,784.908447265625,791.7582397460938,795.7875366210938,789.7435913085938
1491,788.1318969726562,782.4908447265625,789.7435913085938,789.3406372070312
1492,788.1318969726562,783.2966918945312,788.5347900390625,786.923095703125
1493,792.5640869140625,799.4139404296875,793.3699340820312,781.6849975585938
1494,794.981689453125,801.025634765625,793.7728881835938,781.2820434570312
1495,790.5494384765625,797.8021850585938,789.7435913085938,778.4615478515625
1496,787.3259887695312,797.8021850585938,788.1318969726562,782.4908447265625
1497,790.1465454101562,797.8021850585938,786.923095703125,789.3406372070312
1498,787.7289428710938,797.8021850585938,786.5201416015625,788.5347900390625
1499,789.3406372070312,797.3992919921875,788.5347900390625,794.1758422851562
1500,789.7435913085938,795.7875366210938,789.7435913085938,796.5933837890625
1501,783.2966918945312,797.3992919921875,789.3406372070312,794.5787353515625
1502,796.996337890625,790.5494384765625,788.937744140625,802.6373901367188
1503,810.2930297851562,778.4615478515625,787.7289428710938,802.6373901367188
1504,801.8314819335938,794.981689453125,790.952392578125,787.3259887695312
1505,793.3699340820312,806.6666870117188,790.952392578125,780.4761962890625
1506,794.1758422851562,796.996337890625,784.5054931640625,777.2527465820312
1507,801.8314819335938,792.967041015625,785.3113403320312,789.7435913085938
1508,800.6226806640625,795.7875366210938,791.7582397460938,796.996337890625
1509,791.3552856445312,791.7582397460938,791.3552856445312,780.4761962890625
1510,793.7728881835938,788.937744140625,793.3699340820312,786.923095703125
1511,795.3846435546875,790.5494384765625,792.5640869140625,795.7875366210938
1512,794.1758422851562,792.1611938476562,798.2051391601562,794.5787353515625
1513,793.7728881835938,794.5787353515625,801.025634765625,796.5933837890625
1514,792.967041015625,790.952392578125,797.8021850585938,800.2197875976562
1515,797.8021850585938,784.908447265625,796.5933837890625,804.2490844726562
1516,799.010986328125,785.7142944335938,797.3992919921875,805.8607788085938
1517,794.5787353515625,784.908447265625,801.025634765625,804.2490844726562
1518,789.3406372070312,789.3406372070312,801.025634765625,807.4725341796875
1519,786.923095703125,797.3992919921875,794.1758422851562,815.5311279296875
1520,784.908447265625,792.1611938476562,796.1904907226562,811.5018310546875
1521,782.4908447265625,789.3406372070312,807.87548828125,807.069580078125
1522,788.937744140625,796.5933837890625,807.069580078125,809.084228515625
1523,794.981689453125,797.3992919921875,803.4432373046875,807.4725341796875
1524,792.1611938476562,791.7582397460938,803.4432373046875,801.025634765625
1525,792.5640869140625,787.3259887695312,800.6226806640625,802.2344360351562
1526,792.5640869140625,791.3552856445312,793.3699340820312,799.4139404296875
1527,795.7875366210938,795.3846435546875,790.952392578125,788.5347900390625
1528,801.8314819335938,796.5933837890625,792.967041015625,785.3113403320312
1529,797.3992919921875,799.4139404296875,791.3552856445312,782.4908447265625
1530,792.1611938476562,799.8168334960938,789.7435913085938,776.4468994140625
1531,798.6080322265625,796.1904907226562,792.1611938476562,778.4615478515625
1532,800.2197875976562,799.8168334960938,794.5787353515625,786.923095703125
1533,791.7582397460938,798.6080322265625,792.5640869140625,787.3259887695312
1534,794.1758422851562,788.1318969726562,788.937744140625,788.5347900390625
1535,794.1758422851562,786.5201416015625,790.952392578125,784.908447265625
1536,792.5640869140625,792.967041015625,792.967041015625,778.05859375
1537,790.1465454101562,787.3259887695312,788.937744140625,779.6703491210938
1538,792.967041015625,783.2966918945312,793.3699340820312,786.923095703125
1539,802.6373901367188,789.7435913085938,798.6080322265625,796.5933837890625
1540,794.981689453125,796.1904907226562,797.8021850585938,793.7728881835938
1541,787.7289428710938,794.981689453125,792.967041015625,796.5933837890625
1542,789.3406372070312,792.5640869140625,790.952392578125,803.4432373046875
1543,786.923095703125,792.967041015625,791.7582397460938,791.3552856445312
1544,789.3406372070312,789.3406372070312,789.7435913085938,792.5640869140625
1545,789.7435913085938,785.7142944335938,794.1758422851562,800.6226806640625
1546,790.5494384765625,789.3406372070312,800.6226806640625,803.4432373046875
1547,795.7875366210938,794.1758422851562,795.7875366210938,801.8314819335938
1548,796.1904907226562,792.1611938476562,792.5640869140625,799.4139404296875
1549,792.967041015625,797.8021850585938,791.3552856445312,798.6080322265625
1550,794.1758422851562,798.2051391601562,788.5347900390625,795.3846435546875
1551,794.1758422851562,790.952392578125,794.5787353515625,794.1758422851562
1552,797.3992919921875,792.967041015625,794.981689453125,791.3552856445312
1553,799.4139404296875,792.967041015625,789.3406372070312,799.8168334960938
1554,796.5933837890625,797.3992919921875,792.1611938476562,799.010986328125
1555,795.7875366210938,806.2637329101562,797.8021850585938,786.1171875
1556,793.7728881835938,801.8314819335938,792.5640869140625,785.7142944335938
1557,797.3992919921875,794.1758422851562,789.3406372070312,785.7142944335938
1558,795.3846435546875,795.7875366210938,792.5640869140625,780.879150390625
1559,790.5494384765625,801.025634765625,793.7728881835938,782.893798828125
1560,791.3552856445312,799.010986328125,790.952392578125,789.7435913085938
1561,791.7582397460938,797.3992919921875,797.8021850585938,791.7582397460938
1562,794.1758422851562,799.4139404296875,804.6520385742188,790.952392578125
1563,792.5640869140625,795.7875366210938,798.2051391601562,791.3552856445312
1564,790.5494384765625,785.7142944335938,790.952392578125,790.5494384765625
1565,788.1318969726562,784.5054931640625,795.3846435546875,791.3552856445312
1566,784.908447265625,794.1758422851562,801.8314819335938,785.7142944335938
1567,788.937744140625,795.7875366210938,792.967041015625,781.6849975585938
1568,790.952392578125,797.8021850585938,792.5640869140625,790.5494384765625
1569,786.1171875,795.3846435546875,797.3992919921875,795.7875366210938
1570,788.5347900390625,793.7728881835938,795.3846435546875,791.3552856445312
1571,791.7582397460938,791.7582397460938,796.5933837890625,786.923095703125
1572,793.3699340820312,790.5494384765625,794.5787353515625,791.7582397460938
1573,796.5933837890625,789.7435913085938,796.1904907226562,793.3699340820312
1574,795.7875366210938,787.7289428710938,802.6373901367188,796.996337890625
1575,794.1758422851562,794.5787353515625,794.1758422851562,802.6373901367188
1576,794.5787353515625,804.2490844726562,784.5054931640625,807.87548828125
1577,788.1318969726562,799.4139404296875,790.1465454101562,801.8314819335938
