timestamp,RAW_TP9,RAW_AF7,RAW_AF8,RAW_TP10
1,789.7435913085938,785.3113403320312,792.967041015625,795.3846435546875
2,787.3259887695312,780.0732421875,796.996337890625,796.5933837890625
3,789.7435913085938,779.6703491210938,797.8021850585938,794.1758422851562
4,790.952392578125,786.923095703125,801.025634765625,793.3699340820312
5,793.3699340820312,791.3552856445312,799.4139404296875,796.5933837890625
6,798.2051391601562,790.5494384765625,796.996337890625,794.981689453125
7,796.996337890625,788.937744140625,797.3992919921875,791.7582397460938
8,790.1465454101562,786.5201416015625,797.8021850585938,796.1904907226562
9,784.1025390625,787.7289428710938,800.2197875976562,798.6080322265625
10,781.2820434570312,792.967041015625,803.4432373046875,794.981689453125
11,783.6996459960938,794.5787353515625,804.2490844726562,796.996337890625
12,792.1611938476562,792.5640869140625,801.025634765625,795.3846435546875
13,794.1758422851562,793.7728881835938,800.2197875976562,790.1465454101562
14,786.5201416015625,792.1611938476562,799.8168334960938,787.7289428710938
15,783.2966918945312,789.7435913085938,799.010986328125,782.893798828125
16,782.087890625,789.3406372070312,796.5933837890625,779.2673950195312
17,783.2966918945312,789.7435913085938,792.967041015625,782.4908447265625
18,789.7435913085938,791.7582397460938,794.5787353515625,787.3259887695312
19,793.3699340820312,792.5640869140625,794.1758422851562,795.7875366210938
20,787.3259887695312,794.1758422851562,795.7875366210938,797.8021850585938
21,786.923095703125,796.1904907226562,799.8168334960938,784.1025390625
22,799.010986328125,799.4139404296875,796.1904907226562,777.6557006835938
23,795.7875366210938,800.6226806640625,796.1904907226562,782.4908447265625
24,789.7435913085938,798.2051391601562,799.010986328125,788.1318969726562
25,779.6703491210938,793.7728881835938,797.8021850585938,784.5054931640625
26,764.7619018554688,790.1465454101562,795.7875366210938,771.6116943359375
27,766.7765502929688,790.1465454101562,791.7582397460938,769.5970458984375
28,767.1795043945312,784.908447265625,794.5787353515625,769.5970458984375
29,768.3883056640625,785.7142944335938,798.2051391601562,772.8204956054688
30,775.2380981445312,792.1611938476562,796.5933837890625,780.0732421875
31,777.2527465820312,791.3552856445312,796.1904907226562,783.6996459960938
32,784.908447265625,789.7435913085938,797.3992919921875,793.3699340820312
33,797.8021850585938,794.5787353515625,797.8021850585938,789.3406372070312
34,801.4285888671875,794.5787353515625,794.981689453125,780.879150390625
35,801.025634765625,793.3699340820312,792.5640869140625,781.6849975585938
36,806.6666870117188,792.1611938476562,794.981689453125,789.3406372070312
37,802.2344360351562,791.7582397460938,799.010986328125,791.3552856445312
38,803.4432373046875,790.952392578125,799.4139404296875,792.1611938476562
39,795.7875366210938,787.7289428710938,801.4285888671875,797.8021850585938
40,780.4761962890625,787.3259887695312,799.010986328125,797.3992919921875
41,783.6996459960938,786.5201416015625,799.4139404296875,796.1904907226562
42,788.1318969726562,792.1611938476562,801.4285888671875,797.3992919921875
43,789.7435913085938,788.1318969726562,799.4139404296875,801.8314819335938
44,784.5054931640625,786.923095703125,797.3992919921875,796.996337890625
45,782.893798828125,793.3699340820312,799.010986328125,792.1611938476562
46,786.1171875,790.1465454101562,802.2344360351562,795.3846435546875
47,797.3992919921875,792.5640869140625,799.8168334960938,799.8168334960938
48,805.8607788085938,796.5933837890625,799.010986328125,805.4578857421875
49,800.2197875976562,796.1904907226562,801.025634765625,805.8607788085938
50,792.967041015625,795.7875366210938,803.040283203125,803.8461303710938
51,786.1171875,792.1611938476562,802.2344360351562,795.3846435546875
52,784.5054931640625,793.3699340820312,798.2051391601562,789.3406372070312
53,788.5347900390625,796.5933837890625,797.8021850585938,788.937744140625
54,788.5347900390625,792.5640869140625,799.4139404296875,792.5640869140625
55,780.0732421875,789.7435913085938,801.4285888671875,792.5640869140625
56,781.2820434570312,786.5201416015625,799.010986328125,788.1318969726562
57,784.1025390625,787.7289428710938,794.5787353515625,785.3113403320312
58,772.8204956054688,785.7142944335938,796.996337890625,788.937744140625
59,775.6410522460938,786.1171875,800.6226806640625,794.5787353515625
60,788.5347900390625,787.7289428710938,800.6226806640625,794.981689453125
61,793.7728881835938,785.3113403320312,799.010986328125,792.1611938476562
62,794.1758422851562,783.6996459960938,800.2197875976562,800.2197875976562
63,790.952392578125,785.7142944335938,800.2197875976562,804.6520385742188
64,784.908447265625,781.6849975585938,801.8314819335938,796.1904907226562
65,788.1318969726562,781.6849975585938,801.4285888671875,790.952392578125
66,786.5201416015625,784.5054931640625,799.4139404296875,795.3846435546875
67,789.7435913085938,787.7289428710938,804.2490844726562,797.3992919921875
68,795.3846435546875,790.952392578125,802.2344360351562,788.937744140625
69,792.1611938476562,788.937744140625,798.2051391601562,787.7289428710938
70,789.7435913085938,790.5494384765625,800.6226806640625,788.1318969726562
71,786.923095703125,790.5494384765625,799.010986328125,791.3552856445312
72,787.7289428710938,794.981689453125,798.2051391601562,796.5933837890625
73,792.1611938476562,795.3846435546875,799.010986328125,794.5787353515625
74,794.1758422851562,787.7289428710938,797.3992919921875,794.981689453125
75,792.5640869140625,790.952392578125,796.5933837890625,796.5933837890625
76,782.893798828125,791.3552856445312,795.3846435546875,790.5494384765625
77,776.4468994140625,789.7435913085938,795.7875366210938,787.7289428710938
78,780.879150390625,792.1611938476562,798.6080322265625,793.3699340820312
79,776.8497924804688,785.3113403320312,796.5933837890625,784.908447265625
80,775.2380981445312,780.879150390625,795.3846435546875,778.8644409179688
81,773.6264038085938,781.2820434570312,799.8168334960938,781.2820434570312
82,771.6116943359375,782.087890625,795.3846435546875,778.05859375
83,776.4468994140625,781.2820434570312,793.7728881835938,778.4615478515625
84,783.6996459960938,780.4761962890625,796.5933837890625,784.908447265625
85,785.3113403320312,782.087890625,796.1904907226562,781.6849975585938
86,790.5494384765625,787.7289428710938,796.996337890625,778.05859375
87,793.7728881835938,787.3259887695312,794.1758422851562,776.4468994140625
88,785.3113403320312,782.4908447265625,790.952392578125,776.4468994140625
89,782.4908447265625,782.893798828125,789.7435913085938,784.5054931640625
90,784.5054931640625,781.6849975585938,790.1465454101562,783.2966918945312
91,783.2966918945312,779.6703491210938,792.1611938476562,780.4761962890625
92,783.2966918945312,782.4908447265625,794.5787353515625,781.2820434570312
93,784.5054931640625,784.5054931640625,790.952392578125,778.8644409179688
94,785.7142944335938,789.7435913085938,790.1465454101562,780.4761962890625
95,782.4908447265625,789.3406372070312,793.7728881835938,775.2380981445312
96,777.2527465820312,782.893798828125,794.5787353515625,773.2234497070312
97,777.2527465820312,782.087890625,794.5787353515625,780.0732421875
98,776.8497924804688,785.3113403320312,795.3846435546875,784.908447265625
99,777.6557006835938,790.1465454101562,799.010986328125,793.7728881835938
100,778.05859375,791.3552856445312,802.6373901367188,798.2051391601562
101,781.2820434570312,790.5494384765625,801.8314819335938,794.1758422851562
102,790.952392578125,792.1611938476562,801.4285888671875,785.7142944335938
103,790.952392578125,793.3699340820312,802.6373901367188,786.5201416015625
104,793.3699340820312,791.3552856445312,803.4432373046875,792.5640869140625
105,793.7728881835938,787.3259887695312,801.4285888671875,792.967041015625
106,787.3259887695312,789.7435913085938,802.2344360351562,791.3552856445312
107,784.908447265625,791.3552856445312,803.4432373046875,790.952392578125
108,784.908447265625,793.7728881835938,799.4139404296875,794.1758422851562
109,782.4908447265625,793.3699340820312,799.8168334960938,796.5933837890625
110,775.2380981445312,786.923095703125,805.054931640625,789.3406372070312
111,776.4468994140625,785.3113403320312,807.4725341796875,784.908447265625
112,790.5494384765625,789.7435913085938,803.8461303710938,787.3259887695312
113,791.3552856445312,790.952392578125,804.6520385742188,790.5494384765625
114,796.5933837890625,794.981689453125,805.8607788085938,799.4139404296875
115,797.3992919921875,798.6080322265625,802.6373901367188,801.4285888671875
116,788.1318969726562,794.981689453125,803.4432373046875,794.5787353515625
117,793.3699340820312,794.981689453125,802.6373901367188,787.7289428710938
118,794.1758422851562,795.3846435546875,804.6520385742188,784.5054931640625
119,784.1025390625,788.937744140625,803.4432373046875,787.3259887695312
120,779.6703491210938,786.923095703125,800.2197875976562,788.1318969726562
121,776.4468994140625,786.923095703125,803.8461303710938,783.6996459960938
122,772.4176025390625,785.3113403320312,796.5933837890625,781.6849975585938
123,776.8497924804688,787.3259887695312,794.981689453125,786.5201416015625
124,786.923095703125,788.1318969726562,800.6226806640625,793.7728881835938
125,788.5347900390625,786.1171875,798.6080322265625,790.952392578125
126,787.3259887695312,788.5347900390625,797.3992919921875,781.2820434570312
127,785.3113403320312,790.952392578125,796.996337890625,781.2820434570312
128,774.8351440429688,790.1465454101562,792.967041015625,782.893798828125
129,779.6703491210938,792.967041015625,790.5494384765625,781.2820434570312
130,787.7289428710938,794.5787353515625,794.5787353515625,783.2966918945312
131,788.1318969726562,793.3699340820312,796.5933837890625,782.4908447265625
132,791.3552856445312,793.7728881835938,794.981689453125,779.2673950195312
133,803.040283203125,796.5933837890625,794.981689453125,780.4761962890625
134,805.8607788085938,795.7875366210938,794.5787353515625,783.2966918945312
135,798.2051391601562,796.5933837890625,790.952392578125,784.1025390625
136,782.893798828125,797.3992919921875,786.923095703125,787.3259887695312
137,779.6703491210938,794.981689453125,787.3259887695312,794.1758422851562
138,784.5054931640625,790.1465454101562,791.3552856445312,790.5494384765625
139,788.1318969726562,788.937744140625,788.937744140625,782.087890625
140,792.1611938476562,790.1465454101562,786.923095703125,780.879150390625
141,782.893798828125,789.3406372070312,790.952392578125,776.4468994140625
142,789.3406372070312,791.7582397460938,794.1758422851562,780.879150390625
143,798.2051391601562,790.1465454101562,798.2051391601562,788.937744140625
144,791.7582397460938,788.5347900390625,799.8168334960938,787.7289428710938
145,792.5640869140625,791.7582397460938,796.1904907226562,787.7289428710938
146,799.8168334960938,793.7728881835938,794.5787353515625,791.3552856445312
147,799.4139404296875,793.7728881835938,798.2051391601562,791.3552856445312
148,794.5787353515625,799.010986328125,801.8314819335938,792.5640869140625
149,791.7582397460938,801.025634765625,799.8168334960938,795.3846435546875
150,794.5787353515625,793.3699340820312,800.6226806640625,794.5787353515625
151,797.8021850585938,790.1465454101562,805.4578857421875,800.6226806640625
152,788.937744140625,790.952392578125,805.054931640625,788.5347900390625
153,784.1025390625,785.7142944335938,800.6226806640625,777.6557006835938
154,789.3406372070312,786.5201416015625,802.2344360351562,785.7142944335938
155,786.923095703125,788.5347900390625,803.040283203125,783.6996459960938
156,775.2380981445312,786.923095703125,805.054931640625,780.879150390625
157,776.4468994140625,783.2966918945312,804.6520385742188,782.087890625
158,778.8644409179688,779.6703491210938,801.8314819335938,783.2966918945312
159,780.879150390625,778.4615478515625,797.3992919921875,780.4761962890625
160,786.1171875,783.6996459960938,799.010986328125,787.7289428710938
161,787.3259887695312,786.923095703125,799.8168334960938,792.1611938476562
162,782.893798828125,786.5201416015625,797.8021850585938,793.7728881835938
163,778.4615478515625,790.1465454101562,801.8314819335938,797.3992919921875
164,778.8644409179688,794.5787353515625,799.010986328125,790.5494384765625
165,786.5201416015625,797.8021850585938,795.7875366210938,790.1465454101562
166,799.010986328125,797.3992919921875,794.5787353515625,791.3552856445312
167,793.3699340820312,796.996337890625,791.7582397460938,788.937744140625
168,782.893798828125,801.8314819335938,790.952392578125,790.952392578125
169,790.952392578125,802.2344360351562,790.952392578125,796.996337890625
170,799.8168334960938,797.8021850585938,789.7435913085938,790.952392578125
171,803.8461303710938,798.2051391601562,794.1758422851562,784.5054931640625
172,799.010986328125,799.8168334960938,799.010986328125,783.2966918945312
173,787.3259887695312,801.025634765625,795.3846435546875,782.087890625
174,785.7142944335938,797.8021850585938,794.981689453125,782.893798828125
175,788.937744140625,796.1904907226562,796.5933837890625,778.4615478515625
176,786.923095703125,794.5787353515625,793.7728881835938,777.6557006835938
177,778.8644409179688,790.1465454101562,788.1318969726562,778.4615478515625
178,772.4176025390625,790.5494384765625,790.1465454101562,780.879150390625
179,769.5970458984375,791.7582397460938,797.8021850585938,785.3113403320312
180,767.1795043945312,790.1465454101562,799.010986328125,788.1318969726562
181,774.4322509765625,790.5494384765625,798.2051391601562,791.3552856445312
182,787.3259887695312,793.3699340820312,800.2197875976562,790.5494384765625
183,795.7875366210938,796.5933837890625,803.040283203125,791.3552856445312
184,801.025634765625,798.6080322265625,807.87548828125,796.1904907226562
185,791.3552856445312,799.8168334960938,806.2637329101562,805.4578857421875
186,783.2966918945312,796.996337890625,805.4578857421875,806.6666870117188
187,788.5347900390625,796.1904907226562,805.4578857421875,796.5933837890625
188,789.7435913085938,799.8168334960938,804.6520385742188,793.3699340820312
189,790.5494384765625,800.6226806640625,805.4578857421875,792.5640869140625
190,793.3699340820312,798.2051391601562,805.054931640625,791.3552856445312
191,792.967041015625,796.5933837890625,799.8168334960938,789.3406372070312
192,794.981689453125,796.5933837890625,796.1904907226562,788.937744140625
193,792.5640869140625,797.3992919921875,796.996337890625,790.5494384765625
194,791.7582397460938,801.4285888671875,794.1758422851562,789.3406372070312
195,797.3992919921875,803.8461303710938,793.7728881835938,790.5494384765625
196,789.3406372070312,803.4432373046875,799.4139404296875,795.3846435546875
197,780.879150390625,803.040283203125,799.4139404296875,796.5933837890625
198,782.893798828125,802.6373901367188,798.6080322265625,790.1465454101562
199,788.1318969726562,802.6373901367188,800.6226806640625,786.5201416015625
200,794.1758422851562,803.4432373046875,802.2344360351562,792.967041015625
201,796.1904907226562,800.2197875976562,800.6226806640625,790.5494384765625
202,791.3552856445312,796.5933837890625,801.4285888671875,786.923095703125
203,790.1465454101562,798.6080322265625,801.8314819335938,791.7582397460938
204,781.6849975585938,802.2344360351562,797.8021850585938,784.5054931640625
205,780.4761962890625,803.040283203125,797.8021850585938,779.2673950195312
206,791.3552856445312,795.3846435546875,800.2197875976562,781.2820434570312
207,789.3406372070312,791.7582397460938,794.981689453125,776.0439453125
208,792.5640869140625,790.952392578125,787.7289428710938,776.8497924804688
209,794.981689453125,790.1465454101562,789.3406372070312,784.908447265625
210,791.3552856445312,791.7582397460938,795.7875366210938,786.1171875
211,803.8461303710938,792.1611938476562,795.3846435546875,788.1318969726562
212,805.054931640625,792.967041015625,796.1904907226562,791.3552856445312
213,796.996337890625,791.7582397460938,795.3846435546875,787.7289428710938
214,791.7582397460938,797.3992919921875,794.1758422851562,782.4908447265625
215,784.1025390625,798.2051391601562,797.3992919921875,785.3113403320312
216,784.908447265625,799.4139404296875,796.996337890625,792.967041015625
217,785.3113403320312,803.4432373046875,797.8021850585938,791.7582397460938
218,784.5054931640625,799.8168334960938,796.1904907226562,790.5494384765625
219,786.5201416015625,798.6080322265625,790.952392578125,794.981689453125
220,791.3552856445312,798.6080322265625,793.3699340820312,796.5933837890625
221,793.3699340820312,794.5787353515625,791.7582397460938,794.5787353515625
222,792.1611938476562,788.937744140625,784.1025390625,788.1318969726562
223,800.2197875976562,792.5640869140625,787.7289428710938,785.3113403320312
224,790.952392578125,796.996337890625,792.967041015625,796.996337890625
225,778.05859375,797.3992919921875,792.967041015625,792.1611938476562
226,780.879150390625,797.3992919921875,793.3699340820312,784.1025390625
227,787.3259887695312,791.7582397460938,790.1465454101562,784.1025390625
228,784.5054931640625,792.1611938476562,789.7435913085938,780.879150390625
229,779.6703491210938,792.5640869140625,788.937744140625,782.087890625
230,783.2966918945312,794.5787353515625,789.7435913085938,782.893798828125
231,788.1318969726562,798.2051391601562,796.1904907226562,781.2820434570312
232,792.1611938476562,797.3992919921875,794.1758422851562,784.908447265625
233,790.1465454101562,797.3992919921875,787.3259887695312,788.937744140625
234,787.3259887695312,793.3699340820312,786.923095703125,783.6996459960938
235,788.937744140625,788.5347900390625,785.7142944335938,787.7289428710938
236,791.3552856445312,792.1611938476562,786.1171875,795.3846435546875
237,795.3846435546875,796.5933837890625,790.1465454101562,794.981689453125
238,792.5640869140625,792.967041015625,792.967041015625,794.981689453125
239,779.6703491210938,790.1465454101562,794.981689453125,788.1318969726562
240,782.087890625,792.967041015625,796.5933837890625,787.7289428710938
241,786.1171875,793.3699340820312,799.010986328125,797.8021850585938
242,791.7582397460938,788.1318969726562,799.010986328125,807.87548828125
243,787.7289428710938,785.7142944335938,796.1904907226562,803.4432373046875
244,784.5054931640625,787.7289428710938,798.6080322265625,791.7582397460938
245,790.1465454101562,789.7435913085938,802.6373901367188,791.7582397460938
246,791.7582397460938,791.3552856445312,800.2197875976562,793.7728881835938
247,795.3846435546875,791.3552856445312,799.010986328125,797.8021850585938
248,792.967041015625,789.7435913085938,801.025634765625,792.967041015625
249,784.5054931640625,790.952392578125,802.6373901367188,791.7582397460938
250,778.4615478515625,786.1171875,796.5933837890625,792.967041015625
251,780.0732421875,788.937744140625,796.5933837890625,788.1318969726562
252,790.1465454101562,796.996337890625,802.2344360351562,789.3406372070312
253,791.7582397460938,796.1904907226562,799.010986328125,793.7728881835938
254,785.7142944335938,795.3846435546875,799.8168334960938,801.8314819335938
255,780.879150390625,790.952392578125,795.7875366210938,793.3699340820312
256,783.2966918945312,790.952392578125,789.7435913085938,786.923095703125
257,790.952392578125,795.3846435546875,792.5640869140625,796.1904907226562
258,790.952392578125,797.3992919921875,796.1904907226562,804.6520385742188
259,799.010986328125,801.4285888671875,797.8021850585938,803.8461303710938
260,793.7728881835938,801.8314819335938,799.010986328125,794.5787353515625
261,787.3259887695312,794.981689453125,798.2051391601562,790.5494384765625
262,795.7875366210938,790.952392578125,792.967041015625,790.952392578125
263,794.5787353515625,791.7582397460938,791.3552856445312,792.5640869140625
264,790.5494384765625,792.967041015625,793.3699340820312,789.7435913085938
265,786.923095703125,795.3846435546875,792.1611938476562,783.6996459960938
266,790.5494384765625,794.981689453125,791.7582397460938,790.5494384765625
267,789.7435913085938,794.981689453125,788.937744140625,794.5787353515625
268,789.3406372070312,798.6080322265625,790.5494384765625,787.3259887695312
269,794.981689453125,795.7875366210938,790.5494384765625,785.7142944335938
270,791.3552856445312,790.952392578125,791.3552856445312,790.5494384765625
271,785.7142944335938,795.7875366210938,793.3699340820312,788.937744140625
272,783.2966918945312,797.3992919921875,792.5640869140625,786.1171875
273,782.087890625,796.996337890625,797.3992919921875,794.981689453125
274,782.4908447265625,797.3992919921875,796.1904907226562,790.952392578125
275,782.087890625,793.7728881835938,794.981689453125,781.2820434570312
276,778.4615478515625,792.1611938476562,794.1758422851562,781.2820434570312
277,783.2966918945312,791.3552856445312,789.3406372070312,775.6410522460938
278,784.5054931640625,789.3406372070312,792.5640869140625,776.8497924804688
279,780.0732421875,793.7728881835938,792.5640869140625,789.3406372070312
280,789.7435913085938,799.4139404296875,791.7582397460938,787.3259887695312
281,796.1904907226562,799.010986328125,794.981689453125,789.7435913085938
282,789.3406372070312,796.5933837890625,800.2197875976562,797.8021850585938
283,775.6410522460938,797.3992919921875,799.8168334960938,780.0732421875
284,772.8204956054688,794.981689453125,796.5933837890625,780.0732421875
285,784.908447265625,794.981689453125,796.996337890625,792.967041015625
286,780.4761962890625,793.7728881835938,798.6080322265625,792.5640869140625
287,769.1941528320312,787.7289428710938,799.010986328125,788.937744140625
288,783.2966918945312,786.923095703125,796.1904907226562,785.7142944335938
289,802.2344360351562,789.3406372070312,794.1758422851562,790.5494384765625
290,799.4139404296875,793.3699340820312,797.8021850585938,793.7728881835938
291,796.5933837890625,795.3846435546875,799.010986328125,789.3406372070312
292,795.7875366210938,793.3699340820312,794.981689453125,789.3406372070312
293,795.7875366210938,793.7728881835938,794.5787353515625,793.7728881835938
294,790.1465454101562,793.3699340820312,793.7728881835938,790.952392578125
295,788.1318969726562,791.3552856445312,792.5640869140625,787.7289428710938
296,786.923095703125,791.3552856445312,794.1758422851562,788.5347900390625
297,784.1025390625,794.1758422851562,796.1904907226562,791.3552856445312
298,791.3552856445312,790.5494384765625,794.5787353515625,791.3552856445312
299,791.3552856445312,792.967041015625,795.7875366210938,798.6080322265625
300,789.3406372070312,790.952392578125,799.8168334960938,799.8168334960938
301,784.908447265625,782.893798828125,800.2197875976562,791.7582397460938
302,785.7142944335938,784.1025390625,802.2344360351562,791.7582397460938
303,783.6996459960938,783.6996459960938,799.8168334960938,792.967041015625
304,778.8644409179688,781.6849975585938,796.5933837890625,792.5640869140625
305,782.4908447265625,784.1025390625,794.5787353515625,788.5347900390625
306,786.923095703125,785.7142944335938,796.1904907226562,788.5347900390625
307,788.1318969726562,786.5201416015625,797.3992919921875,785.3113403320312
308,795.3846435546875,789.7435913085938,800.6226806640625,792.1611938476562
309,805.054931640625,792.1611938476562,799.4139404296875,803.040283203125
310,798.6080322265625,792.5640869140625,793.7728881835938,793.7728881835938
311,780.879150390625,794.5787353515625,795.3846435546875,788.5347900390625
312,776.4468994140625,797.8021850585938,800.2197875976562,793.3699340820312
313,785.7142944335938,797.3992919921875,799.4139404296875,797.3992919921875
314,786.5201416015625,793.7728881835938,796.1904907226562,794.5787353515625
315,791.7582397460938,790.1465454101562,795.3846435546875,789.3406372070312
316,792.1611938476562,787.3259887695312,794.1758422851562,788.1318969726562
317,784.5054931640625,784.908447265625,793.3699340820312,790.1465454101562
318,781.6849975585938,785.7142944335938,790.5494384765625,785.7142944335938
319,782.893798828125,786.1171875,786.1171875,780.879150390625
320,787.7289428710938,785.3113403320312,787.3259887695312,791.3552856445312
321,782.4908447265625,792.1611938476562,792.967041015625,794.1758422851562
322,777.2527465820312,793.3699340820312,793.7728881835938,784.1025390625
323,790.1465454101562,792.967041015625,795.7875366210938,785.7142944335938
324,792.967041015625,794.1758422851562,797.8021850585938,795.7875366210938
325,784.1025390625,791.7582397460938,795.3846435546875,793.3699340820312
326,786.923095703125,790.5494384765625,795.3846435546875,787.7289428710938
327,786.5201416015625,790.1465454101562,794.981689453125,786.5201416015625
328,780.4761962890625,792.1611938476562,794.1758422851562,787.3259887695312
329,783.2966918945312,792.967041015625,793.7728881835938,790.5494384765625
330,792.5640869140625,792.967041015625,795.7875366210938,794.1758422851562
331,788.5347900390625,792.967041015625,796.5933837890625,793.7728881835938
332,790.952392578125,792.5640869140625,799.010986328125,795.3846435546875
333,796.1904907226562,792.1611938476562,795.3846435546875,799.4139404296875
334,794.981689453125,794.1758422851562,793.3699340820312,793.7728881835938
335,784.908447265625,789.3406372070312,794.981689453125,787.7289428710938
336,783.6996459960938,788.1318969726562,791.3552856445312,787.7289428710938
337,782.893798828125,790.5494384765625,791.7582397460938,782.087890625
338,775.6410522460938,789.3406372070312,790.5494384765625,783.2966918945312
339,780.879150390625,789.3406372070312,790.952392578125,790.5494384765625
340,787.3259887695312,791.3552856445312,794.1758422851562,793.7728881835938
341,787.7289428710938,792.5640869140625,793.7728881835938,796.996337890625
342,783.6996459960938,790.1465454101562,796.1904907226562,801.4285888671875
343,780.879150390625,789.3406372070312,798.6080322265625,802.6373901367188
344,788.937744140625,790.5494384765625,796.996337890625,800.2197875976562
345,792.967041015625,790.1465454101562,796.5933837890625,797.3992919921875
346,786.1171875,790.5494384765625,794.1758422851562,790.5494384765625
347,782.893798828125,792.967041015625,793.3699340820312,788.5347900390625
348,785.3113403320312,792.967041015625,795.7875366210938,788.5347900390625
349,794.1758422851562,794.1758422851562,796.1904907226562,788.5347900390625
350,793.3699340820312,792.5640869140625,797.8021850585938,789.3406372070312
351,792.1611938476562,791.7582397460938,792.5640869140625,789.3406372070312
352,795.3846435546875,794.5787353515625,790.5494384765625,790.952392578125
353,792.967041015625,792.967041015625,794.1758422851562,784.1025390625
354,792.1611938476562,789.7435913085938,795.7875366210938,786.1171875
355,784.1025390625,788.5347900390625,796.1904907226562,786.5201416015625
356,782.4908447265625,788.937744140625,793.7728881835938,780.879150390625
357,781.6849975585938,787.3259887695312,790.1465454101562,789.7435913085938
358,778.8644409179688,787.7289428710938,790.5494384765625,789.3406372070312
359,788.937744140625,789.7435913085938,793.3699340820312,786.5201416015625
360,797.8021850585938,793.7728881835938,797.3992919921875,797.3992919921875
361,795.7875366210938,794.5787353515625,802.6373901367188,801.025634765625
362,796.5933837890625,796.1904907226562,806.2637329101562,795.7875366210938
363,794.5787353515625,801.8314819335938,801.4285888671875,794.1758422851562
364,786.5201416015625,799.8168334960938,799.010986328125,790.5494384765625
365,786.5201416015625,796.1904907226562,801.4285888671875,792.1611938476562
366,795.7875366210938,799.010986328125,801.8314819335938,799.8168334960938
367,795.7875366210938,800.2197875976562,799.4139404296875,804.2490844726562
368,788.5347900390625,798.6080322265625,796.5933837890625,802.2344360351562
369,793.7728881835938,801.025634765625,795.7875366210938,793.7728881835938
370,794.981689453125,801.025634765625,794.981689453125,780.0732421875
371,796.996337890625,799.010986328125,800.6226806640625,779.2673950195312
372,793.3699340820312,795.7875366210938,796.996337890625,778.4615478515625
373,789.7435913085938,803.040283203125,794.1758422851562,785.3113403320312
374,790.952392578125,807.069580078125,799.4139404296875,795.3846435546875
375,789.7435913085938,793.7728881835938,793.7728881835938,781.2820434570312
376,783.6996459960938,793.7728881835938,790.5494384765625,770.0
377,779.2673950195312,803.040283203125,796.1904907226562,782.4908447265625
378,781.2820434570312,809.084228515625,800.2197875976562,791.7582397460938
379,765.1648559570312,809.084228515625,790.5494384765625,770.8058471679688
380,756.7033081054688,807.87548828125,782.4908447265625,749.8534545898438
381,757.5091552734375,824.3956298828125,789.3406372070312,746.6300659179688
382,747.8388061523438,837.2893676757812,788.1318969726562,740.1831665039062
383,738.1685180664062,845.3479614257812,792.967041015625,726.886474609375
384,719.6337280273438,851.7948608398438,788.937744140625,710.3662719726562
385,707.5457763671875,853.003662109375,783.2966918945312,705.93408203125
386,696.2637329101562,859.8534545898438,782.087890625,697.4725341796875
387,684.1758422851562,862.2710571289062,780.0732421875,671.6849975585938
388,687.3992919921875,867.5091552734375,790.1465454101562,667.2527465820312
389,676.923095703125,872.7472534179688,790.5494384765625,672.893798828125
390,678.937744140625,869.5238037109375,782.893798828125,671.2820434570312
391,685.7875366210938,869.5238037109375,782.893798828125,666.8497924804688
392,670.4761962890625,865.4945068359375,784.908447265625,665.2380981445312
393,664.4322509765625,863.076904296875,787.7289428710938,670.0732421875
394,673.6996459960938,864.6886596679688,793.7728881835938,675.3113403320312
395,698.2783813476562,867.5091552734375,794.981689453125,689.8168334960938
396,716.00732421875,865.8974609375,788.1318969726562,700.2930297851562
397,709.96337890625,859.8534545898438,782.893798828125,695.8607788085938
398,716.00732421875,852.1978149414062,786.5201416015625,703.91943359375
399,723.2600708007812,846.959716796875,788.1318969726562,718.8278198242188
400,724.06591796875,839.7069702148438,789.7435913085938,728.4981689453125
401,732.930419921875,835.2747192382812,795.3846435546875,743.003662109375
402,744.2124633789062,834.06591796875,794.5787353515625,754.6886596679688
403,749.047607421875,822.7838745117188,790.1465454101562,755.091552734375
404,751.4652099609375,813.113525390625,792.5640869140625,768.3883056640625
405,767.1795043945312,809.084228515625,792.1611938476562,784.5054931640625
406,778.05859375,804.2490844726562,794.981689453125,788.937744140625
407,780.0732421875,799.010986328125,800.2197875976562,796.1904907226562
408,786.1171875,796.1904907226562,795.7875366210938,805.054931640625
409,791.3552856445312,794.5787353515625,794.5787353515625,809.084228515625
410,803.040283203125,790.1465454101562,794.5787353515625,806.6666870117188
411,796.996337890625,783.6996459960938,792.967041015625,809.4871826171875
412,784.1025390625,776.8497924804688,793.3699340820312,809.084228515625
413,792.5640869140625,776.8497924804688,792.967041015625,813.113525390625
414,791.7582397460938,777.6557006835938,790.952392578125,817.5457763671875
415,794.1758422851562,772.4176025390625,784.908447265625,819.96337890625
416,809.4871826171875,774.029296875,785.3113403320312,824.7985229492188
417,818.3516235351562,780.879150390625,791.3552856445312,823.99267578125
418,814.7252807617188,776.4468994140625,784.5054931640625,820.7692260742188
419,813.91943359375,769.5970458984375,786.1171875,825.6043701171875
420,823.1868286132812,770.8058471679688,788.1318969726562,832.4542236328125
421,823.1868286132812,769.1941528320312,786.5201416015625,829.2307739257812
422,821.5750732421875,768.3883056640625,791.3552856445312,825.6043701171875
423,826.00732421875,769.1941528320312,792.967041015625,828.4249267578125
424,823.5897216796875,770.4029541015625,795.7875366210938,836.886474609375
425,830.03662109375,773.2234497070312,797.3992919921875,836.886474609375
426,841.3186645507812,774.029296875,799.010986328125,826.00732421875
427,846.1538696289062,776.0439453125,800.2197875976562,830.03662109375
428,840.10986328125,776.8497924804688,798.6080322265625,831.2454223632812
429,832.4542236328125,774.8351440429688,794.1758422851562,819.1575317382812
430,833.2600708007812,775.2380981445312,791.3552856445312,821.5750732421875
431,827.6190185546875,774.029296875,796.5933837890625,832.8571166992188
432,834.06591796875,776.0439453125,805.4578857421875,837.2893676757812
433,830.03662109375,775.2380981445312,804.6520385742188,830.8424682617188
434,812.3076782226562,768.3883056640625,801.4285888671875,827.6190185546875
435,810.2930297851562,768.7911987304688,798.2051391601562,828.8278198242188
436,818.3516235351562,771.6116943359375,796.996337890625,821.5750732421875
437,821.97802734375,774.029296875,800.6226806640625,820.7692260742188
438,819.5604248046875,776.0439453125,801.4285888671875,821.1721801757812
439,808.6813354492188,775.2380981445312,800.2197875976562,816.3369750976562
440,797.3992919921875,773.6264038085938,803.040283203125,817.1428833007812
441,796.1904907226562,774.8351440429688,807.87548828125,820.3662719726562
442,799.010986328125,774.8351440429688,808.6813354492188,816.3369750976562
443,807.4725341796875,774.8351440429688,805.4578857421875,819.96337890625
444,807.4725341796875,776.0439453125,803.040283203125,816.7399291992188
445,805.054931640625,771.6116943359375,799.8168334960938,805.4578857421875
446,812.3076782226562,768.7911987304688,798.2051391601562,807.069580078125
447,817.94873046875,772.4176025390625,799.4139404296875,814.3223266601562
448,817.5457763671875,777.6557006835938,804.2490844726562,818.3516235351562
449,812.3076782226562,780.0732421875,804.2490844726562,812.7106323242188
450,815.93408203125,779.2673950195312,797.3992919921875,810.6959838867188
451,825.6043701171875,783.6996459960938,800.2197875976562,814.3223266601562
452,826.4102783203125,785.7142944335938,803.8461303710938,813.113525390625
453,818.7545776367188,782.087890625,796.5933837890625,813.91943359375
454,811.098876953125,785.7142944335938,793.3699340820312,811.098876953125
455,804.2490844726562,786.923095703125,795.7875366210938,803.4432373046875
456,799.4139404296875,784.5054931640625,796.5933837890625,802.6373901367188
457,805.054931640625,782.893798828125,798.2051391601562,805.054931640625
458,815.1282348632812,782.4908447265625,799.4139404296875,805.054931640625
459,804.6520385742188,784.1025390625,799.010986328125,798.6080322265625
460,789.3406372070312,783.6996459960938,792.967041015625,790.5494384765625
461,786.923095703125,780.879150390625,792.967041015625,793.7728881835938
462,788.1318969726562,780.0732421875,801.025634765625,803.040283203125
463,792.5640869140625,782.893798828125,805.4578857421875,803.8461303710938
464,783.6996459960938,782.087890625,805.8607788085938,799.010986328125
465,780.0732421875,779.6703491210938,802.2344360351562,799.4139404296875
466,790.5494384765625,778.8644409179688,799.4139404296875,804.2490844726562
467,798.6080322265625,776.8497924804688,799.8168334960938,805.8607788085938
468,797.3992919921875,778.05859375,797.3992919921875,803.040283203125
469,797.3992919921875,778.4615478515625,795.3846435546875,800.2197875976562
470,802.2344360351562,776.8497924804688,793.7728881835938,796.1904907226562
471,800.2197875976562,782.087890625,797.8021850585938,798.2051391601562
472,806.6666870117188,786.5201416015625,799.010986328125,803.8461303710938
473,814.3223266601562,785.3113403320312,795.3846435546875,806.2637329101562
474,811.5018310546875,788.1318969726562,795.7875366210938,808.2783813476562
475,811.5018310546875,794.1758422851562,795.7875366210938,803.4432373046875
476,814.3223266601562,792.5640869140625,795.3846435546875,799.8168334960938
477,815.93408203125,789.3406372070312,793.3699340820312,806.2637329101562
478,809.084228515625,789.3406372070312,796.1904907226562,804.2490844726562
479,802.6373901367188,794.1758422851562,796.996337890625,801.8314819335938
480,799.8168334960938,794.5787353515625,794.5787353515625,798.6080322265625
481,803.8461303710938,793.3699340820312,796.5933837890625,794.5787353515625
482,807.069580078125,795.3846435546875,799.4139404296875,798.2051391601562
483,801.4285888671875,794.981689453125,793.3699340820312,794.5787353515625
484,798.6080322265625,794.5787353515625,788.937744140625,786.1171875
485,799.8168334960938,792.1611938476562,792.967041015625,788.5347900390625
486,796.996337890625,790.952392578125,791.3552856445312,790.952392578125
487,786.1171875,789.3406372070312,788.1318969726562,789.3406372070312
488,777.2527465820312,786.5201416015625,788.1318969726562,793.7728881835938
489,777.2527465820312,789.3406372070312,788.5347900390625,795.7875366210938
490,775.6410522460938,791.3552856445312,790.5494384765625,787.3259887695312
491,777.2527465820312,790.5494384765625,791.3552856445312,783.6996459960938
492,786.5201416015625,793.3699340820312,790.952392578125,793.3699340820312
493,797.3992919921875,794.5787353515625,792.5640869140625,800.6226806640625
494,802.2344360351562,794.981689453125,791.3552856445312,797.3992919921875
495,805.4578857421875,790.5494384765625,788.937744140625,797.3992919921875
496,805.4578857421875,786.5201416015625,789.7435913085938,797.8021850585938
497,806.6666870117188,790.952392578125,790.952392578125,797.8021850585938
498,807.069580078125,791.3552856445312,792.1611938476562,800.2197875976562
499,805.4578857421875,792.1611938476562,790.1465454101562,795.7875366210938
500,810.6959838867188,787.7289428710938,792.1611938476562,803.8461303710938
501,800.6226806640625,787.3259887695312,793.7728881835938,804.6520385742188
502,796.1904907226562,791.7582397460938,796.5933837890625,794.981689453125
503,811.098876953125,790.952392578125,800.6226806640625,802.6373901367188
504,812.7106323242188,790.5494384765625,797.8021850585938,801.8314819335938
505,795.3846435546875,787.3259887695312,794.1758422851562,796.996337890625
506,782.087890625,783.6996459960938,792.1611938476562,794.5787353515625
507,781.2820434570312,782.893798828125,792.5640869140625,793.3699340820312
508,779.2673950195312,782.087890625,792.967041015625,797.8021850585938
509,774.4322509765625,784.908447265625,796.996337890625,796.5933837890625
510,776.0439453125,784.908447265625,799.010986328125,792.1611938476562
511,788.1318969726562,786.1171875,796.1904907226562,794.1758422851562
512,778.4615478515625,783.2966918945312,789.3406372070312,792.5640869140625
513,762.3442993164062,777.6557006835938,790.1465454101562,784.908447265625
514,769.5970458984375,777.6557006835938,790.5494384765625,789.3406372070312
515,774.4322509765625,775.6410522460938,788.5347900390625,791.3552856445312
516,773.6264038085938,778.05859375,789.3406372070312,792.967041015625
517,776.8497924804688,782.893798828125,790.1465454101562,794.981689453125
518,774.4322509765625,782.087890625,791.3552856445312,793.7728881835938
519,776.8497924804688,782.893798828125,792.1611938476562,800.6226806640625
520,792.1611938476562,786.1171875,797.3992919921875,797.3992919921875
521,797.8021850585938,785.7142944335938,796.1904907226562,788.5347900390625
522,791.7582397460938,788.5347900390625,791.7582397460938,793.7728881835938
523,791.3552856445312,790.952392578125,793.7728881835938,800.2197875976562
524,796.1904907226562,789.7435913085938,792.1611938476562,799.010986328125
525,805.8607788085938,791.7582397460938,792.5640869140625,792.5640869140625
526,810.2930297851562,793.3699340820312,792.1611938476562,788.937744140625
527,816.7399291992188,797.3992919921875,795.7875366210938,797.3992919921875
528,815.5311279296875,793.3699340820312,800.2197875976562,799.4139404296875
529,813.5164794921875,794.1758422851562,796.996337890625,790.952392578125
530,808.2783813476562,797.3992919921875,795.7875366210938,793.3699340820312
531,797.8021850585938,795.3846435546875,795.7875366210938,796.5933837890625
532,796.1904907226562,791.3552856445312,796.5933837890625,792.1611938476562
533,791.3552856445312,789.3406372070312,793.3699340820312,788.1318969726562
534,785.3113403320312,790.5494384765625,792.5640869140625,789.7435913085938
535,781.6849975585938,787.7289428710938,795.3846435546875,790.1465454101562
536,784.908447265625,787.3259887695312,790.952392578125,784.5054931640625
537,784.908447265625,789.7435913085938,788.5347900390625,782.4908447265625
538,778.8644409179688,790.1465454101562,790.1465454101562,789.7435913085938
539,783.2966918945312,790.952392578125,791.3552856445312,797.3992919921875
540,788.1318969726562,795.7875366210938,793.7728881835938,800.6226806640625
541,789.7435913085938,796.1904907226562,791.3552856445312,793.7728881835938
542,794.5787353515625,790.1465454101562,793.3699340820312,794.981689453125
543,796.1904907226562,786.923095703125,794.5787353515625,798.6080322265625
544,801.4285888671875,787.3259887695312,792.1611938476562,792.967041015625
545,802.2344360351562,790.952392578125,794.1758422851562,792.5640869140625
546,794.981689453125,794.981689453125,795.3846435546875,801.4285888671875
547,791.3552856445312,798.2051391601562,799.010986328125,802.2344360351562
548,800.6226806640625,801.025634765625,800.2197875976562,793.7728881835938
549,806.2637329101562,801.4285888671875,792.1611938476562,792.5640869140625
550,790.5494384765625,798.6080322265625,783.6996459960938,788.1318969726562
551,790.5494384765625,799.4139404296875,786.1171875,791.3552856445312
552,797.3992919921875,798.2051391601562,790.1465454101562,791.7582397460938
553,789.7435913085938,788.5347900390625,789.7435913085938,781.2820434570312
554,788.1318969726562,785.3113403320312,789.7435913085938,782.4908447265625
555,784.1025390625,786.1171875,786.5201416015625,785.3113403320312
556,780.879150390625,785.7142944335938,784.5054931640625,780.0732421875
557,787.7289428710938,783.2966918945312,788.937744140625,775.6410522460938
558,780.879150390625,781.2820434570312,794.1758422851562,781.6849975585938
559,782.4908447265625,783.6996459960938,795.7875366210938,786.1171875
560,797.3992919921875,786.5201416015625,796.996337890625,787.7289428710938
561,784.908447265625,786.1171875,794.1758422851562,782.893798828125
562,767.9853515625,782.893798828125,792.1611938476562,782.087890625
563,776.4468994140625,786.1171875,790.1465454101562,783.2966918945312
564,788.1318969726562,788.1318969726562,790.5494384765625,783.2966918945312
565,786.923095703125,791.3552856445312,794.1758422851562,792.5640869140625
566,787.3259887695312,795.7875366210938,794.5787353515625,794.1758422851562
567,791.7582397460938,795.7875366210938,792.5640869140625,786.1171875
568,791.3552856445312,791.7582397460938,788.5347900390625,784.5054931640625
569,798.2051391601562,786.923095703125,789.3406372070312,793.3699340820312
570,802.2344360351562,786.5201416015625,788.937744140625,792.1611938476562
571,800.6226806640625,788.937744140625,788.937744140625,780.4761962890625
572,796.996337890625,792.5640869140625,788.1318969726562,782.4908447265625
573,795.3846435546875,794.1758422851562,789.7435913085938,786.1171875
574,799.8168334960938,788.937744140625,794.5787353515625,785.3113403320312
575,808.2783813476562,788.1318969726562,790.952392578125,786.5201416015625
576,812.7106323242188,790.952392578125,787.7289428710938,790.5494384765625
577,806.2637329101562,787.7289428710938,787.7289428710938,792.1611938476562
578,803.040283203125,785.7142944335938,791.7582397460938,792.1611938476562
579,803.4432373046875,787.7289428710938,792.967041015625,790.5494384765625
580,805.4578857421875,788.1318969726562,795.3846435546875,793.3699340820312
581,804.6520385742188,788.1318969726562,795.3846435546875,798.2051391601562
582,790.5494384765625,788.937744140625,797.8021850585938,796.5933837890625
583,777.2527465820312,784.5054931640625,802.2344360351562,794.981689453125
584,782.893798828125,783.2966918945312,796.1904907226562,792.1611938476562
585,788.937744140625,788.937744140625,799.4139404296875,796.996337890625
586,790.952392578125,788.937744140625,806.6666870117188,797.8021850585938
587,794.1758422851562,790.5494384765625,803.8461303710938,794.1758422851562
588,785.3113403320312,790.1465454101562,798.2051391601562,792.5640869140625
589,780.0732421875,787.7289428710938,799.8168334960938,792.967041015625
590,789.3406372070312,784.908447265625,804.2490844726562,798.6080322265625
591,795.3846435546875,786.923095703125,803.8461303710938,801.8314819335938
592,790.1465454101562,787.7289428710938,799.4139404296875,801.8314819335938
593,788.937744140625,785.7142944335938,795.7875366210938,802.2344360351562
594,791.3552856445312,789.3406372070312,792.5640869140625,790.952392578125
595,789.3406372070312,785.7142944335938,789.3406372070312,790.952392578125
596,788.5347900390625,784.908447265625,792.5640869140625,797.3992919921875
597,791.3552856445312,790.5494384765625,796.1904907226562,794.981689453125
598,781.2820434570312,786.923095703125,788.1318969726562,789.7435913085938
599,779.2673950195312,785.7142944335938,786.1171875,786.5201416015625
600,784.908447265625,789.3406372070312,788.1318969726562,782.4908447265625
601,788.1318969726562,787.7289428710938,791.7582397460938,787.7289428710938
602,786.5201416015625,785.3113403320312,791.3552856445312,785.7142944335938
603,773.6264038085938,784.5054931640625,792.5640869140625,778.05859375
604,775.2380981445312,785.3113403320312,798.6080322265625,785.7142944335938
605,782.4908447265625,783.2966918945312,795.3846435546875,784.1025390625
606,786.5201416015625,782.893798828125,796.5933837890625,782.4908447265625
607,793.3699340820312,788.937744140625,803.8461303710938,789.3406372070312
608,789.3406372070312,787.7289428710938,801.025634765625,790.5494384765625
609,773.6264038085938,787.7289428710938,796.5933837890625,780.0732421875
610,779.6703491210938,787.7289428710938,797.8021850585938,780.4761962890625
611,793.3699340820312,787.3259887695312,801.025634765625,784.5054931640625
612,795.3846435546875,788.937744140625,799.4139404296875,787.3259887695312
613,791.3552856445312,786.923095703125,795.3846435546875,788.5347900390625
614,785.7142944335938,785.7142944335938,793.3699340820312,786.1171875
615,785.3113403320312,788.5347900390625,792.5640869140625,784.908447265625
616,788.1318969726562,789.3406372070312,793.7728881835938,787.3259887695312
617,792.967041015625,790.1465454101562,800.2197875976562,790.1465454101562
618,799.8168334960938,790.952392578125,800.2197875976562,790.5494384765625
619,796.996337890625,786.923095703125,796.5933837890625,792.5640869140625
620,778.4615478515625,780.4761962890625,796.996337890625,791.7582397460938
621,778.4615478515625,782.087890625,799.4139404296875,784.908447265625
622,781.2820434570312,788.5347900390625,796.996337890625,783.2966918945312
623,776.0439453125,786.5201416015625,796.996337890625,784.5054931640625
624,781.6849975585938,788.5347900390625,801.8314819335938,783.2966918945312
625,786.923095703125,792.5640869140625,800.6226806640625,784.1025390625
626,789.3406372070312,789.7435913085938,796.996337890625,783.6996459960938
627,788.937744140625,788.937744140625,792.967041015625,778.8644409179688
628,777.6557006835938,790.1465454101562,791.3552856445312,784.5054931640625
629,774.029296875,790.5494384765625,792.1611938476562,785.3113403320312
630,783.6996459960938,787.3259887695312,795.7875366210938,784.1025390625
631,791.7582397460938,787.7289428710938,798.2051391601562,792.967041015625
632,787.3259887695312,793.3699340820312,800.6226806640625,790.5494384765625
633,787.3259887695312,797.8021850585938,801.4285888671875,790.952392578125
634,793.3699340820312,795.3846435546875,800.2197875976562,799.4139404296875
635,792.967041015625,794.981689453125,800.2197875976562,797.3992919921875
636,798.2051391601562,800.2197875976562,800.6226806640625,790.1465454101562
637,800.6226806640625,796.996337890625,797.8021850585938,789.3406372070312
638,792.1611938476562,794.1758422851562,794.981689453125,789.3406372070312
639,790.1465454101562,798.2051391601562,793.3699340820312,786.923095703125
640,790.1465454101562,798.2051391601562,792.5640869140625,784.5054931640625
641,786.923095703125,794.5787353515625,793.7728881835938,785.7142944335938
642,792.1611938476562,795.7875366210938,793.3699340820312,795.7875366210938
643,799.8168334960938,796.996337890625,794.981689453125,801.025634765625
644,794.1758422851562,795.7875366210938,797.3992919921875,790.1465454101562
645,798.2051391601562,791.7582397460938,799.4139404296875,782.4908447265625
646,791.7582397460938,788.1318969726562,796.996337890625,782.087890625
647,773.6264038085938,792.1611938476562,795.7875366210938,788.5347900390625
648,774.029296875,792.5640869140625,796.5933837890625,786.923095703125
649,785.3113403320312,792.967041015625,794.5787353515625,780.0732421875
650,793.7728881835938,795.7875366210938,799.010986328125,789.3406372070312
651,784.1025390625,792.5640869140625,797.8021850585938,790.952392578125
652,785.7142944335938,789.7435913085938,799.010986328125,782.893798828125
653,783.2966918945312,791.3552856445312,805.054931640625,784.1025390625
654,773.2234497070312,790.952392578125,804.2490844726562,793.7728881835938
655,775.2380981445312,792.1611938476562,801.8314819335938,795.3846435546875
656,783.2966918945312,790.5494384765625,794.1758422851562,792.1611938476562
657,793.7728881835938,789.7435913085938,790.1465454101562,796.5933837890625
658,797.3992919921875,791.7582397460938,792.967041015625,799.010986328125
659,794.1758422851562,785.3113403320312,793.7728881835938,788.937744140625
660,790.1465454101562,786.923095703125,794.5787353515625,785.3113403320312
661,786.923095703125,792.1611938476562,797.3992919921875,795.3846435546875
662,798.6080322265625,790.5494384765625,800.6226806640625,801.8314819335938
663,817.1428833007812,792.967041015625,797.8021850585938,805.8607788085938
664,807.069580078125,790.952392578125,793.3699340820312,801.8314819335938
665,782.893798828125,786.5201416015625,794.5787353515625,800.6226806640625
666,780.0732421875,788.5347900390625,799.010986328125,799.8168334960938
667,786.923095703125,790.5494384765625,801.8314819335938,792.1611938476562
668,786.1171875,793.3699340820312,801.8314819335938,794.5787353515625
669,782.893798828125,793.3699340820312,801.8314819335938,792.967041015625
670,784.1025390625,789.7435913085938,800.6226806640625,785.7142944335938
671,785.3113403320312,792.967041015625,802.2344360351562,786.1171875
672,797.8021850585938,796.5933837890625,803.8461303710938,796.996337890625
673,807.4725341796875,796.5933837890625,802.2344360351562,800.2197875976562
674,798.2051391601562,799.010986328125,804.6520385742188,797.8021850585938
675,783.6996459960938,797.3992919921875,802.6373901367188,794.5787353515625
676,783.2966918945312,791.3552856445312,798.2051391601562,795.7875366210938
677,790.952392578125,794.1758422851562,797.3992919921875,803.8461303710938
678,791.7582397460938,798.2051391601562,796.5933837890625,797.3992919921875
679,797.3992919921875,798.2051391601562,797.8021850585938,791.7582397460938
680,792.967041015625,795.7875366210938,798.6080322265625,793.7728881835938
681,785.7142944335938,792.967041015625,799.010986328125,790.952392578125
682,801.4285888671875,797.3992919921875,801.8314819335938,792.5640869140625
683,790.952392578125,798.6080322265625,799.4139404296875,791.3552856445312
684,774.029296875,793.3699340820312,794.1758422851562,789.3406372070312
685,786.1171875,793.7728881835938,788.937744140625,790.952392578125
686,787.3259887695312,795.7875366210938,789.7435913085938,791.7582397460938
687,788.937744140625,793.7728881835938,791.7582397460938,789.7435913085938
688,790.952392578125,790.5494384765625,787.3259887695312,785.3113403320312
689,780.879150390625,785.7142944335938,784.908447265625,780.879150390625
690,780.4761962890625,785.3113403320312,786.1171875,783.2966918945312
691,781.6849975585938,789.3406372070312,789.7435913085938,783.6996459960938
692,786.1171875,790.952392578125,790.5494384765625,790.952392578125
693,786.1171875,785.7142944335938,791.7582397460938,795.7875366210938
694,778.4615478515625,785.7142944335938,791.3552856445312,784.908447265625
695,779.6703491210938,784.5054931640625,790.952392578125,778.8644409179688
696,784.1025390625,786.923095703125,795.7875366210938,782.4908447265625
697,789.7435913085938,792.1611938476562,796.996337890625,788.937744140625
698,792.5640869140625,795.7875366210938,793.3699340820312,790.1465454101562
699,790.5494384765625,795.7875366210938,793.3699340820312,789.7435913085938
700,787.3259887695312,790.5494384765625,799.4139404296875,791.3552856445312
701,783.6996459960938,792.967041015625,802.2344360351562,794.1758422851562
702,785.3113403320312,792.1611938476562,805.8607788085938,792.1611938476562
703,781.6849975585938,789.7435913085938,803.040283203125,790.952392578125
704,781.2820434570312,790.1465454101562,795.7875366210938,790.952392578125
705,785.3113403320312,792.1611938476562,797.3992919921875,779.2673950195312
706,781.6849975585938,796.996337890625,796.5933837890625,777.6557006835938
707,785.7142944335938,798.2051391601562,798.6080322265625,792.1611938476562
708,799.4139404296875,794.981689453125,797.8021850585938,792.967041015625
709,803.040283203125,795.3846435546875,794.1758422851562,789.3406372070312
710,795.3846435546875,794.1758422851562,792.1611938476562,790.952392578125
711,789.3406372070312,790.1465454101562,790.952392578125,789.7435913085938
712,794.5787353515625,793.3699340820312,793.7728881835938,789.3406372070312
713,795.3846435546875,792.967041015625,795.3846435546875,791.3552856445312
714,784.1025390625,788.937744140625,792.5640869140625,791.3552856445312
715,778.8644409179688,786.1171875,789.3406372070312,792.967041015625
716,778.05859375,789.7435913085938,793.7728881835938,793.7728881835938
717,780.4761962890625,791.3552856445312,793.3699340820312,785.7142944335938
718,787.7289428710938,793.7728881835938,791.7582397460938,791.7582397460938
719,787.7289428710938,798.6080322265625,793.7728881835938,798.6080322265625
720,780.4761962890625,799.010986328125,792.5640869140625,795.3846435546875
721,778.8644409179688,799.4139404296875,794.981689453125,794.1758422851562
722,786.1171875,800.2197875976562,797.3992919921875,792.5640869140625
723,794.981689453125,798.6080322265625,797.3992919921875,796.1904907226562
724,789.7435913085938,795.3846435546875,795.7875366210938,793.7728881835938
725,786.1171875,793.3699340820312,795.7875366210938,790.1465454101562
726,790.952392578125,796.996337890625,795.3846435546875,793.7728881835938
727,792.967041015625,797.8021850585938,793.3699340820312,795.7875366210938
728,795.3846435546875,797.8021850585938,795.7875366210938,799.8168334960938
729,795.7875366210938,798.2051391601562,796.996337890625,801.4285888671875
730,792.5640869140625,797.3992919921875,799.010986328125,797.3992919921875
731,787.7289428710938,796.996337890625,801.025634765625,794.981689453125
732,792.1611938476562,792.5640869140625,794.5787353515625,790.1465454101562
733,792.5640869140625,790.5494384765625,792.967041015625,796.1904907226562
734,790.952392578125,790.5494384765625,804.2490844726562,814.3223266601562
735,791.7582397460938,796.1904907226562,809.89013671875,812.7106323242188
736,790.1465454101562,796.996337890625,806.2637329101562,799.8168334960938
737,793.7728881835938,798.6080322265625,800.6226806640625,794.5787353515625
738,796.1904907226562,799.4139404296875,799.8168334960938,798.6080322265625
739,790.952392578125,795.7875366210938,800.6226806640625,799.4139404296875
740,791.3552856445312,794.1758422851562,801.8314819335938,794.981689453125
741,796.996337890625,791.3552856445312,798.6080322265625,794.1758422851562
742,798.6080322265625,794.1758422851562,795.3846435546875,790.952392578125
743,795.7875366210938,796.5933837890625,796.5933837890625,792.967041015625
744,792.1611938476562,790.5494384765625,794.1758422851562,792.5640869140625
745,792.1611938476562,786.1171875,796.996337890625,796.1904907226562
746,796.5933837890625,786.5201416015625,802.2344360351562,799.8168334960938
747,784.908447265625,784.1025390625,799.010986328125,788.937744140625
748,776.0439453125,788.1318969726562,796.996337890625,783.2966918945312
749,785.3113403320312,792.1611938476562,796.5933837890625,791.3552856445312
750,793.3699340820312,792.5640869140625,794.981689453125,803.4432373046875
751,793.3699340820312,794.1758422851562,794.981689453125,791.7582397460938
752,788.1318969726562,789.3406372070312,793.7728881835938,780.879150390625
753,784.5054931640625,788.937744140625,791.3552856445312,789.7435913085938
754,788.1318969726562,791.7582397460938,787.7289428710938,790.952392578125
755,794.1758422851562,786.923095703125,786.923095703125,791.7582397460938
756,796.996337890625,787.7289428710938,785.7142944335938,795.3846435546875
757,799.4139404296875,788.5347900390625,786.923095703125,797.8021850585938
758,789.7435913085938,784.908447265625,792.1611938476562,788.937744140625
759,775.6410522460938,787.7289428710938,792.967041015625,783.6996459960938
760,778.8644409179688,785.7142944335938,794.1758422851562,784.1025390625
761,785.3113403320312,786.5201416015625,792.1611938476562,780.0732421875
762,780.4761962890625,786.923095703125,787.3259887695312,776.4468994140625
763,785.7142944335938,789.7435913085938,785.3113403320312,779.2673950195312
764,796.996337890625,792.967041015625,788.937744140625,782.893798828125
765,795.7875366210938,793.3699340820312,791.7582397460938,785.7142944335938
766,783.6996459960938,794.981689453125,791.7582397460938,784.908447265625
767,785.3113403320312,799.010986328125,790.5494384765625,784.908447265625
768,788.937744140625,801.025634765625,792.1611938476562,788.937744140625
769,778.8644409179688,795.3846435546875,793.7728881835938,797.3992919921875
770,788.1318969726562,792.1611938476562,794.1758422851562,801.8314819335938
771,788.5347900390625,788.1318969726562,794.5787353515625,789.7435913085938
772,778.4615478515625,786.1171875,791.7582397460938,788.1318969726562
773,784.5054931640625,789.3406372070312,791.3552856445312,793.3699340820312
774,794.1758422851562,793.3699340820312,793.3699340820312,790.1465454101562
775,788.1318969726562,790.952392578125,790.5494384765625,786.923095703125
776,786.1171875,789.7435913085938,790.952392578125,792.967041015625
777,780.0732421875,787.7289428710938,794.5787353515625,799.8168334960938
778,775.2380981445312,786.1171875,796.1904907226562,794.981689453125
779,782.087890625,786.923095703125,794.981689453125,796.1904907226562
780,790.952392578125,789.3406372070312,793.7728881835938,801.025634765625
781,795.3846435546875,790.5494384765625,788.5347900390625,796.5933837890625
782,792.5640869140625,789.7435913085938,786.923095703125,789.3406372070312
783,796.5933837890625,788.1318969726562,788.937744140625,790.1465454101562
784,795.3846435546875,789.3406372070312,786.5201416015625,792.1611938476562
785,784.5054931640625,792.967041015625,788.5347900390625,787.7289428710938
786,794.5787353515625,793.7728881835938,788.937744140625,783.2966918945312
787,799.8168334960938,794.5787353515625,786.923095703125,780.4761962890625
788,788.1318969726562,790.5494384765625,789.7435913085938,790.5494384765625
789,786.5201416015625,790.952392578125,787.3259887695312,799.4139404296875
790,792.967041015625,795.7875366210938,788.1318969726562,795.7875366210938
791,788.5347900390625,790.1465454101562,786.5201416015625,792.5640869140625
792,785.3113403320312,790.952392578125,784.1025390625,790.1465454101562
793,788.1318969726562,796.1904907226562,788.937744140625,784.908447265625
794,788.1318969726562,794.5787353515625,787.3259887695312,781.2820434570312
795,796.1904907226562,796.996337890625,790.1465454101562,789.7435913085938
796,800.2197875976562,801.025634765625,792.1611938476562,790.952392578125
797,799.8168334960938,799.8168334960938,794.1758422851562,786.1171875
798,801.025634765625,799.010986328125,797.8021850585938,786.1171875
799,806.6666870117188,801.4285888671875,798.2051391601562,786.923095703125
800,804.2490844726562,799.4139404296875,797.8021850585938,791.7582397460938
801,790.1465454101562,796.1904907226562,796.5933837890625,790.1465454101562
802,786.1171875,796.1904907226562,798.2051391601562,790.1465454101562
803,788.5347900390625,794.981689453125,796.996337890625,794.1758422851562
804,785.7142944335938,796.1904907226562,794.981689453125,790.1465454101562
805,784.1025390625,797.3992919921875,796.1904907226562,792.5640869140625
806,786.923095703125,794.1758422851562,795.7875366210938,796.1904907226562
807,789.3406372070312,794.1758422851562,797.8021850585938,790.5494384765625
808,785.7142944335938,798.2051391601562,799.4139404296875,788.5347900390625
809,783.6996459960938,798.6080322265625,796.5933837890625,788.5347900390625
810,782.087890625,795.7875366210938,796.996337890625,786.923095703125
811,786.923095703125,794.981689453125,798.6080322265625,792.5640869140625
812,794.981689453125,796.5933837890625,796.5933837890625,794.1758422851562
813,788.937744140625,793.7728881835938,795.3846435546875,786.5201416015625
814,782.893798828125,792.967041015625,794.5787353515625,788.5347900390625
815,783.2966918945312,793.7728881835938,794.981689453125,788.5347900390625
816,783.6996459960938,789.3406372070312,795.3846435546875,781.2820434570312
817,782.087890625,787.7289428710938,790.5494384765625,778.4615478515625
818,782.893798828125,785.7142944335938,788.1318969726562,778.4615478515625
819,786.1171875,786.1171875,791.7582397460938,779.2673950195312
820,787.3259887695312,786.1171875,791.7582397460938,783.2966918945312
821,788.1318969726562,788.1318969726562,792.1611938476562,790.5494384765625
822,782.893798828125,790.5494384765625,794.5787353515625,788.5347900390625
823,784.5054931640625,792.967041015625,796.5933837890625,787.7289428710938
824,797.3992919921875,796.996337890625,800.2197875976562,786.5201416015625
825,807.4725341796875,798.2051391601562,802.2344360351562,788.5347900390625
826,802.6373901367188,800.2197875976562,800.6226806640625,790.952392578125
827,798.2051391601562,798.2051391601562,798.2051391601562,791.3552856445312
828,808.6813354492188,796.996337890625,796.5933837890625,788.937744140625
829,798.2051391601562,794.981689453125,797.3992919921875,787.7289428710938
830,780.0732421875,785.7142944335938,799.4139404296875,792.967041015625
831,786.1171875,784.908447265625,797.8021850585938,791.3552856445312
832,792.1611938476562,788.1318969726562,797.3992919921875,788.1318969726562
833,792.1611938476562,787.3259887695312,795.7875366210938,779.6703491210938
834,790.952392578125,785.7142944335938,790.952392578125,778.4615478515625
835,786.923095703125,785.7142944335938,788.937744140625,783.2966918945312
836,791.3552856445312,787.7289428710938,794.5787353515625,774.8351440429688
837,796.1904907226562,790.5494384765625,800.6226806640625,774.4322509765625
838,785.3113403320312,791.7582397460938,799.010986328125,771.6116943359375
839,781.2820434570312,790.952392578125,795.3846435546875,778.05859375
840,779.6703491210938,793.7728881835938,792.1611938476562,784.5054931640625
841,776.8497924804688,790.1465454101562,793.3699340820312,778.05859375
842,778.8644409179688,786.923095703125,796.5933837890625,778.8644409179688
843,774.4322509765625,792.1611938476562,799.4139404296875,775.2380981445312
844,778.8644409179688,795.3846435546875,800.2197875976562,769.1941528320312
845,793.7728881835938,794.1758422851562,797.3992919921875,767.9853515625
846,795.3846435546875,794.5787353515625,796.996337890625,781.2820434570312
847,782.4908447265625,791.7582397460938,793.7728881835938,782.893798828125
848,786.1171875,794.5787353515625,789.7435913085938,782.087890625
849,794.1758422851562,796.5933837890625,795.3846435546875,794.1758422851562
850,782.893798828125,788.5347900390625,800.6226806640625,788.5347900390625
851,776.8497924804688,787.7289428710938,796.996337890625,786.5201416015625
852,781.2820434570312,790.5494384765625,794.981689453125,784.908447265625
853,782.087890625,789.3406372070312,798.6080322265625,781.6849975585938
854,778.4615478515625,786.923095703125,793.7728881835938,774.4322509765625
855,779.2673950195312,784.5054931640625,792.5640869140625,773.2234497070312
856,786.5201416015625,784.1025390625,797.3992919921875,782.4908447265625
857,793.7728881835938,787.7289428710938,797.8021850585938,792.967041015625
858,793.7728881835938,794.5787353515625,798.6080322265625,795.7875366210938
859,787.7289428710938,795.7875366210938,799.010986328125,790.952392578125
860,783.6996459960938,791.7582397460938,799.010986328125,795.7875366210938
861,787.7289428710938,795.7875366210938,796.5933837890625,794.981689453125
862,790.1465454101562,796.996337890625,798.2051391601562,788.5347900390625
863,791.3552856445312,796.5933837890625,796.5933837890625,786.923095703125
864,794.981689453125,800.2197875976562,797.8021850585938,784.908447265625
865,786.923095703125,797.3992919921875,797.3992919921875,779.2673950195312
866,784.5054931640625,795.3846435546875,794.981689453125,784.1025390625
867,792.5640869140625,793.3699340820312,794.5787353515625,787.3259887695312
868,790.1465454101562,793.3699340820312,793.7728881835938,786.923095703125
869,778.8644409179688,790.1465454101562,790.952392578125,792.5640869140625
870,781.2820434570312,788.937744140625,790.952392578125,786.923095703125
871,787.7289428710938,789.7435913085938,794.1758422851562,792.5640869140625
872,788.5347900390625,789.7435913085938,791.7582397460938,799.010986328125
873,791.7582397460938,790.952392578125,788.5347900390625,792.5640869140625
874,787.3259887695312,792.5640869140625,792.1611938476562,792.1611938476562
875,786.5201416015625,793.3699340820312,798.6080322265625,798.2051391601562
876,795.3846435546875,791.3552856445312,798.6080322265625,800.2197875976562
877,792.5640869140625,794.1758422851562,794.5787353515625,797.8021850585938
878,786.923095703125,799.4139404296875,793.7728881835938,795.3846435546875
879,793.3699340820312,798.2051391601562,792.967041015625,793.3699340820312
880,796.1904907226562,792.1611938476562,791.3552856445312,786.923095703125
881,790.5494384765625,788.937744140625,789.7435913085938,788.1318969726562
882,789.7435913085938,788.1318969726562,787.7289428710938,787.7289428710938
883,792.1611938476562,787.7289428710938,791.3552856445312,784.1025390625
884,790.1465454101562,789.3406372070312,793.3699340820312,789.3406372070312
885,789.7435913085938,791.7582397460938,796.996337890625,791.3552856445312
886,788.5347900390625,797.8021850585938,798.6080322265625,792.5640869140625
887,789.7435913085938,798.6080322265625,794.981689453125,794.1758422851562
888,787.3259887695312,796.1904907226562,792.967041015625,792.5640869140625
889,787.3259887695312,794.1758422851562,797.3992919921875,787.3259887695312
890,790.952392578125,791.3552856445312,800.2197875976562,787.7289428710938
891,785.7142944335938,795.3846435546875,801.025634765625,790.952392578125
892,787.3259887695312,799.010986328125,802.6373901367188,792.1611938476562
893,792.5640869140625,800.6226806640625,803.040283203125,791.7582397460938
894,791.7582397460938,801.4285888671875,801.8314819335938,788.937744140625
895,790.1465454101562,797.8021850585938,800.2197875976562,790.5494384765625
896,786.1171875,793.3699340820312,794.981689453125,792.967041015625
897,783.2966918945312,790.5494384765625,795.7875366210938,791.3552856445312
898,785.7142944335938,791.3552856445312,795.7875366210938,792.967041015625
899,787.3259887695312,793.7728881835938,794.981689453125,794.981689453125
900,788.1318969726562,793.3699340820312,793.3699340820312,787.7289428710938
901,791.3552856445312,791.7582397460938,789.3406372070312,780.0732421875
902,789.7435913085938,787.3259887695312,787.7289428710938,777.6557006835938
903,793.7728881835938,787.7289428710938,786.5201416015625,777.6557006835938
904,790.952392578125,789.7435913085938,787.3259887695312,778.8644409179688
905,780.879150390625,791.7582397460938,788.1318969726562,779.6703491210938
906,782.087890625,788.5347900390625,787.7289428710938,779.6703491210938
907,783.2966918945312,785.3113403320312,788.1318969726562,781.6849975585938
908,788.937744140625,790.5494384765625,792.5640869140625,783.2966918945312
909,794.5787353515625,790.952392578125,794.981689453125,779.2673950195312
910,794.981689453125,787.3259887695312,796.5933837890625,779.2673950195312
911,803.4432373046875,787.7289428710938,800.6226806640625,785.7142944335938
912,806.6666870117188,790.5494384765625,800.6226806640625,786.923095703125
913,793.7728881835938,791.7582397460938,799.010986328125,784.908447265625
914,786.5201416015625,789.3406372070312,795.3846435546875,786.5201416015625
915,782.087890625,790.952392578125,792.5640869140625,792.5640869140625
916,782.893798828125,788.937744140625,795.7875366210938,796.5933837890625
917,792.1611938476562,787.7289428710938,795.7875366210938,792.1611938476562
918,783.2966918945312,791.3552856445312,794.5787353515625,787.7289428710938
919,781.6849975585938,792.5640869140625,797.8021850585938,790.1465454101562
920,786.923095703125,795.3846435546875,796.5933837890625,787.7289428710938
921,780.4761962890625,789.3406372070312,792.1611938476562,783.2966918945312
922,780.4761962890625,792.1611938476562,791.3552856445312,786.923095703125
923,786.1171875,799.4139404296875,790.5494384765625,787.7289428710938
924,784.908447265625,797.3992919921875,789.7435913085938,783.6996459960938
925,781.2820434570312,797.3992919921875,787.3259887695312,776.4468994140625
926,776.8497924804688,798.2051391601562,790.1465454101562,780.4761962890625
927,782.893798828125,799.4139404296875,790.5494384765625,789.7435913085938
928,787.7289428710938,801.025634765625,787.3259887695312,785.3113403320312
929,790.5494384765625,800.6226806640625,790.1465454101562,782.087890625
930,792.967041015625,799.4139404296875,792.1611938476562,785.3113403320312
931,784.908447265625,797.3992919921875,792.967041015625,786.923095703125
932,780.4761962890625,799.8168334960938,789.7435913085938,782.4908447265625
933,784.908447265625,798.6080322265625,788.1318969726562,786.1171875
934,783.6996459960938,792.5640869140625,790.952392578125,786.5201416015625
935,777.2527465820312,791.7582397460938,790.952392578125,786.923095703125
936,778.8644409179688,792.967041015625,790.1465454101562,791.7582397460938
937,786.1171875,792.1611938476562,789.7435913085938,790.952392578125
938,794.981689453125,794.1758422851562,790.952392578125,795.7875366210938
939,794.5787353515625,795.3846435546875,792.5640869140625,796.1904907226562
940,783.2966918945312,790.5494384765625,791.3552856445312,793.3699340820312
941,776.0439453125,787.7289428710938,789.3406372070312,791.3552856445312
942,778.8644409179688,790.1465454101562,792.5640869140625,789.3406372070312
943,787.3259887695312,793.7728881835938,791.3552856445312,792.1611938476562
944,794.1758422851562,791.3552856445312,787.3259887695312,790.1465454101562
945,797.3992919921875,790.5494384765625,790.5494384765625,791.7582397460938
946,793.7728881835938,795.3846435546875,792.967041015625,793.3699340820312
947,797.8021850585938,797.8021850585938,787.3259887695312,788.5347900390625
948,800.2197875976562,793.3699340820312,784.5054931640625,793.3699340820312
949,793.3699340820312,791.7582397460938,784.908447265625,802.6373901367188
950,784.908447265625,791.3552856445312,783.6996459960938,795.7875366210938
951,781.6849975585938,793.3699340820312,782.893798828125,786.1171875
952,782.893798828125,792.5640869140625,786.1171875,785.3113403320312
953,778.4615478515625,789.7435913085938,787.3259887695312,786.1171875
954,780.0732421875,791.3552856445312,788.5347900390625,790.1465454101562
955,774.029296875,789.7435913085938,791.7582397460938,785.7142944335938
956,771.2088012695312,784.5054931640625,788.1318969726562,779.2673950195312
957,780.0732421875,783.2966918945312,788.1318969726562,780.879150390625
958,779.2673950195312,786.923095703125,787.3259887695312,778.8644409179688
959,784.908447265625,790.952392578125,790.1465454101562,780.4761962890625
960,790.5494384765625,790.952392578125,794.1758422851562,786.1171875
961,789.3406372070312,789.3406372070312,797.3992919921875,786.923095703125
962,796.996337890625,788.937744140625,798.2051391601562,785.3113403320312
963,799.010986328125,786.923095703125,796.5933837890625,784.1025390625
964,794.1758422851562,785.3113403320312,794.5787353515625,785.3113403320312
965,800.2197875976562,786.1171875,792.5640869140625,787.3259887695312
966,801.8314819335938,789.7435913085938,795.7875366210938,786.923095703125
967,789.3406372070312,792.1611938476562,794.981689453125,787.3259887695312
968,786.1171875,790.5494384765625,794.5787353515625,792.5640869140625
969,787.3259887695312,792.1611938476562,794.981689453125,793.7728881835938
970,785.7142944335938,791.3552856445312,795.7875366210938,789.7435913085938
971,788.5347900390625,786.5201416015625,796.5933837890625,788.5347900390625
972,790.1465454101562,783.6996459960938,791.7582397460938,796.1904907226562
973,784.908447265625,785.3113403320312,791.7582397460938,798.6080322265625
974,784.908447265625,787.7289428710938,794.1758422851562,794.1758422851562
975,797.8021850585938,789.7435913085938,798.2051391601562,792.5640869140625
976,795.7875366210938,793.3699340820312,796.1904907226562,793.3699340820312
977,784.908447265625,795.3846435546875,798.6080322265625,797.8021850585938
978,787.3259887695312,797.8021850585938,800.2197875976562,795.7875366210938
979,783.6996459960938,796.1904907226562,796.996337890625,790.5494384765625
980,783.2966918945312,792.1611938476562,799.4139404296875,787.3259887695312
981,794.5787353515625,794.981689453125,802.2344360351562,789.7435913085938
982,789.7435913085938,794.981689453125,796.5933837890625,785.3113403320312
983,782.893798828125,793.7728881835938,793.7728881835938,788.1318969726562
984,792.1611938476562,794.5787353515625,800.6226806640625,797.8021850585938
985,800.2197875976562,792.1611938476562,799.8168334960938,793.7728881835938
986,795.3846435546875,794.5787353515625,799.4139404296875,787.3259887695312
987,786.1171875,796.1904907226562,799.8168334960938,784.1025390625
988,785.7142944335938,795.7875366210938,794.981689453125,794.5787353515625
989,788.937744140625,796.5933837890625,791.3552856445312,797.3992919921875
990,786.5201416015625,793.3699340820312,791.3552856445312,792.967041015625
991,777.6557006835938,789.7435913085938,789.3406372070312,795.3846435546875
992,773.2234497070312,788.5347900390625,789.3406372070312,787.3259887695312
993,781.2820434570312,789.7435913085938,793.3699340820312,781.2820434570312
994,788.5347900390625,793.7728881835938,796.1904907226562,786.923095703125
995,791.7582397460938,793.3699340820312,795.3846435546875,793.7728881835938
996,793.3699340820312,792.967041015625,795.3846435546875,788.1318969726562
997,790.5494384765625,792.967041015625,799.4139404296875,790.952392578125
998,787.7289428710938,793.7728881835938,796.1904907226562,801.025634765625
999,781.2820434570312,792.1611938476562,790.952392578125,794.5787353515625
1000,791.3552856445312,789.3406372070312,790.1465454101562,787.7289428710938
1001,802.6373901367188,790.952392578125,792.5640869140625,785.7142944335938
1002,796.5933837890625,792.967041015625,794.981689453125,785.3113403320312
1003,786.923095703125,793.3699340820312,794.1758422851562,791.3552856445312
1004,785.3113403320312,793.3699340820312,794.981689453125,794.5787353515625
1005,786.923095703125,792.967041015625,791.3552856445312,790.952392578125
1006,794.1758422851562,789.3406372070312,787.7289428710938,787.7289428710938
1007,803.040283203125,790.952392578125,787.7289428710938,788.937744140625
1008,796.1904907226562,790.5494384765625,792.5640869140625,792.5640869140625
1009,797.8021850585938,786.923095703125,795.3846435546875,793.7728881835938
1010,807.069580078125,790.5494384765625,790.5494384765625,799.4139404296875
1011,809.084228515625,797.3992919921875,787.3259887695312,799.4139404296875
1012,799.8168334960938,793.3699340820312,789.3406372070312,797.3992919921875
1013,793.7728881835938,792.5640869140625,793.7728881835938,798.6080322265625
1014,794.1758422851562,799.010986328125,796.5933837890625,798.2051391601562
1015,792.1611938476562,795.7875366210938,798.6080322265625,801.025634765625
1016,789.3406372070312,797.3992919921875,800.6226806640625,797.8021850585938
1017,786.1171875,801.4285888671875,801.8314819335938,797.3992919921875
1018,782.4908447265625,795.7875366210938,799.010986328125,796.1904907226562
1019,774.4322509765625,797.8021850585938,794.1758422851562,791.7582397460938
1020,780.0732421875,799.8168334960938,797.8021850585938,791.3552856445312
1021,780.879150390625,797.8021850585938,801.025634765625,790.1465454101562
1022,775.6410522460938,797.3992919921875,800.2197875976562,789.3406372070312
1023,780.0732421875,796.1904907226562,800.6226806640625,787.3259887695312
1024,784.5054931640625,796.5933837890625,796.996337890625,790.952392578125
1025,784.5054931640625,793.7728881835938,793.3699340820312,786.923095703125
1026,788.5347900390625,793.7728881835938,800.6226806640625,788.937744140625
1027,799.4139404296875,796.996337890625,809.4871826171875,797.3992919921875
1028,796.996337890625,792.967041015625,805.8607788085938,790.952392578125
1029,791.7582397460938,787.3259887695312,798.6080322265625,790.1465454101562
1030,793.3699340820312,786.923095703125,796.1904907226562,792.967041015625
1031,793.7728881835938,789.7435913085938,795.3846435546875,787.3259887695312
1032,799.8168334960938,792.5640869140625,794.981689453125,786.1171875
1033,792.1611938476562,788.5347900390625,794.1758422851562,782.087890625
1034,784.908447265625,787.7289428710938,795.7875366210938,779.2673950195312
1035,792.5640869140625,793.7728881835938,798.2051391601562,784.908447265625
1036,795.3846435546875,795.7875366210938,797.3992919921875,789.3406372070312
1037,792.1611938476562,793.7728881835938,792.5640869140625,796.1904907226562
1038,788.937744140625,794.1758422851562,793.7728881835938,802.6373901367188
1039,782.893798828125,790.952392578125,795.7875366210938,792.1611938476562
1040,783.2966918945312,790.952392578125,794.981689453125,787.3259887695312
1041,784.5054931640625,791.3552856445312,798.2051391601562,791.3552856445312
1042,781.6849975585938,792.5640869140625,799.8168334960938,790.952392578125
1043,776.8497924804688,794.1758422851562,798.2051391601562,788.937744140625
1044,777.2527465820312,792.967041015625,795.3846435546875,786.1171875
1045,776.0439453125,792.5640869140625,792.1611938476562,786.1171875
1046,782.4908447265625,792.1611938476562,792.967041015625,791.7582397460938
1047,788.5347900390625,794.5787353515625,796.5933837890625,793.7728881835938
1048,787.3259887695312,799.8168334960938,795.3846435546875,794.5787353515625
1049,791.7582397460938,802.2344360351562,794.1758422851562,802.2344360351562
1050,797.3992919921875,799.010986328125,798.2051391601562,798.6080322265625
1051,795.7875366210938,794.981689453125,796.996337890625,790.1465454101562
1052,795.3846435546875,792.5640869140625,790.1465454101562,793.7728881835938
1053,803.040283203125,796.5933837890625,789.7435913085938,798.6080322265625
1054,800.2197875976562,799.8168334960938,788.1318969726562,796.5933837890625
1055,803.4432373046875,805.054931640625,788.5347900390625,795.3846435546875
1056,810.6959838867188,809.89013671875,793.7728881835938,796.996337890625
1057,808.6813354492188,806.6666870117188,792.967041015625,797.8021850585938
1058,799.8168334960938,801.4285888671875,788.5347900390625,787.3259887695312
1059,792.1611938476562,802.2344360351562,790.5494384765625,782.893798828125
1060,794.1758422851562,801.4285888671875,792.967041015625,786.1171875
1061,788.937744140625,795.3846435546875,791.3552856445312,786.923095703125
1062,776.4468994140625,794.5787353515625,793.3699340820312,785.3113403320312
1063,778.05859375,796.1904907226562,792.5640869140625,783.6996459960938
1064,784.5054931640625,801.4285888671875,791.3552856445312,786.5201416015625
1065,787.7289428710938,800.6226806640625,792.1611938476562,785.3113403320312
1066,786.5201416015625,802.2344360351562,793.7728881835938,782.893798828125
1067,778.4615478515625,799.4139404296875,793.7728881835938,783.6996459960938
1068,777.2527465820312,790.5494384765625,788.5347900390625,789.3406372070312
1069,786.923095703125,789.7435913085938,785.3113403320312,786.1171875
1070,788.937744140625,789.7435913085938,784.5054931640625,779.6703491210938
1071,793.3699340820312,792.1611938476562,787.3259887695312,782.893798828125
1072,800.2197875976562,792.1611938476562,792.1611938476562,792.5640869140625
1073,800.6226806640625,791.3552856445312,794.5787353515625,797.3992919921875
1074,794.1758422851562,790.952392578125,794.5787353515625,796.1904907226562
1075,789.7435913085938,788.1318969726562,792.967041015625,791.3552856445312
1076,801.025634765625,789.7435913085938,794.1758422851562,797.8021850585938
1077,813.113525390625,793.7728881835938,792.967041015625,803.8461303710938
1078,809.084228515625,790.5494384765625,789.7435913085938,793.7728881835938
1079,800.2197875976562,789.7435913085938,789.7435913085938,786.5201416015625
1080,793.7728881835938,792.967041015625,790.5494384765625,787.7289428710938
1081,787.7289428710938,792.1611938476562,790.952392578125,787.7289428710938
1082,786.5201416015625,791.3552856445312,791.7582397460938,783.2966918945312
1083,788.5347900390625,789.3406372070312,793.3699340820312,785.7142944335938
1084,783.6996459960938,790.952392578125,793.3699340820312,791.7582397460938
1085,786.1171875,792.5640869140625,794.981689453125,789.3406372070312
1086,791.7582397460938,798.2051391601562,797.3992919921875,784.1025390625
1087,785.7142944335938,801.8314819335938,792.1611938476562,785.3113403320312
1088,783.6996459960938,796.1904907226562,791.3552856445312,800.2197875976562
1089,789.7435913085938,801.4285888671875,796.5933837890625,805.8607788085938
1090,786.5201416015625,802.6373901367188,797.8021850585938,800.6226806640625
1091,781.6849975585938,797.3992919921875,798.6080322265625,801.8314819335938
1092,786.1171875,799.4139404296875,801.8314819335938,797.8021850585938
1093,794.981689453125,801.4285888671875,801.4285888671875,799.010986328125
1094,803.040283203125,799.8168334960938,797.8021850585938,800.2197875976562
1095,803.040283203125,795.3846435546875,797.3992919921875,795.7875366210938
1096,803.8461303710938,796.5933837890625,796.1904907226562,797.8021850585938
1097,801.025634765625,798.2051391601562,796.996337890625,800.6226806640625
1098,798.6080322265625,800.2197875976562,793.3699340820312,794.981689453125
1099,800.6226806640625,798.6080322265625,787.7289428710938,795.3846435546875
1100,802.6373901367188,798.2051391601562,790.952392578125,791.3552856445312
1101,805.4578857421875,799.010986328125,792.1611938476562,786.5201416015625
1102,803.040283203125,797.8021850585938,792.1611938476562,790.1465454101562
1103,804.6520385742188,800.2197875976562,794.1758422851562,790.1465454101562
1104,803.040283203125,799.8168334960938,790.1465454101562,788.5347900390625
1105,805.054931640625,800.6226806640625,790.1465454101562,789.3406372070312
1106,801.8314819335938,801.4285888671875,792.1611938476562,789.3406372070312
1107,800.2197875976562,797.3992919921875,795.3846435546875,797.3992919921875
1108,807.87548828125,799.010986328125,795.3846435546875,801.025634765625
1109,803.8461303710938,801.4285888671875,792.5640869140625,788.937744140625
1110,798.2051391601562,799.8168334960938,790.952392578125,784.5054931640625
1111,792.967041015625,798.2051391601562,790.952392578125,786.1171875
1112,793.7728881835938,793.7728881835938,792.1611938476562,781.2820434570312
1113,796.1904907226562,791.3552856445312,788.937744140625,779.2673950195312
1114,789.7435913085938,793.7728881835938,791.3552856445312,786.5201416015625
1115,785.3113403320312,792.1611938476562,786.923095703125,788.1318969726562
1116,781.6849975585938,789.3406372070312,787.3259887695312,789.7435913085938
1117,784.1025390625,790.1465454101562,794.1758422851562,792.5640869140625
1118,791.7582397460938,788.5347900390625,790.1465454101562,795.7875366210938
1119,792.5640869140625,790.952392578125,786.923095703125,796.5933837890625
1120,790.5494384765625,794.5787353515625,789.3406372070312,790.952392578125
1121,792.5640869140625,792.967041015625,794.5787353515625,790.5494384765625
1122,791.3552856445312,790.1465454101562,794.1758422851562,792.1611938476562
1123,792.5640869140625,791.3552856445312,790.5494384765625,791.3552856445312
1124,795.7875366210938,791.3552856445312,791.3552856445312,789.7435913085938
1125,794.1758422851562,791.3552856445312,789.7435913085938,789.3406372070312
1126,792.967041015625,790.5494384765625,789.3406372070312,785.7142944335938
1127,802.6373901367188,788.937744140625,790.1465454101562,781.6849975585938
1128,815.5311279296875,787.3259887695312,791.3552856445312,786.1171875
1129,809.4871826171875,789.3406372070312,792.967041015625,790.1465454101562
1130,807.4725341796875,792.5640869140625,795.7875366210938,787.7289428710938
1131,810.2930297851562,792.967041015625,795.7875366210938,786.923095703125
1132,797.8021850585938,796.1904907226562,796.5933837890625,787.3259887695312
1133,785.7142944335938,794.5787353515625,793.3699340820312,786.923095703125
1134,780.879150390625,791.7582397460938,787.3259887695312,788.5347900390625
1135,780.4761962890625,796.1904907226562,792.967041015625,786.5201416015625
1136,784.5054931640625,793.3699340820312,791.7582397460938,785.7142944335938
1137,789.3406372070312,792.1611938476562,790.952392578125,782.893798828125
1138,793.7728881835938,794.1758422851562,796.5933837890625,780.879150390625
1139,791.3552856445312,794.981689453125,796.996337890625,784.1025390625
1140,793.3699340820312,797.3992919921875,795.7875366210938,788.937744140625
1141,790.952392578125,797.3992919921875,793.7728881835938,790.952392578125
1142,778.8644409179688,795.7875366210938,790.1465454101562,785.3113403320312
1143,786.5201416015625,795.3846435546875,790.952392578125,788.1318969726562
1144,786.923095703125,795.3846435546875,790.952392578125,790.952392578125
1145,778.05859375,792.1611938476562,790.5494384765625,790.5494384765625
1146,776.8497924804688,792.1611938476562,794.981689453125,793.7728881835938
1147,778.4615478515625,789.3406372070312,792.5640869140625,786.1171875
1148,787.3259887695312,788.5347900390625,791.3552856445312,786.5201416015625
1149,791.3552856445312,794.1758422851562,791.3552856445312,790.1465454101562
1150,793.7728881835938,794.981689453125,793.3699340820312,786.1171875
1151,793.7728881835938,793.3699340820312,794.1758422851562,782.4908447265625
1152,792.5640869140625,792.1611938476562,790.5494384765625,782.087890625
1153,794.981689453125,793.7728881835938,791.3552856445312,788.1318969726562
1154,799.010986328125,791.7582397460938,788.937744140625,788.5347900390625
1155,796.5933837890625,792.1611938476562,787.3259887695312,784.5054931640625
1156,792.5640869140625,794.1758422851562,786.923095703125,786.923095703125
1157,794.981689453125,790.5494384765625,787.7289428710938,790.952392578125
1158,799.4139404296875,790.952392578125,789.3406372070312,789.7435913085938
1159,800.2197875976562,791.3552856445312,790.5494384765625,791.7582397460938
1160,791.3552856445312,786.1171875,789.3406372070312,795.3846435546875
1161,785.3113403320312,788.5347900390625,789.3406372070312,794.1758422851562
1162,783.6996459960938,796.1904907226562,789.3406372070312,791.7582397460938
1163,784.908447265625,796.1904907226562,788.937744140625,792.1611938476562
1164,792.1611938476562,794.5787353515625,789.3406372070312,794.5787353515625
1165,800.2197875976562,798.6080322265625,789.3406372070312,798.6080322265625
1166,796.996337890625,794.1758422851562,791.7582397460938,795.7875366210938
1167,788.1318969726562,784.1025390625,786.1171875,786.1171875
1168,786.5201416015625,788.5347900390625,784.908447265625,789.3406372070312
1169,785.7142944335938,792.967041015625,788.937744140625,790.952392578125
1170,789.3406372070312,791.7582397460938,790.5494384765625,792.1611938476562
1171,791.7582397460938,791.7582397460938,789.7435913085938,792.5640869140625
1172,788.1318969726562,793.7728881835938,789.7435913085938,792.5640869140625
1173,788.5347900390625,794.981689453125,788.1318969726562,793.3699340820312
1174,793.3699340820312,794.1758422851562,785.3113403320312,786.923095703125
1175,793.3699340820312,792.5640869140625,783.2966918945312,782.087890625
1176,791.3552856445312,794.5787353515625,781.2820434570312,780.879150390625
1177,784.1025390625,797.3992919921875,784.1025390625,782.893798828125
1178,776.8497924804688,797.8021850585938,787.3259887695312,788.5347900390625
1179,778.8644409179688,798.2051391601562,790.1465454101562,792.5640869140625
1180,779.2673950195312,793.3699340820312,791.7582397460938,791.3552856445312
1181,775.2380981445312,792.967041015625,791.7582397460938,787.7289428710938
1182,778.05859375,792.967041015625,790.1465454101562,780.0732421875
1183,789.7435913085938,790.1465454101562,790.1465454101562,778.4615478515625
1184,787.7289428710938,789.7435913085938,791.3552856445312,783.2966918945312
1185,779.2673950195312,791.7582397460938,794.1758422851562,780.879150390625
1186,778.8644409179688,794.5787353515625,794.1758422851562,781.6849975585938
1187,782.893798828125,794.5787353515625,790.952392578125,783.6996459960938
1188,780.4761962890625,790.952392578125,792.5640869140625,782.4908447265625
1189,783.6996459960938,788.937744140625,797.3992919921875,788.5347900390625
1190,794.5787353515625,794.1758422851562,796.1904907226562,791.3552856445312
1191,799.4139404296875,796.5933837890625,791.7582397460938,785.7142944335938
1192,796.5933837890625,794.1758422851562,790.952392578125,784.1025390625
1193,798.6080322265625,796.996337890625,791.7582397460938,790.952392578125
1194,802.2344360351562,796.5933837890625,784.908447265625,792.5640869140625
1195,802.2344360351562,794.1758422851562,788.5347900390625,797.8021850585938
1196,795.3846435546875,794.1758422851562,794.981689453125,802.6373901367188
1197,788.1318969726562,793.7728881835938,790.5494384765625,786.1171875
1198,792.1611938476562,794.981689453125,792.1611938476562,780.4761962890625
1199,801.4285888671875,797.8021850585938,794.981689453125,788.937744140625
1200,799.010986328125,797.3992919921875,796.1904907226562,793.7728881835938
1201,790.1465454101562,796.5933837890625,796.1904907226562,794.1758422851562
1202,786.5201416015625,791.7582397460938,794.1758422851562,792.1611938476562
1203,779.2673950195312,787.7289428710938,790.5494384765625,790.1465454101562
1204,780.4761962890625,791.7582397460938,791.7582397460938,786.1171875
1205,784.908447265625,789.3406372070312,795.3846435546875,781.2820434570312
1206,784.5054931640625,790.1465454101562,795.7875366210938,781.6849975585938
1207,784.908447265625,793.7728881835938,796.5933837890625,785.7142944335938
1208,775.6410522460938,794.981689453125,795.3846435546875,781.6849975585938
1209,772.8204956054688,791.3552856445312,797.8021850585938,779.6703491210938
1210,781.6849975585938,789.7435913085938,798.6080322265625,784.908447265625
1211,791.3552856445312,791.3552856445312,794.981689453125,783.6996459960938
1212,788.1318969726562,788.937744140625,790.952392578125,778.4615478515625
1213,780.879150390625,790.5494384765625,790.952392578125,781.6849975585938
1214,789.7435913085938,788.937744140625,794.5787353515625,786.923095703125
1215,799.8168334960938,789.3406372070312,793.3699340820312,787.3259887695312
1216,797.3992919921875,796.5933837890625,795.3846435546875,786.923095703125
1217,796.5933837890625,797.3992919921875,799.010986328125,786.923095703125
1218,792.5640869140625,793.3699340820312,799.4139404296875,788.937744140625
1219,787.3259887695312,790.1465454101562,796.1904907226562,790.5494384765625
1220,785.7142944335938,790.5494384765625,789.7435913085938,784.908447265625
1221,784.1025390625,792.967041015625,786.923095703125,780.4761962890625
1222,781.6849975585938,792.1611938476562,782.893798828125,777.6557006835938
1223,774.029296875,789.7435913085938,781.2820434570312,773.2234497070312
1224,773.2234497070312,788.5347900390625,784.908447265625,777.6557006835938
1225,777.2527465820312,784.5054931640625,790.952392578125,781.6849975585938
1226,781.2820434570312,788.937744140625,796.996337890625,778.8644409179688
1227,783.6996459960938,795.3846435546875,797.3992919921875,779.2673950195312
1228,778.4615478515625,798.2051391601562,796.5933837890625,779.2673950195312
1229,773.6264038085938,795.7875366210938,801.4285888671875,782.087890625
1230,781.6849975585938,792.1611938476562,797.3992919921875,797.3992919921875
1231,782.893798828125,792.1611938476562,795.3846435546875,800.6226806640625
1232,780.879150390625,792.1611938476562,799.8168334960938,788.937744140625
1233,789.3406372070312,793.3699340820312,799.010986328125,788.5347900390625
1234,791.7582397460938,795.3846435546875,796.5933837890625,792.5640869140625
1235,794.1758422851562,794.981689453125,792.5640869140625,787.3259887695312
1236,799.8168334960938,794.981689453125,792.967041015625,785.7142944335938
1237,797.3992919921875,795.7875366210938,790.1465454101562,786.923095703125
1238,797.8021850585938,795.7875366210938,787.7289428710938,792.967041015625
1239,796.996337890625,795.3846435546875,790.1465454101562,794.981689453125
1240,794.1758422851562,796.1904907226562,790.1465454101562,790.1465454101562
1241,797.8021850585938,795.7875366210938,790.952392578125,796.996337890625
1242,791.3552856445312,797.8021850585938,790.952392578125,796.1904907226562
1243,788.5347900390625,795.3846435546875,791.7582397460938,788.937744140625
1244,792.5640869140625,796.1904907226562,795.7875366210938,786.5201416015625
1245,790.5494384765625,796.996337890625,793.7728881835938,781.2820434570312
1246,788.1318969726562,793.3699340820312,792.967041015625,785.7142944335938
1247,784.1025390625,792.1611938476562,790.952392578125,782.893798828125
1248,782.087890625,792.967041015625,790.952392578125,781.2820434570312
1249,778.8644409179688,792.967041015625,797.3992919921875,784.1025390625
1250,774.4322509765625,790.5494384765625,794.1758422851562,781.6849975585938
1251,777.2527465820312,791.7582397460938,790.5494384765625,780.4761962890625
1252,783.6996459960938,793.3699340820312,795.3846435546875,781.2820434570312
1253,782.893798828125,792.5640869140625,794.1758422851562,784.908447265625
1254,779.6703491210938,789.7435913085938,794.981689453125,787.3259887695312
1255,783.2966918945312,790.1465454101562,794.5787353515625,790.952392578125
1256,795.7875366210938,796.1904907226562,795.3846435546875,799.8168334960938
1257,794.5787353515625,796.1904907226562,797.3992919921875,802.6373901367188
1258,784.908447265625,794.981689453125,795.3846435546875,793.3699340820312
1259,789.7435913085938,797.3992919921875,797.8021850585938,795.3846435546875
1260,800.6226806640625,802.2344360351562,799.8168334960938,801.025634765625
1261,800.2197875976562,798.2051391601562,799.4139404296875,795.7875366210938
1262,792.967041015625,792.1611938476562,792.5640869140625,789.3406372070312
1263,790.952392578125,793.7728881835938,788.1318969726562,786.5201416015625
1264,791.3552856445312,793.3699340820312,788.1318969726562,782.4908447265625
1265,784.5054931640625,792.1611938476562,788.1318969726562,782.4908447265625
1266,780.4761962890625,793.7728881835938,790.5494384765625,781.2820434570312
1267,784.1025390625,793.3699340820312,787.3259887695312,778.05859375
1268,776.4468994140625,790.952392578125,783.2966918945312,784.1025390625
1269,766.7765502929688,792.1611938476562,787.3259887695312,790.1465454101562
1270,769.5970458984375,790.1465454101562,792.967041015625,790.1465454101562
1271,775.2380981445312,789.7435913085938,792.967041015625,786.923095703125
1272,780.0732421875,792.1611938476562,796.1904907226562,788.937744140625
1273,778.05859375,791.7582397460938,801.4285888671875,792.5640869140625
1274,774.029296875,790.952392578125,799.010986328125,790.952392578125
1275,772.8204956054688,792.1611938476562,793.7728881835938,792.1611938476562
1276,781.2820434570312,797.3992919921875,791.3552856445312,788.5347900390625
1277,790.952392578125,796.1904907226562,793.7728881835938,786.5201416015625
1278,793.7728881835938,792.1611938476562,792.5640869140625,785.3113403320312
1279,785.7142944335938,793.3699340820312,784.908447265625,786.923095703125
1280,784.1025390625,793.7728881835938,787.3259887695312,796.5933837890625
1281,790.1465454101562,794.981689453125,792.1611938476562,794.1758422851562
1282,792.5640869140625,795.3846435546875,792.1611938476562,785.7142944335938
1283,797.3992919921875,795.3846435546875,798.6080322265625,784.908447265625
1284,794.1758422851562,790.1465454101562,796.5933837890625,787.3259887695312
1285,790.5494384765625,789.3406372070312,792.1611938476562,791.3552856445312
1286,798.2051391601562,791.7582397460938,794.1758422851562,793.3699340820312
1287,798.2051391601562,793.3699340820312,791.7582397460938,795.7875366210938
1288,795.7875366210938,793.3699340820312,787.3259887695312,796.1904907226562
1289,793.3699340820312,791.7582397460938,786.1171875,792.1611938476562
1290,786.923095703125,790.5494384765625,791.7582397460938,788.5347900390625
1291,794.981689453125,788.937744140625,794.1758422851562,790.952392578125
1292,799.010986328125,791.3552856445312,791.7582397460938,796.5933837890625
1293,788.5347900390625,792.967041015625,789.7435913085938,791.7582397460938
1294,778.05859375,791.3552856445312,786.923095703125,789.7435913085938
1295,775.6410522460938,791.3552856445312,791.3552856445312,794.1758422851562
1296,776.8497924804688,791.3552856445312,791.3552856445312,792.1611938476562
1297,779.6703491210938,790.1465454101562,790.5494384765625,790.952392578125
1298,783.6996459960938,791.3552856445312,792.5640869140625,788.937744140625
1299,782.4908447265625,794.981689453125,793.7728881835938,791.7582397460938
1300,781.2820434570312,796.996337890625,796.5933837890625,792.5640869140625
1301,788.5347900390625,795.7875366210938,794.5787353515625,785.3113403320312
1302,797.3992919921875,800.6226806640625,793.3699340820312,785.7142944335938
1303,798.6080322265625,803.8461303710938,797.8021850585938,797.8021850585938
1304,792.5640869140625,801.025634765625,795.7875366210938,796.996337890625
1305,792.1611938476562,802.6373901367188,794.981689453125,793.7728881835938
1306,792.5640869140625,795.3846435546875,793.7728881835938,794.981689453125
1307,794.5787353515625,788.1318969726562,790.1465454101562,792.1611938476562
1308,800.6226806640625,793.3699340820312,793.7728881835938,794.5787353515625
1309,798.2051391601562,796.1904907226562,791.3552856445312,796.996337890625
1310,790.952392578125,796.5933837890625,792.967041015625,800.6226806640625
1311,789.3406372070312,797.8021850585938,799.010986328125,798.6080322265625
1312,788.937744140625,796.5933837890625,796.5933837890625,793.3699340820312
1313,791.3552856445312,795.7875366210938,794.1758422851562,793.7728881835938
1314,792.5640869140625,795.7875366210938,794.981689453125,796.5933837890625
1315,792.967041015625,796.1904907226562,797.3992919921875,795.7875366210938
1316,788.5347900390625,792.1611938476562,799.8168334960938,793.7728881835938
1317,783.6996459960938,791.7582397460938,799.4139404296875,796.1904907226562
1318,789.3406372070312,799.8168334960938,801.8314819335938,801.8314819335938
1319,789.7435913085938,797.3992919921875,800.2197875976562,794.1758422851562
1320,785.7142944335938,795.7875366210938,795.7875366210938,784.908447265625
1321,791.3552856445312,798.6080322265625,795.3846435546875,787.7289428710938
1322,788.5347900390625,793.7728881835938,793.3699340820312,796.1904907226562
1323,778.4615478515625,792.1611938476562,793.3699340820312,796.5933837890625
1324,778.8644409179688,794.5787353515625,797.8021850585938,785.7142944335938
1325,784.908447265625,793.7728881835938,798.6080322265625,782.4908447265625
1326,785.3113403320312,786.1171875,799.010986328125,787.3259887695312
1327,789.7435913085938,792.967041015625,801.8314819335938,784.5054931640625
1328,789.7435913085938,798.6080322265625,805.8607788085938,785.3113403320312
1329,783.6996459960938,794.5787353515625,805.4578857421875,797.8021850585938
1330,790.5494384765625,795.7875366210938,800.6226806640625,798.6080322265625
1331,792.5640869140625,793.7728881835938,801.8314819335938,793.3699340820312
1332,786.5201416015625,791.3552856445312,802.6373901367188,790.952392578125
1333,785.7142944335938,790.5494384765625,799.010986328125,786.5201416015625
1334,784.908447265625,792.5640869140625,796.1904907226562,783.6996459960938
1335,781.6849975585938,792.967041015625,798.2051391601562,784.908447265625
1336,782.893798828125,791.3552856445312,798.6080322265625,781.2820434570312
1337,786.923095703125,789.7435913085938,796.5933837890625,786.1171875
1338,788.5347900390625,793.3699340820312,794.1758422851562,795.3846435546875
1339,790.1465454101562,792.967041015625,794.5787353515625,787.7289428710938
1340,791.7582397460938,789.3406372070312,795.7875366210938,783.2966918945312
1341,795.3846435546875,790.5494384765625,796.1904907226562,792.1611938476562
1342,785.7142944335938,791.7582397460938,796.1904907226562,793.3699340820312
1343,785.3113403320312,799.010986328125,793.3699340820312,791.7582397460938
1344,797.8021850585938,801.4285888671875,793.3699340820312,790.952392578125
1345,790.952392578125,800.6226806640625,797.3992919921875,793.3699340820312
1346,780.879150390625,799.8168334960938,799.010986328125,789.3406372070312
1347,790.5494384765625,797.3992919921875,797.3992919921875,791.3552856445312
1348,798.2051391601562,797.3992919921875,796.996337890625,796.1904907226562
1349,793.3699340820312,792.5640869140625,794.981689453125,794.1758422851562
1350,786.923095703125,788.5347900390625,796.1904907226562,790.1465454101562
1351,791.3552856445312,792.5640869140625,795.7875366210938,785.3113403320312
1352,803.8461303710938,794.1758422851562,791.7582397460938,787.3259887695312
1353,810.6959838867188,796.996337890625,791.7582397460938,797.3992919921875
1354,805.8607788085938,798.6080322265625,791.3552856445312,801.8314819335938
1355,794.5787353515625,792.5640869140625,796.1904907226562,794.1758422851562
1356,785.3113403320312,791.7582397460938,799.010986328125,788.937744140625
1357,782.893798828125,794.5787353515625,800.2197875976562,788.5347900390625
1358,786.1171875,795.3846435546875,796.1904907226562,784.5054931640625
1359,788.1318969726562,794.1758422851562,790.1465454101562,780.0732421875
1360,787.3259887695312,788.937744140625,794.981689453125,776.8497924804688
1361,790.952392578125,784.908447265625,794.981689453125,779.2673950195312
1362,790.5494384765625,788.5347900390625,792.1611938476562,784.1025390625
1363,791.7582397460938,792.967041015625,799.8168334960938,791.3552856445312
1364,796.996337890625,793.3699340820312,799.4139404296875,799.4139404296875
1365,792.5640869140625,792.967041015625,801.025634765625,794.5787353515625
1366,786.5201416015625,790.1465454101562,805.054931640625,783.6996459960938
1367,789.7435913085938,788.5347900390625,801.025634765625,784.5054931640625
1368,790.1465454101562,790.952392578125,799.010986328125,790.1465454101562
1369,791.3552856445312,790.5494384765625,794.1758422851562,794.1758422851562
1370,796.996337890625,792.967041015625,799.8168334960938,795.7875366210938
1371,799.8168334960938,792.967041015625,802.2344360351562,794.1758422851562
1372,801.025634765625,790.5494384765625,798.2051391601562,796.1904907226562
1373,795.3846435546875,790.1465454101562,799.4139404296875,794.981689453125
1374,792.1611938476562,789.3406372070312,794.5787353515625,788.937744140625
1375,794.5787353515625,786.923095703125,789.3406372070312,788.937744140625
1376,789.7435913085938,790.5494384765625,788.937744140625,785.7142944335938
1377,789.3406372070312,792.967041015625,791.3552856445312,784.1025390625
1378,794.5787353515625,789.3406372070312,791.7582397460938,788.937744140625
1379,790.5494384765625,792.1611938476562,790.952392578125,788.5347900390625
1380,791.3552856445312,794.981689453125,791.7582397460938,788.5347900390625
1381,794.1758422851562,793.3699340820312,793.7728881835938,791.3552856445312
1382,796.996337890625,794.981689453125,796.1904907226562,795.3846435546875
1383,799.4139404296875,795.3846435546875,794.5787353515625,791.7582397460938
1384,803.4432373046875,797.8021850585938,795.3846435546875,793.3699340820312
1385,798.6080322265625,803.040283203125,792.967041015625,790.952392578125
1386,790.1465454101562,799.010986328125,793.3699340820312,783.2966918945312
1387,788.5347900390625,794.1758422851562,794.981689453125,788.1318969726562
1388,784.908447265625,796.1904907226562,793.3699340820312,793.3699340820312
1389,781.6849975585938,800.6226806640625,797.3992919921875,789.7435913085938
1390,788.5347900390625,801.8314819335938,799.4139404296875,791.3552856445312
1391,794.981689453125,799.4139404296875,800.6226806640625,793.7728881835938
1392,793.3699340820312,799.8168334960938,798.2051391601562,796.1904907226562
1393,797.8021850585938,802.2344360351562,796.1904907226562,798.6080322265625
1394,801.025634765625,799.8168334960938,796.1904907226562,790.5494384765625
1395,794.5787353515625,798.2051391601562,796.996337890625,786.1171875
1396,793.3699340820312,797.3992919921875,796.1904907226562,789.7435913085938
1397,790.5494384765625,796.996337890625,789.3406372070312,786.1171875
1398,792.5640869140625,794.981689453125,790.5494384765625,780.879150390625
1399,795.3846435546875,794.5787353515625,792.967041015625,790.5494384765625
1400,792.1611938476562,796.1904907226562,792.967041015625,789.3406372070312
1401,789.3406372070312,793.3699340820312,790.1465454101562,780.4761962890625
1402,787.7289428710938,790.5494384765625,789.7435913085938,780.4761962890625
1403,785.3113403320312,790.952392578125,793.7728881835938,779.6703491210938
1404,790.5494384765625,792.967041015625,792.1611938476562,784.1025390625
1405,799.8168334960938,793.3699340820312,789.7435913085938,785.7142944335938
1406,802.2344360351562,792.967041015625,794.981689453125,784.908447265625
1407,799.4139404296875,791.7582397460938,796.996337890625,786.1171875
1408,794.5787353515625,790.1465454101562,794.981689453125,785.3113403320312
1409,786.5201416015625,789.7435913085938,795.7875366210938,790.5494384765625
1410,778.8644409179688,787.7289428710938,795.7875366210938,800.6226806640625
1411,779.2673950195312,786.1171875,799.4139404296875,804.2490844726562
1412,781.6849975585938,786.923095703125,801.8314819335938,795.7875366210938
1413,783.6996459960938,790.5494384765625,799.4139404296875,788.937744140625
1414,781.6849975585938,786.923095703125,796.1904907226562,788.5347900390625
1415,782.4908447265625,788.937744140625,791.7582397460938,790.5494384765625
1416,779.2673950195312,795.7875366210938,790.5494384765625,793.3699340820312
1417,784.908447265625,796.1904907226562,794.5787353515625,798.6080322265625
1418,796.996337890625,799.8168334960938,794.981689453125,799.8168334960938
1419,796.1904907226562,801.8314819335938,793.3699340820312,796.5933837890625
1420,795.3846435546875,801.8314819335938,793.3699340820312,795.7875366210938
1421,800.2197875976562,803.040283203125,795.7875366210938,800.2197875976562
1422,794.1758422851562,805.054931640625,799.8168334960938,807.4725341796875
1423,786.923095703125,803.040283203125,800.6226806640625,805.8607788085938
1424,790.1465454101562,800.2197875976562,802.2344360351562,801.4285888671875
1425,793.3699340820312,803.040283203125,801.025634765625,803.8461303710938
1426,792.967041015625,803.4432373046875,797.3992919921875,802.6373901367188
1427,793.7728881835938,801.025634765625,792.967041015625,794.1758422851562
1428,792.967041015625,801.025634765625,790.952392578125,790.952392578125
1429,785.7142944335938,799.8168334960938,793.7728881835938,805.054931640625
1430,787.3259887695312,803.8461303710938,794.5787353515625,804.2490844726562
1431,793.3699340820312,804.6520385742188,794.981689453125,792.967041015625
1432,788.5347900390625,796.1904907226562,793.7728881835938,792.1611938476562
1433,790.952392578125,793.7728881835938,796.996337890625,798.2051391601562
1434,795.3846435546875,795.7875366210938,799.4139404296875,798.6080322265625
1435,790.952392578125,796.996337890625,798.6080322265625,790.5494384765625
1436,796.1904907226562,796.996337890625,799.010986328125,794.5787353515625
1437,794.981689453125,791.3552856445312,792.967041015625,791.7582397460938
1438,779.6703491210938,790.1465454101562,787.7289428710938,783.2966918945312
1439,782.087890625,793.3699340820312,786.1171875,780.879150390625
1440,791.3552856445312,796.5933837890625,789.3406372070312,787.3259887695312
1441,789.3406372070312,798.2051391601562,793.3699340820312,794.981689453125
1442,788.5347900390625,795.7875366210938,791.3552856445312,792.1611938476562
1443,784.1025390625,789.3406372070312,789.7435913085938,781.6849975585938
1444,784.1025390625,785.3113403320312,787.3259887695312,785.7142944335938
1445,788.5347900390625,783.6996459960938,785.3113403320312,794.1758422851562
1446,782.087890625,784.908447265625,789.3406372070312,784.908447265625
1447,784.5054931640625,791.7582397460938,792.5640869140625,784.5054931640625
1448,792.1611938476562,795.7875366210938,792.5640869140625,793.7728881835938
1449,796.1904907226562,795.7875366210938,792.1611938476562,794.5787353515625
1450,801.8314819335938,800.2197875976562,794.981689453125,796.996337890625
1451,801.4285888671875,797.8021850585938,796.5933837890625,800.2197875976562
1452,796.996337890625,795.3846435546875,794.1758422851562,799.010986328125
1453,794.5787353515625,800.2197875976562,794.5787353515625,799.4139404296875
1454,796.996337890625,799.4139404296875,798.2051391601562,802.6373901367188
1455,793.7728881835938,796.1904907226562,800.2197875976562,802.2344360351562
1456,789.3406372070312,793.7728881835938,795.3846435546875,805.054931640625
1457,788.937744140625,792.1611938476562,793.3699340820312,802.2344360351562
1458,789.3406372070312,793.3699340820312,796.5933837890625,793.3699340820312
1459,790.952392578125,793.3699340820312,795.3846435546875,792.1611938476562
1460,792.967041015625,790.5494384765625,793.7728881835938,787.7289428710938
1461,789.7435913085938,790.5494384765625,792.5640869140625,783.6996459960938
1462,792.1611938476562,789.7435913085938,795.3846435546875,782.087890625
1463,795.7875366210938,784.908447265625,793.3699340820312,784.908447265625
1464,789.3406372070312,782.4908447265625,791.3552856445312,789.3406372070312
1465,786.5201416015625,783.6996459960938,790.5494384765625,786.923095703125
1466,788.1318969726562,788.5347900390625,789.7435913085938,789.7435913085938
1467,786.923095703125,789.7435913085938,791.3552856445312,791.7582397460938
1468,787.3259887695312,790.1465454101562,790.5494384765625,792.1611938476562
1469,792.967041015625,792.967041015625,792.1611938476562,792.1611938476562
1470,791.7582397460938,791.7582397460938,795.3846435546875,790.952392578125
1471,781.2820434570312,789.7435913085938,794.5787353515625,787.3259887695312
1472,777.2527465820312,787.7289428710938,795.3846435546875,792.1611938476562
1473,778.05859375,790.1465454101562,796.1904907226562,792.967041015625
1474,779.2673950195312,793.3699340820312,793.7728881835938,790.952392578125
1475,779.6703491210938,794.5787353515625,790.952392578125,786.5201416015625
1476,787.3259887695312,798.2051391601562,790.952392578125,786.1171875
1477,801.8314819335938,792.967041015625,789.3406372070312,794.5787353515625
1478,804.2490844726562,790.952392578125,790.5494384765625,792.1611938476562
1479,790.5494384765625,792.5640869140625,792.1611938476562,790.1465454101562
1480,780.4761962890625,790.5494384765625,787.3259887695312,788.937744140625
1481,779.6703491210938,789.7435913085938,788.1318969726562,785.7142944335938
1482,786.1171875,788.1318969726562,791.3552856445312,788.1318969726562
1483,788.5347900390625,792.1611938476562,794.981689453125,790.952392578125
1484,792.967041015625,794.981689453125,798.6080322265625,793.3699340820312
1485,792.5640869140625,793.7728881835938,794.981689453125,790.1465454101562
1486,794.1758422851562,794.5787353515625,794.981689453125,790.1465454101562
1487,797.8021850585938,796.996337890625,796.996337890625,789.3406372070312
1488,790.1465454101562,794.1758422851562,794.5787353515625,781.6849975585938
1489,786.1171875,793.7728881835938,792.967041015625,782.087890625
1490,788.1318969726562,795.7875366210938,792.5640869140625,783.6996459960938
1491,790.1465454101562,793.7728881835938,791.7582397460938,788.1318969726562
1492,802.6373901367188,794.5787353515625,789.3406372070312,792.1611938476562
1493,807.4725341796875,798.6080322265625,791.3552856445312,786.1171875
1494,791.7582397460938,796.996337890625,790.5494384765625,780.0732421875
1495,784.908447265625,792.967041015625,788.5347900390625,784.5054931640625
1496,790.5494384765625,793.3699340820312,793.3699340820312,785.7142944335938
1497,788.1318969726562,794.1758422851562,793.7728881835938,785.3113403320312
1498,780.4761962890625,789.7435913085938,795.3846435546875,788.5347900390625
1499,777.6557006835938,780.879150390625,794.981689453125,786.923095703125
1500,779.2673950195312,781.2820434570312,791.7582397460938,783.6996459960938
1501,788.5347900390625,788.5347900390625,793.7728881835938,782.893798828125
1502,798.6080322265625,792.5640869140625,798.2051391601562,787.3259887695312
1503,798.2051391601562,794.5787353515625,796.1904907226562,788.5347900390625
1504,788.1318969726562,794.1758422851562,790.1465454101562,787.3259887695312
1505,788.937744140625,790.952392578125,794.5787353515625,792.967041015625
1506,794.981689453125,793.7728881835938,795.7875366210938,796.5933837890625
1507,795.3846435546875,799.010986328125,797.3992919921875,797.3992919921875
1508,790.952392578125,795.3846435546875,794.5787353515625,791.3552856445312
1509,792.1611938476562,794.5787353515625,790.952392578125,790.1465454101562
1510,794.5787353515625,794.5787353515625,795.7875366210938,792.1611938476562
1511,793.3699340820312,792.5640869140625,798.6080322265625,789.3406372070312
1512,790.5494384765625,792.1611938476562,799.4139404296875,785.3113403320312
1513,781.2820434570312,788.937744140625,796.1904907226562,784.1025390625
1514,778.8644409179688,788.1318969726562,792.967041015625,785.7142944335938
1515,777.6557006835938,792.1611938476562,792.967041015625,784.908447265625
1516,781.6849975585938,794.5787353515625,795.7875366210938,788.1318969726562
1517,787.7289428710938,792.5640869140625,796.5933837890625,796.1904907226562
1518,791.7582397460938,789.7435913085938,792.5640869140625,799.4139404296875
1519,790.952392578125,790.1465454101562,794.1758422851562,794.5787353515625
1520,785.3113403320312,792.1611938476562,799.8168334960938,792.967041015625
1521,787.7289428710938,792.1611938476562,797.3992919921875,794.5787353515625
1522,788.5347900390625,792.1611938476562,794.5787353515625,794.1758422851562
1523,787.3259887695312,790.5494384765625,792.5640869140625,792.5640869140625
1524,790.952392578125,792.5640869140625,794.5787353515625,792.5640869140625
1525,793.3699340820312,792.1611938476562,796.5933837890625,793.7728881835938
1526,787.3259887695312,791.7582397460938,790.5494384765625,792.1611938476562
1527,784.908447265625,790.952392578125,790.5494384765625,790.1465454101562
1528,792.5640869140625,791.3552856445312,794.1758422851562,790.952392578125
1529,794.5787353515625,793.7728881835938,799.010986328125,792.5640869140625
1530,791.3552856445312,796.5933837890625,797.8021850585938,794.981689453125
1531,787.3259887695312,795.3846435546875,793.7728881835938,790.5494384765625
1532,784.5054931640625,791.7582397460938,794.981689453125,786.923095703125
1533,784.908447265625,790.1465454101562,801.4285888671875,788.5347900390625
1534,790.5494384765625,787.7289428710938,805.054931640625,789.7435913085938
1535,797.3992919921875,787.7289428710938,807.069580078125,792.1611938476562
1536,786.1171875,788.937744140625,806.6666870117188,794.5787353515625
1537,779.2673950195312,793.3699340820312,800.6226806640625,785.7142944335938
1538,782.087890625,792.967041015625,796.1904907226562,778.05859375
1539,780.879150390625,792.967041015625,792.967041015625,780.0732421875
1540,786.5201416015625,798.6080322265625,795.7875366210938,786.5201416015625
1541,796.996337890625,796.5933837890625,794.981689453125,792.1611938476562
1542,801.025634765625,795.3846435546875,794.1758422851562,792.967041015625
1543,799.8168334960938,796.5933837890625,796.5933837890625,788.1318969726562
1544,790.1465454101562,793.7728881835938,796.1904907226562,784.5054931640625
1545,779.6703491210938,790.952392578125,799.010986328125,790.1465454101562
1546,784.5054931640625,793.3699340820312,802.2344360351562,794.5787353515625
1547,791.7582397460938,798.2051391601562,797.3992919921875,794.981689453125
1548,788.937744140625,799.4139404296875,796.1904907226562,790.952392578125
1549,784.908447265625,796.1904907226562,797.3992919921875,791.7582397460938
1550,794.1758422851562,794.1758422851562,793.7728881835938,792.5640869140625
1551,796.5933837890625,798.6080322265625,795.7875366210938,790.5494384765625
1552,791.3552856445312,799.4139404296875,795.7875366210938,790.1465454101562
1553,796.1904907226562,793.7728881835938,792.5640869140625,788.5347900390625
1554,790.5494384765625,794.981689453125,794.5787353515625,787.3259887695312
1555,790.952392578125,797.3992919921875,795.7875366210938,786.5201416015625
1556,800.2197875976562,793.7728881835938,796.996337890625,790.952392578125
1557,794.1758422851562,794.1758422851562,795.3846435546875,786.1171875
1558,794.981689453125,793.7728881835938,793.3699340820312,780.4761962890625
1559,799.010986328125,795.3846435546875,792.967041015625,780.879150390625
1560,789.3406372070312,797.8021850585938,788.1318969726562,774.029296875
1561,785.7142944335938,793.3699340820312,786.923095703125,774.029296875
1562,782.893798828125,790.5494384765625,790.5494384765625,776.4468994140625
1563,773.2234497070312,791.7582397460938,793.3699340820312,772.0146484375
1564,772.4176025390625,790.5494384765625,789.3406372070312,774.4322509765625
1565,774.8351440429688,788.1318969726562,788.937744140625,782.893798828125
1566,774.029296875,788.1318969726562,793.3699340820312,780.0732421875
1567,778.4615478515625,788.1318969726562,792.1611938476562,783.6996459960938
1568,784.908447265625,791.7582397460938,790.5494384765625,797.8021850585938
1569,788.937744140625,796.1904907226562,792.5640869140625,798.2051391601562
1570,784.1025390625,794.981689453125,788.5347900390625,786.5201416015625
1571,780.4761962890625,791.7582397460938,789.3406372070312,786.923095703125
1572,785.3113403320312,789.7435913085938,789.3406372070312,786.1171875
1573,786.5201416015625,790.5494384765625,784.908447265625,786.5201416015625
1574,788.1318969726562,791.3552856445312,788.1318969726562,790.5494384765625
1575,790.5494384765625,792.5640869140625,792.1611938476562,788.5347900390625
1576,790.1465454101562,791.7582397460938,793.3699340820312,787.7289428710938
1577,789.7435913085938,793.3699340820312,795.7875366210938,789.3406372070312
1578,794.1758422851562,797.3992919921875,798.6080322265625,792.967041015625
1579,799.8168334960938,800.2197875976562,795.7875366210938,797.8021850585938
1580,800.2197875976562,800.6226806640625,790.952392578125,801.025634765625
1581,790.952392578125,798.2051391601562,789.3406372070312,789.7435913085938
1582,791.7582397460938,796.1904907226562,796.1904907226562,782.893798828125
1583,799.8168334960938,799.4139404296875,799.4139404296875,791.3552856445312
