timestamp,RAW_TP9,RAW_AF7,RAW_AF8,RAW_TP10
1,798.2051391601562,792.967041015625,787.3259887695312,796.1904907226562
2,803.8461303710938,795.3846435546875,788.1318969726562,801.025634765625
3,802.2344360351562,790.952392578125,791.7582397460938,797.8021850585938
4,795.3846435546875,784.5054931640625,791.3552856445312,794.981689453125
5,795.7875366210938,782.4908447265625,787.7289428710938,788.1318969726562
6,798.2051391601562,781.2820434570312,782.087890625,780.4761962890625
7,798.2051391601562,788.1318969726562,785.7142944335938,782.087890625
8,800.6226806640625,792.1611938476562,790.5494384765625,785.7142944335938
9,802.2344360351562,793.7728881835938,791.3552856445312,787.7289428710938
10,795.7875366210938,792.5640869140625,792.967041015625,786.5201416015625
11,788.5347900390625,789.3406372070312,792.1611938476562,782.893798828125
12,788.5347900390625,787.3259887695312,793.3699340820312,787.7289428710938
13,791.7582397460938,788.937744140625,796.1904907226562,796.996337890625
14,792.967041015625,790.5494384765625,794.5787353515625,790.952392578125
15,792.967041015625,790.1465454101562,788.5347900390625,786.5201416015625
16,788.5347900390625,787.7289428710938,790.5494384765625,792.967041015625
17,794.981689453125,786.923095703125,797.3992919921875,797.3992919921875
18,795.3846435546875,786.923095703125,798.6080322265625,792.967041015625
19,788.1318969726562,787.7289428710938,794.5787353515625,784.908447265625
20,793.3699340820312,791.7582397460938,795.7875366210938,790.1465454101562
21,792.967041015625,792.1611938476562,796.5933837890625,793.3699340820312
22,797.8021850585938,796.5933837890625,794.981689453125,786.5201416015625
23,804.2490844726562,799.4139404296875,796.1904907226562,785.7142944335938
24,799.4139404296875,796.5933837890625,794.1758422851562,788.937744140625
25,789.3406372070312,799.4139404296875,794.981689453125,787.7289428710938
26,786.923095703125,797.8021850585938,790.952392578125,782.4908447265625
27,790.5494384765625,795.7875366210938,788.5347900390625,781.2820434570312
28,796.996337890625,795.3846435546875,791.7582397460938,787.3259887695312
29,794.5787353515625,794.1758422851562,794.5787353515625,786.1171875
30,794.1758422851562,798.2051391601562,794.5787353515625,779.6703491210938
31,796.5933837890625,799.8168334960938,794.1758422851562,780.879150390625
32,797.3992919921875,800.2197875976562,792.5640869140625,782.4908447265625
33,793.3699340820312,799.4139404296875,788.937744140625,778.8644409179688
34,780.879150390625,787.7289428710938,784.5054931640625,770.8058471679688
35,778.05859375,786.5201416015625,791.3552856445312,770.8058471679688
36,776.8497924804688,796.996337890625,794.5787353515625,771.6116943359375
37,765.970703125,791.7582397460938,789.7435913085938,763.1502075195312
38,754.6886596679688,788.937744140625,785.3113403320312,750.6593627929688
39,754.6886596679688,810.6959838867188,778.05859375,753.8828125
40,744.6153564453125,819.1575317382812,781.2820434570312,753.076904296875
41,733.7362670898438,814.3223266601562,776.0439453125,732.930419921875
42,734.5421142578125,827.2161254882812,771.2088012695312,729.7069702148438
43,726.08056640625,844.945068359375,778.8644409179688,717.2161254882812
44,715.2014770507812,850.5860595703125,785.3113403320312,699.89013671875
45,713.99267578125,848.974365234375,772.4176025390625,700.6959838867188
46,692.2344360351562,852.6007080078125,765.1648559570312,684.1758422851562
47,664.8351440429688,853.4066162109375,771.2088012695312,662.0146484375
48,668.05859375,863.076904296875,771.2088012695312,660.8058471679688
49,682.1611938476562,869.9267578125,770.8058471679688,666.8497924804688
50,662.8204956054688,865.091552734375,769.1941528320312,645.8974609375
51,642.2710571289062,865.091552734375,772.8204956054688,633.003662109375
52,651.5384521484375,867.912109375,774.8351440429688,643.8828125
53,661.6116943359375,873.9560546875,774.4322509765625,645.4945068359375
54,666.8497924804688,876.7765502929688,774.8351440429688,647.106201171875
55,663.2234497070312,867.106201171875,774.029296875,653.5531005859375
56,661.2088012695312,859.8534545898438,770.0,657.9853515625
57,667.6557006835938,857.8388061523438,770.0,664.029296875
58,676.1171875,852.6007080078125,779.2673950195312,672.893798828125
59,694.6520385742188,852.6007080078125,784.908447265625,689.010986328125
60,706.7399291992188,850.989013671875,788.1318969726562,701.098876953125
61,713.1868286132812,844.5421142578125,791.7582397460938,707.94873046875
62,722.4542236328125,840.10986328125,788.5347900390625,717.2161254882812
63,732.5274658203125,832.8571166992188,784.5054931640625,734.945068359375
64,745.4212646484375,828.02197265625,787.7289428710938,745.8241577148438
65,753.076904296875,820.3662719726562,790.952392578125,747.032958984375
66,757.106201171875,805.8607788085938,794.5787353515625,761.1355590820312
67,759.120849609375,806.6666870117188,792.967041015625,769.5970458984375
68,757.5091552734375,799.8168334960938,785.3113403320312,767.1795043945312
69,765.970703125,787.7289428710938,785.7142944335938,774.029296875
70,774.8351440429688,781.6849975585938,788.937744140625,784.1025390625
71,781.2820434570312,778.05859375,791.3552856445312,790.5494384765625
72,789.3406372070312,778.8644409179688,791.3552856445312,797.8021850585938
73,800.6226806640625,778.8644409179688,792.1611938476562,801.025634765625
74,814.3223266601562,780.0732421875,790.1465454101562,811.90478515625
75,818.7545776367188,776.8497924804688,786.923095703125,816.3369750976562
76,816.3369750976562,773.2234497070312,795.3846435546875,810.2930297851562
77,814.7252807617188,774.8351440429688,799.010986328125,814.3223266601562
78,811.098876953125,771.6116943359375,795.7875366210938,818.7545776367188
79,816.3369750976562,766.3735961914062,794.1758422851562,822.3809814453125
80,819.5604248046875,762.7472534179688,791.3552856445312,819.1575317382812
81,822.3809814453125,763.5531005859375,791.7582397460938,817.94873046875
82,831.2454223632812,768.3883056640625,790.952392578125,819.96337890625
83,834.06591796875,767.9853515625,789.7435913085938,816.3369750976562
84,835.6776733398438,765.970703125,784.1025390625,821.1721801757812
85,841.3186645507812,769.5970458984375,782.087890625,833.6630249023438
86,840.10986328125,768.3883056640625,789.3406372070312,842.5274658203125
87,838.901123046875,770.8058471679688,794.1758422851562,841.3186645507812
88,842.12451171875,767.1795043945312,792.967041015625,836.4835205078125
89,846.5567626953125,763.9560546875,793.3699340820312,840.10986328125
90,846.1538696289062,767.9853515625,799.010986328125,849.3773193359375
91,842.12451171875,763.9560546875,798.6080322265625,850.989013671875
92,838.09521484375,763.9560546875,796.5933837890625,843.7362670898438
93,832.8571166992188,765.970703125,798.6080322265625,837.6923217773438
94,828.4249267578125,765.5677490234375,795.3846435546875,836.4835205078125
95,827.6190185546875,765.1648559570312,790.5494384765625,830.03662109375
96,830.4395751953125,766.3735961914062,795.3846435546875,828.8278198242188
97,830.8424682617188,767.1795043945312,797.3992919921875,832.4542236328125
98,832.05126953125,768.3883056640625,796.1904907226562,834.8717651367188
99,834.4688720703125,767.1795043945312,794.981689453125,823.5897216796875
100,840.10986328125,769.1941528320312,790.1465454101562,820.7692260742188
101,842.5274658203125,770.0,789.3406372070312,823.1868286132812
102,833.2600708007812,770.4029541015625,787.3259887695312,817.1428833007812
103,831.6483764648438,774.8351440429688,785.7142944335938,815.5311279296875
104,828.8278198242188,772.8204956054688,788.1318969726562,811.5018310546875
105,828.02197265625,769.1941528320312,789.7435913085938,817.94873046875
106,830.03662109375,771.2088012695312,788.937744140625,820.3662719726562
107,825.2014770507812,770.0,784.5054931640625,811.5018310546875
108,820.3662719726562,768.7911987304688,782.893798828125,811.5018310546875
109,823.1868286132812,771.6116943359375,785.3113403320312,821.5750732421875
110,830.03662109375,774.4322509765625,788.937744140625,822.3809814453125
111,832.8571166992188,774.8351440429688,792.1611938476562,817.5457763671875
112,830.03662109375,770.4029541015625,793.3699340820312,817.1428833007812
113,829.6337280273438,770.8058471679688,792.5640869140625,820.3662719726562
114,830.4395751953125,770.4029541015625,789.3406372070312,821.1721801757812
115,829.2307739257812,767.9853515625,789.7435913085938,821.1721801757812
116,825.2014770507812,763.1502075195312,792.967041015625,823.1868286132812
117,817.5457763671875,760.7326049804688,792.1611938476562,818.7545776367188
118,815.5311279296875,768.7911987304688,797.3992919921875,820.7692260742188
119,815.1282348632812,771.2088012695312,798.2051391601562,821.97802734375
120,813.5164794921875,768.7911987304688,798.2051391601562,822.3809814453125
121,809.89013671875,770.4029541015625,800.2197875976562,823.1868286132812
122,804.6520385742188,775.6410522460938,801.4285888671875,809.89013671875
123,803.8461303710938,782.4908447265625,797.8021850585938,809.89013671875
124,808.2783813476562,778.05859375,794.981689453125,811.5018310546875
125,813.5164794921875,776.4468994140625,795.7875366210938,807.87548828125
126,817.94873046875,778.05859375,794.981689453125,807.4725341796875
127,818.7545776367188,778.8644409179688,797.3992919921875,807.4725341796875
128,816.7399291992188,784.1025390625,799.8168334960938,807.069580078125
129,813.5164794921875,786.5201416015625,796.996337890625,805.4578857421875
130,812.3076782226562,784.1025390625,794.1758422851562,801.8314819335938
131,811.098876953125,785.7142944335938,791.7582397460938,802.6373901367188
132,812.7106323242188,782.087890625,790.5494384765625,805.8607788085938
133,811.90478515625,780.879150390625,788.937744140625,802.2344360351562
134,799.4139404296875,784.5054931640625,786.923095703125,799.010986328125
135,797.8021850585938,782.087890625,788.1318969726562,805.8607788085938
136,796.5933837890625,782.087890625,790.5494384765625,814.7252807617188
137,792.5640869140625,779.6703491210938,789.3406372070312,806.6666870117188
138,796.996337890625,779.2673950195312,790.952392578125,799.010986328125
139,803.040283203125,780.0732421875,788.5347900390625,796.996337890625
140,806.6666870117188,780.0732421875,786.923095703125,796.996337890625
141,801.8314819335938,778.8644409179688,792.5640869140625,798.2051391601562
142,798.2051391601562,778.05859375,788.5347900390625,799.4139404296875
143,801.8314819335938,779.6703491210938,783.6996459960938,800.2197875976562
144,800.2197875976562,779.2673950195312,788.937744140625,796.5933837890625
145,794.981689453125,786.1171875,791.3552856445312,796.1904907226562
146,793.3699340820312,783.6996459960938,789.7435913085938,792.1611938476562
147,790.952392578125,778.8644409179688,791.7582397460938,792.967041015625
148,785.3113403320312,780.4761962890625,794.1758422851562,797.8021850585938
149,788.1318969726562,782.087890625,794.981689453125,788.1318969726562
150,798.6080322265625,782.087890625,792.1611938476562,784.5054931640625
151,808.2783813476562,783.6996459960938,789.7435913085938,788.5347900390625
152,810.2930297851562,787.7289428710938,791.3552856445312,788.1318969726562
153,805.054931640625,788.5347900390625,789.3406372070312,783.2966918945312
154,801.8314819335938,789.3406372070312,791.3552856445312,779.6703491210938
155,803.8461303710938,788.5347900390625,795.7875366210938,778.8644409179688
156,807.87548828125,790.5494384765625,790.952392578125,777.2527465820312
157,808.6813354492188,793.7728881835938,786.923095703125,778.8644409179688
158,803.040283203125,795.3846435546875,787.7289428710938,780.0732421875
159,794.1758422851562,790.5494384765625,785.7142944335938,775.6410522460938
160,786.1171875,788.937744140625,784.5054931640625,773.6264038085938
161,782.893798828125,790.952392578125,783.6996459960938,772.8204956054688
162,784.1025390625,791.3552856445312,777.2527465820312,771.2088012695312
163,779.6703491210938,789.3406372070312,776.8497924804688,770.8058471679688
164,782.087890625,789.7435913085938,777.2527465820312,774.8351440429688
165,788.5347900390625,793.7728881835938,779.6703491210938,784.908447265625
166,795.3846435546875,793.7728881835938,782.087890625,789.3406372070312
167,794.5787353515625,793.7728881835938,780.4761962890625,791.3552856445312
168,789.7435913085938,792.967041015625,782.4908447265625,796.1904907226562
169,786.5201416015625,791.3552856445312,785.7142944335938,794.981689453125
170,784.1025390625,788.1318969726562,784.1025390625,795.3846435546875
171,787.7289428710938,782.087890625,785.3113403320312,799.010986328125
172,789.7435913085938,784.5054931640625,786.923095703125,797.3992919921875
173,794.981689453125,788.5347900390625,786.923095703125,795.7875366210938
174,796.996337890625,790.5494384765625,792.5640869140625,794.5787353515625
175,794.981689453125,790.1465454101562,792.1611938476562,792.5640869140625
176,800.6226806640625,788.5347900390625,789.7435913085938,792.5640869140625
177,802.2344360351562,789.7435913085938,790.1465454101562,792.1611938476562
178,799.010986328125,791.3552856445312,794.5787353515625,792.1611938476562
179,796.1904907226562,794.981689453125,800.2197875976562,790.952392578125
180,796.1904907226562,795.3846435546875,801.8314819335938,787.3259887695312
181,796.1904907226562,791.7582397460938,798.2051391601562,783.6996459960938
182,795.7875366210938,787.3259887695312,796.1904907226562,788.937744140625
183,795.3846435546875,780.879150390625,792.967041015625,778.05859375
184,792.5640869140625,782.087890625,792.5640869140625,767.9853515625
185,792.967041015625,788.5347900390625,794.981689453125,776.4468994140625
186,799.010986328125,790.5494384765625,794.5787353515625,777.2527465820312
187,799.8168334960938,788.937744140625,794.5787353515625,773.6264038085938
188,797.3992919921875,790.1465454101562,795.3846435546875,779.2673950195312
189,789.3406372070312,789.7435913085938,796.1904907226562,783.2966918945312
190,784.908447265625,790.952392578125,793.3699340820312,783.6996459960938
191,787.7289428710938,792.1611938476562,791.3552856445312,784.1025390625
192,791.7582397460938,792.5640869140625,793.3699340820312,789.3406372070312
193,794.1758422851562,791.7582397460938,793.3699340820312,796.5933837890625
194,790.5494384765625,791.3552856445312,790.952392578125,799.4139404296875
195,785.3113403320312,795.3846435546875,789.7435913085938,791.7582397460938
196,787.3259887695312,793.7728881835938,792.1611938476562,788.937744140625
197,791.7582397460938,793.3699340820312,790.5494384765625,787.3259887695312
198,786.923095703125,791.3552856445312,788.5347900390625,779.2673950195312
199,784.1025390625,787.7289428710938,790.1465454101562,774.4322509765625
200,781.2820434570312,784.908447265625,788.937744140625,773.2234497070312
201,784.5054931640625,785.3113403320312,788.1318969726562,771.2088012695312
202,790.1465454101562,783.6996459960938,786.1171875,772.0146484375
203,792.5640869140625,785.7142944335938,787.3259887695312,774.4322509765625
204,796.1904907226562,790.1465454101562,792.967041015625,773.2234497070312
205,792.5640869140625,791.3552856445312,792.967041015625,780.879150390625
206,793.3699340820312,792.5640869140625,796.996337890625,786.5201416015625
207,800.6226806640625,789.7435913085938,801.025634765625,781.6849975585938
208,800.6226806640625,790.5494384765625,799.010986328125,779.6703491210938
209,791.7582397460938,792.5640869140625,798.2051391601562,776.8497924804688
210,785.3113403320312,792.967041015625,793.7728881835938,772.8204956054688
211,785.3113403320312,791.7582397460938,791.3552856445312,770.4029541015625
212,790.952392578125,792.1611938476562,795.7875366210938,777.2527465820312
213,796.1904907226562,790.1465454101562,795.7875366210938,784.908447265625
214,789.3406372070312,786.923095703125,790.5494384765625,781.6849975585938
215,789.7435913085938,787.7289428710938,789.3406372070312,773.6264038085938
216,786.923095703125,786.5201416015625,792.1611938476562,779.6703491210938
217,783.6996459960938,785.7142944335938,794.5787353515625,788.937744140625
218,791.7582397460938,790.952392578125,792.5640869140625,785.3113403320312
219,785.3113403320312,794.981689453125,789.7435913085938,781.6849975585938
220,779.2673950195312,791.3552856445312,789.3406372070312,786.5201416015625
221,787.7289428710938,791.7582397460938,790.952392578125,792.967041015625
222,796.5933837890625,794.981689453125,792.1611938476562,790.5494384765625
223,797.8021850585938,791.3552856445312,789.3406372070312,780.879150390625
224,794.981689453125,790.1465454101562,785.3113403320312,775.6410522460938
225,794.1758422851562,790.1465454101562,787.7289428710938,782.087890625
226,790.5494384765625,786.5201416015625,789.7435913085938,784.1025390625
227,784.1025390625,785.7142944335938,788.1318969726562,782.4908447265625
228,788.937744140625,788.937744140625,787.7289428710938,788.5347900390625
229,788.937744140625,791.3552856445312,784.908447265625,786.5201416015625
230,782.4908447265625,790.952392578125,786.1171875,779.2673950195312
231,781.6849975585938,789.7435913085938,788.937744140625,777.6557006835938
232,785.7142944335938,790.1465454101562,790.952392578125,783.6996459960938
233,782.087890625,792.5640869140625,790.1465454101562,775.2380981445312
234,786.5201416015625,794.5787353515625,788.5347900390625,773.2234497070312
235,782.087890625,789.3406372070312,790.952392578125,775.2380981445312
236,773.6264038085938,785.7142944335938,789.7435913085938,774.029296875
237,783.2966918945312,787.3259887695312,791.7582397460938,776.8497924804688
238,786.5201416015625,786.923095703125,792.1611938476562,780.4761962890625
239,785.3113403320312,786.923095703125,791.3552856445312,784.1025390625
240,784.5054931640625,783.6996459960938,792.967041015625,778.05859375
241,778.4615478515625,782.893798828125,792.5640869140625,778.4615478515625
242,780.4761962890625,789.3406372070312,794.1758422851562,784.908447265625
243,785.7142944335938,788.5347900390625,794.5787353515625,784.908447265625
244,785.3113403320312,786.923095703125,791.7582397460938,787.3259887695312
245,780.879150390625,790.952392578125,790.952392578125,786.1171875
246,775.6410522460938,788.1318969726562,788.5347900390625,782.4908447265625
247,776.4468994140625,782.087890625,787.7289428710938,785.7142944335938
248,780.4761962890625,783.2966918945312,788.5347900390625,788.1318969726562
249,789.3406372070312,786.923095703125,791.3552856445312,785.3113403320312
250,796.996337890625,784.5054931640625,793.3699340820312,785.3113403320312
251,800.2197875976562,786.1171875,794.981689453125,789.3406372070312
252,806.2637329101562,791.3552856445312,794.981689453125,792.5640869140625
253,809.4871826171875,797.3992919921875,795.3846435546875,798.6080322265625
254,804.6520385742188,800.6226806640625,794.5787353515625,800.6226806640625
255,794.981689453125,797.3992919921875,797.3992919921875,799.4139404296875
256,793.3699340820312,798.6080322265625,797.8021850585938,793.7728881835938
257,796.996337890625,797.8021850585938,798.2051391601562,788.937744140625
258,797.8021850585938,796.5933837890625,801.4285888671875,794.1758422851562
259,800.6226806640625,799.4139404296875,801.4285888671875,802.2344360351562
260,794.5787353515625,794.5787353515625,800.2197875976562,801.025634765625
261,788.5347900390625,795.3846435546875,800.2197875976562,797.3992919921875
262,788.5347900390625,794.981689453125,799.010986328125,796.1904907226562
263,788.937744140625,792.1611938476562,797.8021850585938,793.3699340820312
264,789.7435913085938,790.1465454101562,793.3699340820312,788.1318969726562
265,788.937744140625,790.5494384765625,793.3699340820312,785.7142944335938
266,788.5347900390625,790.952392578125,795.7875366210938,789.7435913085938
267,788.1318969726562,787.7289428710938,794.5787353515625,790.1465454101562
268,788.937744140625,793.3699340820312,792.967041015625,785.7142944335938
269,788.5347900390625,793.3699340820312,796.996337890625,788.1318969726562
270,790.5494384765625,788.1318969726562,801.025634765625,791.3552856445312
271,791.3552856445312,790.1465454101562,801.4285888671875,788.1318969726562
272,784.5054931640625,788.5347900390625,799.010986328125,779.2673950195312
273,788.1318969726562,786.5201416015625,797.8021850585938,782.087890625
274,796.5933837890625,786.5201416015625,797.3992919921875,788.1318969726562
275,794.981689453125,787.3259887695312,795.7875366210938,786.923095703125
276,790.952392578125,785.7142944335938,798.2051391601562,784.1025390625
277,787.3259887695312,788.1318969726562,792.967041015625,782.4908447265625
278,786.5201416015625,792.5640869140625,788.1318969726562,791.3552856445312
279,790.952392578125,792.1611938476562,788.937744140625,789.7435913085938
280,799.8168334960938,789.3406372070312,789.3406372070312,787.7289428710938
281,796.5933837890625,786.1171875,790.5494384765625,790.5494384765625
282,788.5347900390625,786.1171875,790.1465454101562,790.1465454101562
283,789.3406372070312,788.5347900390625,788.937744140625,790.952392578125
284,794.1758422851562,788.937744140625,790.1465454101562,791.7582397460938
285,791.3552856445312,791.7582397460938,788.1318969726562,793.3699340820312
286,787.3259887695312,788.1318969726562,784.908447265625,790.1465454101562
287,789.3406372070312,784.1025390625,784.908447265625,786.923095703125
288,787.7289428710938,790.952392578125,788.1318969726562,788.937744140625
289,789.7435913085938,791.3552856445312,791.3552856445312,796.996337890625
290,791.7582397460938,790.952392578125,791.7582397460938,796.1904907226562
291,793.7728881835938,790.1465454101562,791.7582397460938,792.5640869140625
292,792.967041015625,786.1171875,790.5494384765625,792.5640869140625
293,793.7728881835938,781.2820434570312,787.7289428710938,793.3699340820312
294,801.025634765625,788.5347900390625,788.1318969726562,803.040283203125
295,800.6226806640625,793.7728881835938,788.1318969726562,800.2197875976562
296,793.3699340820312,788.5347900390625,788.1318969726562,792.967041015625
297,788.1318969726562,788.5347900390625,788.1318969726562,798.2051391601562
298,785.7142944335938,787.7289428710938,784.5054931640625,796.5933837890625
299,784.908447265625,787.3259887695312,782.4908447265625,788.937744140625
300,790.1465454101562,786.1171875,786.923095703125,794.1758422851562
301,788.1318969726562,783.2966918945312,789.3406372070312,793.3699340820312
302,784.5054931640625,784.908447265625,787.7289428710938,782.893798828125
303,789.7435913085938,784.5054931640625,786.1171875,778.4615478515625
304,796.5933837890625,784.908447265625,783.2966918945312,785.3113403320312
305,800.2197875976562,788.937744140625,786.5201416015625,795.7875366210938
306,801.4285888671875,790.952392578125,788.1318969726562,794.981689453125
307,801.025634765625,790.952392578125,785.3113403320312,790.952392578125
308,798.6080322265625,792.1611938476562,785.3113403320312,781.6849975585938
309,797.8021850585938,792.5640869140625,785.7142944335938,783.2966918945312
310,790.5494384765625,791.7582397460938,788.1318969726562,788.937744140625
311,786.5201416015625,789.3406372070312,784.5054931640625,781.2820434570312
312,781.6849975585938,788.5347900390625,784.1025390625,776.4468994140625
313,780.0732421875,794.1758422851562,789.3406372070312,781.6849975585938
314,786.5201416015625,796.5933837890625,792.967041015625,786.5201416015625
315,790.1465454101562,790.5494384765625,796.5933837890625,784.5054931640625
316,788.937744140625,787.7289428710938,796.5933837890625,786.923095703125
317,782.893798828125,785.7142944335938,789.7435913085938,786.1171875
318,777.2527465820312,784.1025390625,790.952392578125,782.087890625
319,782.893798828125,784.1025390625,796.1904907226562,788.1318969726562
320,790.952392578125,785.3113403320312,797.3992919921875,787.7289428710938
321,788.1318969726562,787.3259887695312,798.6080322265625,786.1171875
322,780.0732421875,786.1171875,792.967041015625,783.2966918945312
323,779.6703491210938,783.6996459960938,792.967041015625,777.2527465820312
324,784.1025390625,782.4908447265625,794.5787353515625,777.6557006835938
325,786.923095703125,785.3113403320312,791.7582397460938,778.4615478515625
326,786.923095703125,787.3259887695312,788.1318969726562,778.8644409179688
327,785.3113403320312,785.7142944335938,786.1171875,775.6410522460938
328,790.1465454101562,784.5054931640625,788.1318969726562,777.6557006835938
329,794.981689453125,786.5201416015625,790.5494384765625,778.4615478515625
330,797.3992919921875,785.7142944335938,789.3406372070312,778.4615478515625
331,801.4285888671875,782.893798828125,786.1171875,782.893798828125
332,798.2051391601562,786.5201416015625,784.908447265625,784.5054931640625
333,796.5933837890625,791.3552856445312,786.923095703125,784.1025390625
334,799.010986328125,788.5347900390625,789.3406372070312,784.1025390625
335,799.010986328125,787.3259887695312,787.7289428710938,784.5054931640625
336,792.5640869140625,785.3113403320312,785.7142944335938,785.7142944335938
337,790.952392578125,782.893798828125,790.1465454101562,786.1171875
338,793.3699340820312,790.1465454101562,796.1904907226562,787.7289428710938
339,796.1904907226562,788.937744140625,801.025634765625,795.3846435546875
340,793.3699340820312,787.7289428710938,798.6080322265625,796.5933837890625
341,790.1465454101562,788.5347900390625,792.967041015625,788.1318969726562
342,793.7728881835938,786.923095703125,794.1758422851562,786.923095703125
343,791.7582397460938,789.3406372070312,794.981689453125,787.3259887695312
344,789.3406372070312,791.3552856445312,791.3552856445312,785.7142944335938
345,793.3699340820312,787.3259887695312,789.3406372070312,781.2820434570312
346,791.7582397460938,785.7142944335938,789.3406372070312,776.0439453125
347,788.5347900390625,786.923095703125,787.7289428710938,778.05859375
348,788.5347900390625,786.1171875,787.7289428710938,776.8497924804688
349,790.1465454101562,786.5201416015625,790.5494384765625,780.879150390625
350,793.3699340820312,786.5201416015625,791.3552856445312,788.937744140625
351,792.1611938476562,785.7142944335938,790.952392578125,788.937744140625
352,790.952392578125,785.7142944335938,790.952392578125,786.1171875
353,794.981689453125,789.3406372070312,795.7875366210938,787.7289428710938
354,796.996337890625,794.1758422851562,794.5787353515625,789.3406372070312
355,795.7875366210938,796.5933837890625,791.3552856445312,786.923095703125
356,796.5933837890625,792.1611938476562,790.952392578125,785.3113403320312
357,794.5787353515625,790.1465454101562,788.1318969726562,784.908447265625
358,792.5640869140625,792.967041015625,792.967041015625,787.7289428710938
359,796.5933837890625,794.1758422851562,794.1758422851562,789.7435913085938
360,797.3992919921875,789.7435913085938,791.3552856445312,786.923095703125
361,796.996337890625,786.1171875,794.981689453125,784.5054931640625
362,795.7875366210938,783.6996459960938,795.3846435546875,790.5494384765625
363,783.6996459960938,783.2966918945312,792.1611938476562,794.981689453125
364,778.05859375,781.6849975585938,790.5494384765625,785.3113403320312
365,784.908447265625,780.0732421875,793.7728881835938,784.1025390625
366,790.5494384765625,784.908447265625,793.7728881835938,788.5347900390625
367,787.3259887695312,787.7289428710938,787.3259887695312,786.5201416015625
368,791.7582397460938,787.7289428710938,788.937744140625,789.3406372070312
369,796.1904907226562,784.5054931640625,791.7582397460938,789.7435913085938
370,789.7435913085938,784.1025390625,789.3406372070312,788.5347900390625
371,794.5787353515625,786.5201416015625,788.1318969726562,789.7435913085938
372,800.6226806640625,788.5347900390625,784.5054931640625,782.4908447265625
373,801.8314819335938,789.3406372070312,785.7142944335938,781.6849975585938
374,801.8314819335938,792.1611938476562,789.7435913085938,787.7289428710938
375,799.010986328125,795.7875366210938,788.937744140625,788.1318969726562
376,798.2051391601562,796.1904907226562,790.5494384765625,785.7142944335938
377,802.2344360351562,794.1758422851562,791.3552856445312,785.3113403320312
378,801.4285888671875,792.5640869140625,789.7435913085938,786.923095703125
379,796.996337890625,792.5640869140625,793.7728881835938,789.7435913085938
380,795.3846435546875,794.1758422851562,794.981689453125,782.893798828125
381,796.5933837890625,792.5640869140625,792.967041015625,782.4908447265625
382,796.5933837890625,789.3406372070312,793.3699340820312,783.6996459960938
383,797.3992919921875,790.1465454101562,796.1904907226562,784.5054931640625
384,792.967041015625,790.952392578125,793.7728881835938,782.087890625
385,785.3113403320312,789.7435913085938,792.967041015625,786.923095703125
386,784.5054931640625,786.5201416015625,796.1904907226562,792.5640869140625
387,782.4908447265625,784.908447265625,794.5787353515625,784.908447265625
388,783.6996459960938,783.6996459960938,793.7728881835938,785.7142944335938
389,784.1025390625,782.893798828125,790.5494384765625,786.923095703125
390,782.893798828125,784.5054931640625,792.967041015625,784.1025390625
391,787.3259887695312,783.6996459960938,793.3699340820312,784.5054931640625
392,792.1611938476562,785.3113403320312,792.1611938476562,789.3406372070312
393,794.981689453125,788.1318969726562,794.981689453125,792.1611938476562
394,800.6226806640625,786.923095703125,796.5933837890625,796.5933837890625
395,803.040283203125,790.952392578125,792.967041015625,796.1904907226562
396,801.8314819335938,790.1465454101562,788.1318969726562,790.5494384765625
397,804.2490844726562,788.5347900390625,790.1465454101562,797.3992919921875
398,807.87548828125,790.5494384765625,793.3699340820312,796.1904907226562
399,806.2637329101562,792.967041015625,793.7728881835938,792.967041015625
400,803.8461303710938,797.3992919921875,792.5640869140625,797.8021850585938
401,805.4578857421875,794.1758422851562,789.3406372070312,794.981689453125
402,807.87548828125,792.5640869140625,789.3406372070312,794.5787353515625
403,803.8461303710938,790.5494384765625,792.967041015625,796.996337890625
404,793.3699340820312,790.1465454101562,795.3846435546875,792.967041015625
405,793.3699340820312,794.5787353515625,796.5933837890625,792.1611938476562
406,798.2051391601562,793.3699340820312,799.8168334960938,796.5933837890625
407,796.5933837890625,788.1318969726562,800.2197875976562,793.3699340820312
408,798.2051391601562,788.5347900390625,800.2197875976562,796.996337890625
409,792.967041015625,788.5347900390625,802.6373901367188,796.996337890625
410,783.6996459960938,791.3552856445312,799.4139404296875,790.952392578125
411,782.087890625,791.7582397460938,795.3846435546875,788.1318969726562
412,782.087890625,794.1758422851562,799.8168334960938,786.923095703125
413,780.879150390625,790.952392578125,798.6080322265625,785.7142944335938
414,782.087890625,791.7582397460938,796.5933837890625,778.05859375
415,781.2820434570312,792.1611938476562,796.1904907226562,778.05859375
416,782.4908447265625,788.937744140625,792.1611938476562,778.8644409179688
417,789.7435913085938,789.7435913085938,793.7728881835938,781.6849975585938
418,792.5640869140625,790.5494384765625,790.952392578125,781.2820434570312
419,797.8021850585938,794.1758422851562,792.967041015625,782.087890625
420,801.8314819335938,790.1465454101562,797.8021850585938,789.7435913085938
421,801.4285888671875,788.5347900390625,794.1758422851562,789.7435913085938
422,803.040283203125,791.7582397460938,793.3699340820312,787.7289428710938
423,806.2637329101562,789.7435913085938,791.3552856445312,789.7435913085938
424,809.4871826171875,790.1465454101562,794.5787353515625,790.1465454101562
425,803.040283203125,789.7435913085938,796.5933837890625,790.5494384765625
426,801.4285888671875,793.3699340820312,793.7728881835938,799.4139404296875
427,801.025634765625,792.1611938476562,793.7728881835938,799.8168334960938
428,792.967041015625,788.1318969726562,793.7728881835938,795.3846435546875
429,789.3406372070312,790.952392578125,792.967041015625,796.5933837890625
430,791.3552856445312,792.967041015625,790.1465454101562,794.981689453125
431,790.1465454101562,794.981689453125,788.937744140625,795.7875366210938
432,788.5347900390625,790.952392578125,787.3259887695312,796.5933837890625
433,790.5494384765625,791.3552856445312,789.3406372070312,795.3846435546875
434,791.3552856445312,797.3992919921875,789.3406372070312,799.8168334960938
435,788.1318969726562,795.7875366210938,790.1465454101562,801.4285888671875
436,788.1318969726562,792.1611938476562,789.7435913085938,800.6226806640625
437,786.923095703125,790.952392578125,785.7142944335938,790.1465454101562
438,790.5494384765625,791.3552856445312,788.1318969726562,786.5201416015625
439,794.981689453125,791.3552856445312,791.7582397460938,787.7289428710938
440,792.1611938476562,790.5494384765625,795.3846435546875,783.6996459960938
441,787.3259887695312,787.7289428710938,791.7582397460938,779.2673950195312
442,781.6849975585938,785.7142944335938,790.1465454101562,778.05859375
443,785.7142944335938,787.3259887695312,794.1758422851562,778.05859375
444,794.981689453125,791.3552856445312,792.1611938476562,780.879150390625
445,790.1465454101562,793.3699340820312,792.967041015625,778.8644409179688
446,782.087890625,786.1171875,793.7728881835938,774.4322509765625
447,787.3259887695312,784.5054931640625,792.1611938476562,786.923095703125
448,791.7582397460938,784.908447265625,794.1758422851562,786.923095703125
449,788.1318969726562,782.893798828125,794.981689453125,770.8058471679688
450,786.5201416015625,782.893798828125,796.1904907226562,773.6264038085938
451,782.893798828125,780.879150390625,794.1758422851562,772.0146484375
452,783.2966918945312,777.6557006835938,790.5494384765625,768.7911987304688
453,788.1318969726562,779.6703491210938,787.3259887695312,779.2673950195312
454,787.3259887695312,778.8644409179688,789.7435913085938,782.893798828125
455,786.5201416015625,778.4615478515625,791.3552856445312,784.5054931640625
456,784.5054931640625,782.893798828125,788.937744140625,784.1025390625
457,785.3113403320312,784.5054931640625,788.937744140625,780.0732421875
458,791.7582397460938,784.1025390625,786.5201416015625,786.1171875
459,796.5933837890625,789.7435913085938,786.923095703125,800.2197875976562
460,792.967041015625,791.3552856445312,790.1465454101562,796.996337890625
461,798.2051391601562,790.1465454101562,793.3699340820312,792.5640869140625
462,804.2490844726562,793.7728881835938,792.1611938476562,795.7875366210938
463,807.069580078125,797.3992919921875,789.3406372070312,797.3992919921875
464,810.6959838867188,799.4139404296875,788.5347900390625,796.5933837890625
465,799.8168334960938,798.2051391601562,792.5640869140625,792.967041015625
466,788.937744140625,791.7582397460938,792.5640869140625,786.1171875
467,788.1318969726562,791.3552856445312,789.7435913085938,782.087890625
468,792.967041015625,790.952392578125,792.5640869140625,784.1025390625
469,796.5933837890625,785.7142944335938,792.967041015625,780.879150390625
470,791.3552856445312,784.1025390625,793.7728881835938,781.6849975585938
471,790.1465454101562,789.7435913085938,796.5933837890625,785.3113403320312
472,793.3699340820312,792.1611938476562,798.2051391601562,780.4761962890625
473,790.952392578125,792.5640869140625,795.7875366210938,779.2673950195312
474,790.5494384765625,790.1465454101562,795.7875366210938,781.6849975585938
475,793.7728881835938,791.3552856445312,796.5933837890625,783.6996459960938
476,788.937744140625,790.1465454101562,794.981689453125,785.3113403320312
477,783.6996459960938,788.5347900390625,793.7728881835938,779.2673950195312
478,784.908447265625,792.5640869140625,794.5787353515625,782.087890625
479,791.7582397460938,794.981689453125,793.3699340820312,789.3406372070312
480,793.7728881835938,796.996337890625,790.952392578125,787.7289428710938
481,789.7435913085938,796.996337890625,789.3406372070312,789.3406372070312
482,788.5347900390625,794.5787353515625,789.7435913085938,791.3552856445312
483,790.5494384765625,799.4139404296875,794.1758422851562,793.7728881835938
484,793.7728881835938,800.2197875976562,792.5640869140625,795.3846435546875
485,797.8021850585938,793.7728881835938,792.967041015625,794.1758422851562
486,793.3699340820312,791.7582397460938,792.5640869140625,792.1611938476562
487,783.6996459960938,794.981689453125,788.1318969726562,788.5347900390625
488,784.5054931640625,795.3846435546875,790.1465454101562,788.1318969726562
489,797.8021850585938,797.3992919921875,796.1904907226562,797.3992919921875
490,795.3846435546875,800.6226806640625,799.8168334960938,796.5933837890625
491,784.1025390625,797.3992919921875,800.2197875976562,785.7142944335938
492,783.6996459960938,792.967041015625,798.2051391601562,784.5054931640625
493,784.908447265625,792.967041015625,794.5787353515625,790.952392578125
494,786.1171875,796.1904907226562,794.1758422851562,787.7289428710938
495,791.3552856445312,792.1611938476562,794.981689453125,782.087890625
496,787.3259887695312,789.3406372070312,793.7728881835938,779.2673950195312
497,787.7289428710938,791.3552856445312,792.967041015625,781.2820434570312
498,787.3259887695312,791.7582397460938,793.3699340820312,782.087890625
499,783.2966918945312,790.5494384765625,796.1904907226562,778.05859375
500,786.1171875,789.3406372070312,794.1758422851562,777.2527465820312
501,783.2966918945312,788.5347900390625,795.7875366210938,778.8644409179688
502,782.4908447265625,790.952392578125,799.010986328125,775.6410522460938
503,783.6996459960938,792.1611938476562,795.3846435546875,773.6264038085938
504,781.6849975585938,790.5494384765625,792.5640869140625,776.4468994140625
505,792.1611938476562,791.3552856445312,796.1904907226562,786.1171875
506,800.6226806640625,787.3259887695312,795.7875366210938,784.1025390625
507,796.1904907226562,786.923095703125,796.996337890625,778.4615478515625
508,794.5787353515625,787.7289428710938,794.981689453125,781.2820434570312
509,796.996337890625,790.5494384765625,792.1611938476562,784.908447265625
510,796.996337890625,793.3699340820312,796.996337890625,785.3113403320312
511,790.1465454101562,789.3406372070312,797.3992919921875,786.5201416015625
512,787.7289428710938,790.5494384765625,792.967041015625,786.923095703125
513,790.1465454101562,794.981689453125,791.3552856445312,787.7289428710938
514,791.7582397460938,792.5640869140625,792.1611938476562,791.7582397460938
515,790.1465454101562,788.937744140625,787.3259887695312,787.7289428710938
516,787.3259887695312,782.893798828125,783.6996459960938,782.4908447265625
517,784.5054931640625,783.2966918945312,782.087890625,780.4761962890625
518,786.923095703125,790.1465454101562,785.7142944335938,780.0732421875
519,789.3406372070312,789.3406372070312,788.1318969726562,783.2966918945312
520,790.5494384765625,785.3113403320312,785.3113403320312,786.923095703125
521,790.952392578125,790.952392578125,786.923095703125,784.5054931640625
522,788.5347900390625,793.3699340820312,789.7435913085938,780.4761962890625
523,788.5347900390625,792.967041015625,791.3552856445312,779.2673950195312
524,789.3406372070312,789.3406372070312,790.1465454101562,780.879150390625
525,787.3259887695312,784.1025390625,786.5201416015625,780.879150390625
526,785.7142944335938,785.3113403320312,782.087890625,782.4908447265625
527,784.908447265625,785.7142944335938,781.2820434570312,780.879150390625
528,778.8644409179688,785.3113403320312,783.2966918945312,774.4322509765625
529,780.4761962890625,789.3406372070312,783.2966918945312,771.6116943359375
530,789.3406372070312,790.1465454101562,784.1025390625,771.2088012695312
531,790.5494384765625,789.3406372070312,789.7435913085938,779.2673950195312
532,787.3259887695312,791.3552856445312,790.952392578125,782.087890625
533,780.0732421875,790.952392578125,788.5347900390625,771.2088012695312
534,782.087890625,788.937744140625,788.1318969726562,773.2234497070312
535,790.5494384765625,789.7435913085938,787.7289428710938,778.8644409179688
536,795.7875366210938,793.3699340820312,789.3406372070312,776.0439453125
537,799.8168334960938,795.3846435546875,791.7582397460938,776.0439453125
538,796.5933837890625,795.3846435546875,790.5494384765625,781.6849975585938
539,796.996337890625,794.5787353515625,791.3552856445312,788.1318969726562
540,798.2051391601562,798.6080322265625,790.1465454101562,795.3846435546875
541,795.3846435546875,795.7875366210938,789.7435913085938,796.5933837890625
542,795.3846435546875,792.5640869140625,792.1611938476562,792.5640869140625
543,797.3992919921875,796.996337890625,794.981689453125,799.8168334960938
544,797.3992919921875,799.010986328125,798.2051391601562,800.2197875976562
545,799.010986328125,798.2051391601562,800.2197875976562,791.3552856445312
546,794.5787353515625,793.3699340820312,794.5787353515625,787.7289428710938
547,791.7582397460938,792.5640869140625,792.5640869140625,785.3113403320312
548,790.1465454101562,792.5640869140625,797.3992919921875,785.7142944335938
549,786.5201416015625,791.7582397460938,798.6080322265625,787.3259887695312
550,789.3406372070312,789.7435913085938,800.2197875976562,786.923095703125
551,785.7142944335938,790.1465454101562,797.3992919921875,781.6849975585938
552,782.087890625,788.937744140625,794.1758422851562,777.2527465820312
553,785.7142944335938,783.2966918945312,794.1758422851562,778.8644409179688
554,787.7289428710938,784.908447265625,794.5787353515625,780.4761962890625
555,788.937744140625,790.1465454101562,793.3699340820312,780.879150390625
556,788.5347900390625,786.923095703125,792.1611938476562,774.8351440429688
557,794.5787353515625,788.937744140625,796.1904907226562,781.2820434570312
558,786.5201416015625,791.3552856445312,796.1904907226562,779.6703491210938
559,780.0732421875,789.3406372070312,791.3552856445312,773.6264038085938
560,785.7142944335938,794.1758422851562,787.7289428710938,774.029296875
561,786.1171875,796.996337890625,786.1171875,777.2527465820312
562,790.952392578125,794.981689453125,787.7289428710938,781.6849975585938
563,796.5933837890625,797.8021850585938,786.5201416015625,777.6557006835938
564,796.1904907226562,801.8314819335938,783.6996459960938,776.4468994140625
565,796.5933837890625,803.040283203125,787.3259887695312,784.5054931640625
566,806.2637329101562,802.2344360351562,788.1318969726562,796.5933837890625
567,809.4871826171875,802.2344360351562,791.7582397460938,794.981689453125
568,807.4725341796875,803.4432373046875,790.952392578125,792.967041015625
569,805.054931640625,801.025634765625,784.1025390625,798.2051391601562
570,799.8168334960938,793.7728881835938,782.893798828125,792.967041015625
571,806.2637329101562,790.952392578125,782.4908447265625,790.5494384765625
572,805.4578857421875,790.5494384765625,780.879150390625,789.7435913085938
573,796.5933837890625,791.7582397460938,787.7289428710938,789.3406372070312
574,790.1465454101562,790.1465454101562,789.7435913085938,788.1318969726562
575,789.3406372070312,790.952392578125,785.7142944335938,782.893798828125
576,791.3552856445312,790.5494384765625,791.3552856445312,784.5054931640625
577,788.1318969726562,784.908447265625,796.996337890625,786.923095703125
578,788.937744140625,790.952392578125,794.5787353515625,789.3406372070312
579,785.7142944335938,794.5787353515625,797.8021850585938,787.7289428710938
580,782.4908447265625,788.937744140625,796.1904907226562,782.4908447265625
581,788.5347900390625,787.3259887695312,794.5787353515625,780.0732421875
582,794.5787353515625,794.1758422851562,797.3992919921875,784.1025390625
583,788.5347900390625,793.7728881835938,795.3846435546875,779.2673950195312
584,786.1171875,793.3699340820312,792.1611938476562,778.8644409179688
585,791.3552856445312,796.996337890625,792.5640869140625,782.893798828125
586,799.010986328125,795.7875366210938,792.1611938476562,783.6996459960938
587,807.4725341796875,798.2051391601562,790.5494384765625,788.937744140625
588,804.2490844726562,798.2051391601562,788.1318969726562,786.923095703125
589,799.4139404296875,793.3699340820312,788.1318969726562,787.3259887695312
590,795.7875366210938,793.7728881835938,790.952392578125,792.1611938476562
591,798.6080322265625,797.8021850585938,790.1465454101562,789.3406372070312
592,800.2197875976562,796.5933837890625,788.5347900390625,787.7289428710938
593,792.967041015625,794.5787353515625,788.5347900390625,786.5201416015625
594,793.3699340820312,788.5347900390625,792.5640869140625,788.5347900390625
595,794.1758422851562,785.3113403320312,794.981689453125,788.5347900390625
596,790.952392578125,789.3406372070312,796.1904907226562,789.3406372070312
597,794.1758422851562,790.952392578125,799.8168334960938,799.4139404296875
598,792.967041015625,788.937744140625,798.6080322265625,799.4139404296875
599,789.3406372070312,784.908447265625,794.1758422851562,794.981689453125
600,788.5347900390625,784.908447265625,795.3846435546875,799.8168334960938
601,782.087890625,786.923095703125,797.3992919921875,798.2051391601562
602,787.3259887695312,787.3259887695312,797.3992919921875,798.6080322265625
603,792.5640869140625,790.1465454101562,795.3846435546875,795.7875366210938
604,789.3406372070312,794.1758422851562,798.6080322265625,799.4139404296875
605,790.952392578125,793.3699340820312,798.2051391601562,805.8607788085938
606,793.7728881835938,792.5640869140625,795.7875366210938,797.3992919921875
607,793.3699340820312,791.7582397460938,794.1758422851562,794.1758422851562
608,789.7435913085938,790.1465454101562,795.3846435546875,795.3846435546875
609,786.5201416015625,790.5494384765625,798.2051391601562,784.5054931640625
610,784.908447265625,790.5494384765625,795.7875366210938,777.6557006835938
611,787.7289428710938,785.7142944335938,797.3992919921875,782.087890625
612,790.952392578125,785.7142944335938,798.6080322265625,786.5201416015625
613,794.981689453125,790.1465454101562,800.2197875976562,787.7289428710938
614,795.3846435546875,792.967041015625,800.6226806640625,785.7142944335938
615,795.3846435546875,792.5640869140625,794.1758422851562,782.893798828125
616,792.967041015625,791.7582397460938,791.7582397460938,788.1318969726562
617,788.5347900390625,794.1758422851562,792.1611938476562,784.5054931640625
618,792.5640869140625,796.1904907226562,789.7435913085938,782.893798828125
619,789.7435913085938,791.3552856445312,788.937744140625,778.8644409179688
620,792.967041015625,789.7435913085938,784.908447265625,780.0732421875
621,799.8168334960938,789.7435913085938,784.908447265625,784.1025390625
622,800.6226806640625,793.3699340820312,789.7435913085938,788.5347900390625
623,802.6373901367188,796.1904907226562,785.7142944335938,792.1611938476562
624,803.8461303710938,792.1611938476562,780.879150390625,791.7582397460938
625,799.4139404296875,796.5933837890625,781.6849975585938,796.996337890625
626,796.1904907226562,801.4285888671875,784.1025390625,801.025634765625
627,801.8314819335938,797.3992919921875,785.3113403320312,808.6813354492188
628,802.2344360351562,792.5640869140625,784.5054931640625,813.113525390625
629,797.3992919921875,794.5787353515625,783.2966918945312,796.996337890625
630,801.025634765625,794.1758422851562,784.5054931640625,791.7582397460938
631,803.040283203125,792.1611938476562,786.923095703125,799.4139404296875
632,798.2051391601562,792.5640869140625,786.5201416015625,798.2051391601562
633,790.5494384765625,793.3699340820312,784.908447265625,793.3699340820312
634,791.3552856445312,792.5640869140625,788.1318969726562,790.952392578125
635,796.5933837890625,792.5640869140625,791.7582397460938,788.5347900390625
636,792.967041015625,796.996337890625,789.3406372070312,786.923095703125
637,791.3552856445312,794.5787353515625,790.1465454101562,784.5054931640625
638,790.1465454101562,789.3406372070312,792.967041015625,780.0732421875
639,788.937744140625,779.2673950195312,794.981689453125,783.6996459960938
640,787.3259887695312,781.6849975585938,799.010986328125,782.4908447265625
641,779.2673950195312,784.5054931640625,799.8168334960938,771.6116943359375
642,784.5054931640625,781.2820434570312,801.4285888671875,773.2234497070312
643,786.5201416015625,784.908447265625,805.8607788085938,780.879150390625
644,774.029296875,782.893798828125,803.040283203125,769.1941528320312
645,774.029296875,782.893798828125,801.4285888671875,766.7765502929688
646,771.2088012695312,783.6996459960938,801.025634765625,773.2234497070312
647,767.5823974609375,785.3113403320312,802.6373901367188,774.029296875
648,774.029296875,783.6996459960938,803.040283203125,771.6116943359375
649,776.8497924804688,780.879150390625,798.6080322265625,771.2088012695312
650,782.893798828125,784.1025390625,794.1758422851562,776.8497924804688
651,792.1611938476562,788.937744140625,796.996337890625,779.6703491210938
652,791.3552856445312,790.1465454101562,796.1904907226562,779.2673950195312
653,789.3406372070312,788.1318969726562,789.3406372070312,779.2673950195312
654,796.1904907226562,791.3552856445312,789.7435913085938,788.937744140625
655,792.5640869140625,791.3552856445312,793.3699340820312,790.952392578125
656,786.923095703125,790.5494384765625,793.3699340820312,782.893798828125
657,786.1171875,793.3699340820312,792.1611938476562,784.908447265625
658,788.1318969726562,791.7582397460938,790.5494384765625,792.1611938476562
659,791.7582397460938,792.1611938476562,792.1611938476562,794.5787353515625
660,786.923095703125,792.5640869140625,790.5494384765625,793.7728881835938
661,786.5201416015625,792.967041015625,794.1758422851562,795.7875366210938
662,793.3699340820312,792.967041015625,797.3992919921875,799.010986328125
663,794.981689453125,794.1758422851562,797.8021850585938,799.8168334960938
664,793.3699340820312,796.1904907226562,800.2197875976562,800.2197875976562
665,791.3552856445312,794.1758422851562,799.8168334960938,794.5787353515625
666,788.1318969726562,793.7728881835938,796.1904907226562,787.7289428710938
667,786.923095703125,796.1904907226562,796.996337890625,787.7289428710938
668,792.5640869140625,795.7875366210938,801.4285888671875,787.3259887695312
669,798.2051391601562,791.3552856445312,799.4139404296875,794.1758422851562
670,787.3259887695312,789.3406372070312,794.1758422851562,787.3259887695312
671,782.087890625,789.7435913085938,792.5640869140625,784.1025390625
672,784.1025390625,789.3406372070312,793.3699340820312,787.7289428710938
673,784.1025390625,783.6996459960938,795.3846435546875,786.5201416015625
674,790.5494384765625,786.923095703125,801.4285888671875,790.1465454101562
675,794.5787353515625,790.952392578125,800.2197875976562,792.967041015625
676,794.1758422851562,788.5347900390625,799.4139404296875,792.5640869140625
677,793.3699340820312,787.3259887695312,802.6373901367188,792.5640869140625
678,799.010986328125,789.3406372070312,803.040283203125,799.4139404296875
679,802.6373901367188,790.1465454101562,801.8314819335938,796.996337890625
680,799.010986328125,790.5494384765625,805.4578857421875,792.1611938476562
681,796.996337890625,786.1171875,805.4578857421875,800.6226806640625
682,788.1318969726562,782.893798828125,799.4139404296875,798.2051391601562
683,788.5347900390625,781.2820434570312,798.2051391601562,788.937744140625
684,796.996337890625,783.2966918945312,796.996337890625,793.3699340820312
685,796.5933837890625,783.2966918945312,796.1904907226562,797.8021850585938
686,789.3406372070312,782.893798828125,795.3846435546875,787.3259887695312
687,792.1611938476562,788.1318969726562,796.996337890625,786.923095703125
688,795.7875366210938,785.3113403320312,794.1758422851562,791.3552856445312
689,796.1904907226562,784.1025390625,790.1465454101562,788.5347900390625
690,794.981689453125,788.5347900390625,793.7728881835938,786.5201416015625
691,795.7875366210938,789.7435913085938,798.6080322265625,788.937744140625
692,796.5933837890625,792.967041015625,796.996337890625,792.1611938476562
693,790.5494384765625,793.7728881835938,792.967041015625,788.937744140625
694,787.3259887695312,790.952392578125,791.7582397460938,787.3259887695312
695,792.1611938476562,786.1171875,793.7728881835938,790.5494384765625
696,794.1758422851562,781.2820434570312,794.5787353515625,788.1318969726562
697,790.952392578125,785.3113403320312,792.1611938476562,786.923095703125
698,798.2051391601562,789.7435913085938,793.7728881835938,790.952392578125
699,800.6226806640625,791.7582397460938,793.3699340820312,790.952392578125
700,796.996337890625,789.3406372070312,794.1758422851562,793.3699340820312
701,798.2051391601562,786.1171875,795.7875366210938,790.952392578125
702,793.7728881835938,786.923095703125,794.981689453125,784.5054931640625
703,796.5933837890625,790.1465454101562,796.996337890625,790.5494384765625
704,797.8021850585938,785.3113403320312,798.6080322265625,787.3259887695312
705,796.5933837890625,779.2673950195312,797.3992919921875,784.1025390625
706,792.967041015625,784.1025390625,794.5787353515625,786.923095703125
707,786.1171875,784.908447265625,792.967041015625,782.893798828125
708,789.7435913085938,783.6996459960938,793.7728881835938,782.087890625
709,794.1758422851562,780.879150390625,793.3699340820312,788.937744140625
710,794.981689453125,782.893798828125,795.7875366210938,788.1318969726562
711,792.1611938476562,787.7289428710938,795.7875366210938,778.8644409179688
712,787.3259887695312,782.4908447265625,789.7435913085938,785.7142944335938
713,783.2966918945312,782.087890625,789.7435913085938,783.6996459960938
714,782.893798828125,781.2820434570312,793.7728881835938,778.8644409179688
715,788.5347900390625,782.4908447265625,790.1465454101562,781.6849975585938
716,786.1171875,784.1025390625,785.3113403320312,783.6996459960938
717,782.087890625,775.6410522460938,787.7289428710938,779.2673950195312
718,786.923095703125,772.4176025390625,788.1318969726562,776.8497924804688
719,791.7582397460938,779.2673950195312,784.1025390625,779.6703491210938
720,791.7582397460938,781.2820434570312,785.3113403320312,778.4615478515625
721,786.923095703125,780.879150390625,785.7142944335938,780.879150390625
722,782.4908447265625,780.4761962890625,783.2966918945312,777.2527465820312
723,785.3113403320312,782.893798828125,786.5201416015625,778.4615478515625
724,786.5201416015625,785.3113403320312,788.937744140625,783.6996459960938
725,788.5347900390625,789.3406372070312,792.967041015625,783.6996459960938
726,795.3846435546875,790.952392578125,796.996337890625,786.923095703125
727,786.923095703125,784.5054931640625,794.1758422851562,779.6703491210938
728,784.1025390625,789.7435913085938,796.1904907226562,781.2820434570312
729,788.1318969726562,795.7875366210938,799.010986328125,787.7289428710938
730,787.7289428710938,792.1611938476562,798.6080322265625,791.3552856445312
731,789.3406372070312,789.7435913085938,795.3846435546875,796.5933837890625
732,787.3259887695312,789.7435913085938,792.5640869140625,787.3259887695312
733,780.0732421875,789.7435913085938,790.952392578125,776.8497924804688
734,784.908447265625,788.937744140625,790.952392578125,783.2966918945312
735,792.1611938476562,790.5494384765625,790.1465454101562,790.1465454101562
736,789.7435913085938,791.7582397460938,788.937744140625,787.3259887695312
737,786.5201416015625,789.3406372070312,788.937744140625,780.4761962890625
738,784.908447265625,790.5494384765625,789.7435913085938,780.4761962890625
739,784.5054931640625,791.7582397460938,788.5347900390625,784.908447265625
740,787.3259887695312,789.7435913085938,789.3406372070312,786.5201416015625
741,788.5347900390625,787.7289428710938,790.1465454101562,782.087890625
742,792.1611938476562,794.5787353515625,792.5640869140625,784.5054931640625
743,788.1318969726562,796.5933837890625,792.1611938476562,785.3113403320312
744,789.3406372070312,796.996337890625,793.7728881835938,782.087890625
745,794.1758422851562,796.5933837890625,794.1758422851562,784.5054931640625
746,795.3846435546875,794.5787353515625,796.5933837890625,789.3406372070312
747,794.981689453125,799.010986328125,797.8021850585938,793.3699340820312
748,790.1465454101562,800.2197875976562,790.952392578125,788.5347900390625
749,794.981689453125,794.1758422851562,791.3552856445312,786.923095703125
750,798.6080322265625,790.952392578125,795.3846435546875,794.5787353515625
751,794.5787353515625,788.937744140625,795.3846435546875,794.1758422851562
752,798.2051391601562,786.923095703125,796.5933837890625,790.952392578125
753,797.3992919921875,790.1465454101562,796.5933837890625,791.3552856445312
754,792.967041015625,790.1465454101562,796.996337890625,786.923095703125
755,794.981689453125,789.3406372070312,796.5933837890625,786.1171875
756,798.2051391601562,785.7142944335938,793.3699340820312,790.952392578125
757,798.2051391601562,786.923095703125,792.967041015625,792.967041015625
758,788.5347900390625,786.1171875,792.967041015625,794.1758422851562
759,786.1171875,788.937744140625,796.5933837890625,790.5494384765625
760,790.5494384765625,794.5787353515625,799.010986328125,786.5201416015625
761,788.1318969726562,790.952392578125,794.981689453125,783.2966918945312
762,789.3406372070312,791.7582397460938,792.967041015625,789.3406372070312
763,789.7435913085938,795.7875366210938,793.7728881835938,792.5640869140625
764,787.3259887695312,793.3699340820312,792.967041015625,785.3113403320312
765,789.3406372070312,790.952392578125,791.3552856445312,787.7289428710938
766,790.5494384765625,791.7582397460938,791.3552856445312,792.967041015625
767,789.7435913085938,791.3552856445312,790.952392578125,790.952392578125
768,787.7289428710938,788.937744140625,794.981689453125,784.908447265625
769,791.3552856445312,787.7289428710938,799.4139404296875,790.1465454101562
770,796.996337890625,783.2966918945312,797.3992919921875,799.4139404296875
771,798.2051391601562,789.3406372070312,792.1611938476562,795.3846435546875
772,795.3846435546875,792.1611938476562,789.7435913085938,794.981689453125
773,794.5787353515625,791.3552856445312,786.5201416015625,790.1465454101562
774,801.025634765625,790.5494384765625,787.3259887695312,784.5054931640625
775,799.8168334960938,786.923095703125,790.952392578125,788.1318969726562
776,796.5933837890625,791.7582397460938,792.5640869140625,787.3259887695312
777,797.8021850585938,792.1611938476562,794.981689453125,783.2966918945312
778,797.3992919921875,789.3406372070312,792.5640869140625,784.1025390625
779,799.4139404296875,788.1318969726562,791.7582397460938,787.3259887695312
780,800.6226806640625,789.3406372070312,794.5787353515625,786.923095703125
781,802.2344360351562,792.1611938476562,793.3699340820312,794.5787353515625
782,800.6226806640625,790.952392578125,793.3699340820312,794.5787353515625
783,794.981689453125,788.937744140625,788.937744140625,791.3552856445312
784,782.4908447265625,788.937744140625,784.1025390625,789.7435913085938
785,778.4615478515625,787.7289428710938,782.4908447265625,786.5201416015625
786,780.879150390625,787.3259887695312,778.05859375,788.1318969726562
787,784.1025390625,785.7142944335938,779.6703491210938,788.1318969726562
788,789.7435913085938,784.908447265625,783.6996459960938,787.7289428710938
789,791.7582397460938,786.5201416015625,779.6703491210938,786.923095703125
790,790.952392578125,787.7289428710938,779.6703491210938,782.087890625
791,790.1465454101562,790.5494384765625,783.6996459960938,784.908447265625
792,794.1758422851562,792.967041015625,786.5201416015625,793.3699340820312
793,794.981689453125,796.1904907226562,788.937744140625,795.3846435546875
794,788.1318969726562,796.5933837890625,790.5494384765625,786.923095703125
795,788.5347900390625,792.1611938476562,786.923095703125,788.937744140625
796,794.981689453125,786.923095703125,782.893798828125,789.7435913085938
797,796.1904907226562,789.7435913085938,782.087890625,786.5201416015625
798,792.967041015625,794.1758422851562,783.2966918945312,786.1171875
799,788.1318969726562,790.5494384765625,785.7142944335938,783.2966918945312
800,783.6996459960938,786.1171875,787.7289428710938,786.5201416015625
801,792.1611938476562,791.7582397460938,792.1611938476562,791.3552856445312
802,799.4139404296875,796.5933837890625,794.981689453125,794.981689453125
803,798.2051391601562,793.3699340820312,791.7582397460938,792.5640869140625
804,792.5640869140625,792.5640869140625,788.937744140625,788.5347900390625
805,797.3992919921875,793.3699340820312,789.7435913085938,786.5201416015625
806,801.4285888671875,790.952392578125,789.7435913085938,786.923095703125
807,795.3846435546875,786.1171875,789.3406372070312,790.952392578125
808,794.1758422851562,788.1318969726562,791.7582397460938,799.010986328125
809,788.937744140625,790.1465454101562,791.7582397460938,792.967041015625
810,782.4908447265625,788.1318969726562,791.7582397460938,780.4761962890625
811,786.5201416015625,787.3259887695312,788.937744140625,776.8497924804688
812,796.5933837890625,788.1318969726562,789.7435913085938,784.1025390625
813,792.967041015625,790.952392578125,794.1758422851562,791.3552856445312
814,788.1318969726562,788.5347900390625,797.3992919921875,795.3846435546875
815,792.1611938476562,786.1171875,799.010986328125,790.952392578125
816,788.937744140625,785.3113403320312,799.010986328125,786.1171875
817,787.3259887695312,787.3259887695312,797.3992919921875,787.3259887695312
818,788.5347900390625,792.5640869140625,798.6080322265625,790.1465454101562
819,783.2966918945312,787.3259887695312,796.996337890625,784.908447265625
820,777.6557006835938,781.6849975585938,789.7435913085938,778.05859375
821,777.6557006835938,782.4908447265625,789.3406372070312,771.6116943359375
822,788.1318969726562,785.7142944335938,792.5640869140625,777.2527465820312
823,797.8021850585938,789.7435913085938,794.981689453125,785.7142944335938
824,794.5787353515625,792.5640869140625,797.3992919921875,785.7142944335938
825,790.952392578125,790.952392578125,797.8021850585938,786.5201416015625
826,794.1758422851562,788.937744140625,793.3699340820312,788.1318969726562
827,802.6373901367188,788.1318969726562,790.1465454101562,784.908447265625
828,803.040283203125,783.6996459960938,790.952392578125,776.4468994140625
829,795.7875366210938,788.1318969726562,790.1465454101562,776.4468994140625
830,794.5787353515625,792.5640869140625,791.7582397460938,782.893798828125
831,793.3699340820312,787.7289428710938,792.5640869140625,794.5787353515625
832,791.3552856445312,787.7289428710938,792.5640869140625,798.6080322265625
833,790.1465454101562,790.952392578125,792.967041015625,793.3699340820312
834,789.7435913085938,790.1465454101562,790.952392578125,792.967041015625
835,788.5347900390625,794.981689453125,789.7435913085938,793.7728881835938
836,792.5640869140625,795.3846435546875,791.3552856445312,799.010986328125
837,791.7582397460938,791.7582397460938,791.7582397460938,804.6520385742188
838,791.7582397460938,791.7582397460938,790.1465454101562,801.025634765625
839,797.3992919921875,792.1611938476562,791.7582397460938,796.1904907226562
840,795.3846435546875,789.3406372070312,794.5787353515625,796.5933837890625
841,788.1318969726562,786.923095703125,797.3992919921875,796.5933837890625
842,786.5201416015625,786.5201416015625,797.8021850585938,798.2051391601562
843,789.3406372070312,784.5054931640625,799.8168334960938,799.8168334960938
844,788.5347900390625,782.087890625,798.2051391601562,788.937744140625
845,787.3259887695312,784.5054931640625,798.2051391601562,786.923095703125
846,784.1025390625,788.5347900390625,797.8021850585938,791.7582397460938
847,789.3406372070312,790.1465454101562,796.5933837890625,787.7289428710938
848,794.981689453125,792.5640869140625,800.6226806640625,782.4908447265625
849,786.1171875,790.1465454101562,795.7875366210938,783.2966918945312
850,779.6703491210938,783.2966918945312,792.5640869140625,786.5201416015625
851,781.6849975585938,779.2673950195312,792.967041015625,780.879150390625
852,783.6996459960938,780.0732421875,789.3406372070312,774.8351440429688
853,788.937744140625,782.893798828125,786.5201416015625,772.0146484375
854,796.996337890625,783.2966918945312,786.1171875,775.6410522460938
855,796.5933837890625,782.893798828125,788.937744140625,770.0
856,790.952392578125,788.5347900390625,793.3699340820312,761.5384521484375
857,794.981689453125,790.5494384765625,794.1758422851562,770.4029541015625
858,798.2051391601562,793.7728881835938,791.3552856445312,778.8644409179688
859,791.7582397460938,797.8021850585938,786.1171875,773.2234497070312
860,784.5054931640625,793.3699340820312,787.7289428710938,767.1795043945312
861,787.7289428710938,796.1904907226562,794.981689453125,777.6557006835938
862,784.908447265625,801.025634765625,793.3699340820312,780.4761962890625
863,774.029296875,803.4432373046875,782.893798828125,771.6116943359375
864,771.6116943359375,807.4725341796875,787.3259887695312,769.5970458984375
865,763.5531005859375,812.7106323242188,786.923095703125,765.5677490234375
866,751.062255859375,819.96337890625,777.2527465820312,759.9267578125
867,743.8095092773438,824.3956298828125,777.6557006835938,744.6153564453125
868,738.1685180664062,837.2893676757812,778.4615478515625,729.7069702148438
869,724.06591796875,844.5421142578125,778.05859375,713.99267578125
870,709.96337890625,835.2747192382812,776.4468994140625,703.5164794921875
871,710.3662719726562,849.7802124023438,778.05859375,699.89013671875
872,701.90478515625,857.8388061523438,778.8644409179688,684.5787353515625
873,690.6226806640625,857.032958984375,777.2527465820312,670.4761962890625
874,686.1904907226562,860.2564086914062,781.2820434570312,661.2088012695312
875,669.2673950195312,853.8095092773438,771.2088012695312,645.8974609375
876,661.6116943359375,854.2124633789062,771.6116943359375,637.4359130859375
877,666.4468994140625,859.047607421875,781.2820434570312,645.091552734375
878,663.2234497070312,864.2857055664062,777.6557006835938,643.4798583984375
879,660.0,863.076904296875,775.6410522460938,633.8095092773438
880,662.8204956054688,855.018310546875,774.8351440429688,640.2564086914062
881,668.8644409179688,855.018310546875,772.8204956054688,651.94140625
882,680.952392578125,857.032958984375,775.2380981445312,660.4029541015625
883,686.1904907226562,853.003662109375,774.4322509765625,662.4176025390625
884,685.7875366210938,853.003662109375,779.6703491210938,668.4615478515625
885,682.967041015625,852.6007080078125,784.5054931640625,678.5347900390625
886,681.7582397460938,844.5421142578125,782.893798828125,673.6996459960938
887,692.6373901367188,838.4981689453125,783.6996459960938,679.7435913085938
888,697.87548828125,838.4981689453125,779.2673950195312,693.4432373046875
889,696.6666870117188,836.08056640625,783.6996459960938,697.4725341796875
890,705.5311279296875,837.6923217773438,789.3406372070312,708.3516235351562
891,705.1282348632812,832.05126953125,787.3259887695312,711.1721801757812
892,710.3662719726562,826.8131713867188,786.1171875,716.8131713867188
893,723.6630249023438,830.4395751953125,787.3259887695312,734.1392211914062
894,736.1538696289062,832.4542236328125,788.937744140625,746.2271118164062
895,751.8681030273438,830.8424682617188,788.937744140625,757.106201171875
896,751.4652099609375,823.5897216796875,788.937744140625,755.4945068359375
897,757.5091552734375,816.3369750976562,790.5494384765625,762.7472534179688
898,771.2088012695312,809.4871826171875,790.1465454101562,770.4029541015625
899,776.4468994140625,800.6226806640625,788.1318969726562,772.8204956054688
900,780.879150390625,797.3992919921875,786.1171875,786.923095703125
901,781.6849975585938,794.5787353515625,788.1318969726562,791.7582397460938
902,785.3113403320312,791.7582397460938,785.7142944335938,783.6996459960938
903,798.2051391601562,786.5201416015625,787.3259887695312,788.937744140625
904,806.6666870117188,783.2966918945312,785.7142944335938,802.6373901367188
905,808.6813354492188,784.1025390625,784.908447265625,804.2490844726562
906,812.7106323242188,778.8644409179688,788.937744140625,811.90478515625
907,813.91943359375,775.2380981445312,790.5494384765625,818.7545776367188
908,825.2014770507812,775.2380981445312,795.3846435546875,823.1868286132812
909,835.6776733398438,774.8351440429688,793.7728881835938,825.2014770507812
910,835.6776733398438,772.8204956054688,792.5640869140625,828.8278198242188
911,835.2747192382812,769.1941528320312,789.7435913085938,832.4542236328125
912,839.3040161132812,765.1648559570312,788.937744140625,832.8571166992188
913,839.7069702148438,767.1795043945312,792.1611938476562,831.6483764648438
914,842.12451171875,765.970703125,794.981689453125,830.4395751953125
915,845.7509155273438,765.970703125,798.6080322265625,835.6776733398438
916,846.959716796875,768.7911987304688,799.010986328125,848.5714111328125
917,843.7362670898438,768.3883056640625,796.996337890625,841.3186645507812
918,834.4688720703125,765.5677490234375,797.3992919921875,831.2454223632812
919,834.4688720703125,763.9560546875,797.3992919921875,836.886474609375
920,832.05126953125,760.7326049804688,793.7728881835938,836.08056640625
921,829.6337280273438,755.8974609375,790.5494384765625,834.4688720703125
922,833.6630249023438,752.2710571289062,795.3846435546875,844.5421142578125
923,834.06591796875,751.8681030273438,799.4139404296875,845.3479614257812
924,834.4688720703125,756.3003540039062,799.4139404296875,835.6776733398438
925,846.1538696289062,761.5384521484375,798.6080322265625,840.5128173828125
926,849.7802124023438,761.5384521484375,797.8021850585938,846.1538696289062
927,842.930419921875,760.7326049804688,795.7875366210938,846.5567626953125
928,840.10986328125,758.7179565429688,796.996337890625,842.5274658203125
929,848.974365234375,762.3442993164062,798.2051391601562,842.5274658203125
930,854.2124633789062,760.7326049804688,795.7875366210938,844.1392211914062
931,844.1392211914062,752.6740112304688,792.967041015625,832.4542236328125
932,839.3040161132812,756.7033081054688,792.967041015625,831.6483764648438
933,839.7069702148438,759.9267578125,795.7875366210938,836.4835205078125
934,843.3333129882812,761.1355590820312,796.996337890625,833.2600708007812
935,841.7216186523438,760.3296508789062,795.3846435546875,829.6337280273438
936,834.8717651367188,760.7326049804688,794.981689453125,823.99267578125
937,833.2600708007812,761.5384521484375,791.3552856445312,813.91943359375
938,828.8278198242188,762.3442993164062,791.7582397460938,815.1282348632812
939,824.3956298828125,764.7619018554688,798.2051391601562,827.2161254882812
940,823.5897216796875,763.5531005859375,799.010986328125,825.2014770507812
941,821.5750732421875,763.5531005859375,797.8021850585938,820.3662719726562
942,819.5604248046875,765.5677490234375,794.981689453125,819.1575317382812
943,819.96337890625,766.3735961914062,791.7582397460938,815.1282348632812
944,819.5604248046875,764.3589477539062,790.1465454101562,815.5311279296875
945,822.3809814453125,763.9560546875,788.5347900390625,815.5311279296875
946,821.5750732421875,764.3589477539062,788.1318969726562,814.7252807617188
947,819.1575317382812,760.3296508789062,787.3259887695312,812.3076782226562
948,817.5457763671875,760.3296508789062,788.937744140625,809.084228515625
949,812.7106323242188,768.7911987304688,790.952392578125,814.3223266601562
950,817.1428833007812,772.8204956054688,793.7728881835938,825.2014770507812
951,818.3516235351562,775.2380981445312,790.1465454101562,821.97802734375
952,811.5018310546875,773.6264038085938,784.1025390625,811.90478515625
953,814.7252807617188,774.8351440429688,786.5201416015625,811.90478515625
954,821.97802734375,776.8497924804688,791.3552856445312,815.1282348632812
955,823.99267578125,773.6264038085938,792.5640869140625,816.3369750976562
956,823.5897216796875,775.6410522460938,790.1465454101562,814.3223266601562
957,816.3369750976562,772.0146484375,785.7142944335938,811.5018310546875
958,809.89013671875,770.4029541015625,787.3259887695312,809.89013671875
959,811.90478515625,774.4322509765625,787.3259887695312,807.4725341796875
960,814.3223266601562,778.8644409179688,787.3259887695312,809.4871826171875
961,817.1428833007812,784.5054931640625,790.1465454101562,815.5311279296875
962,817.1428833007812,786.1171875,790.5494384765625,816.3369750976562
963,814.7252807617188,788.937744140625,790.1465454101562,811.5018310546875
964,815.93408203125,786.923095703125,788.1318969726562,809.89013671875
965,819.1575317382812,783.2966918945312,786.923095703125,813.113525390625
966,821.97802734375,783.6996459960938,789.7435913085938,818.3516235351562
967,824.3956298828125,785.3113403320312,791.7582397460938,814.3223266601562
968,824.3956298828125,786.1171875,793.3699340820312,809.89013671875
969,822.3809814453125,783.6996459960938,792.1611938476562,812.3076782226562
970,819.96337890625,781.2820434570312,792.1611938476562,813.113525390625
971,813.113525390625,780.4761962890625,791.3552856445312,811.5018310546875
972,811.5018310546875,779.2673950195312,791.7582397460938,809.89013671875
973,813.5164794921875,781.2820434570312,792.967041015625,813.5164794921875
974,804.2490844726562,783.2966918945312,792.5640869140625,816.7399291992188
975,803.4432373046875,778.05859375,796.5933837890625,812.7106323242188
976,807.87548828125,778.4615478515625,799.010986328125,810.2930297851562
977,801.025634765625,781.2820434570312,796.5933837890625,806.2637329101562
978,794.5787353515625,781.6849975585938,795.3846435546875,798.2051391601562
979,795.7875366210938,782.893798828125,794.981689453125,795.3846435546875
980,794.5787353515625,779.6703491210938,794.5787353515625,795.3846435546875
981,795.3846435546875,780.4761962890625,793.7728881835938,797.3992919921875
982,796.996337890625,780.4761962890625,792.1611938476562,801.4285888671875
983,795.7875366210938,779.6703491210938,792.967041015625,796.1904907226562
984,799.010986328125,782.087890625,795.3846435546875,791.3552856445312
985,795.7875366210938,782.4908447265625,796.1904907226562,795.7875366210938
986,798.6080322265625,782.893798828125,794.1758422851562,795.7875366210938
987,800.2197875976562,780.879150390625,792.967041015625,791.7582397460938
988,798.2051391601562,778.4615478515625,792.967041015625,792.1611938476562
989,799.4139404296875,785.7142944335938,796.996337890625,788.5347900390625
990,804.2490844726562,794.5787353515625,800.2197875976562,788.1318969726562
991,803.8461303710938,788.5347900390625,800.6226806640625,795.3846435546875
992,802.6373901367188,784.5054931640625,801.4285888671875,797.3992919921875
993,800.2197875976562,790.1465454101562,796.996337890625,798.6080322265625
994,794.981689453125,783.6996459960938,791.3552856445312,789.7435913085938
995,798.6080322265625,776.4468994140625,789.7435913085938,784.908447265625
996,805.4578857421875,784.908447265625,792.967041015625,795.3846435546875
997,800.2197875976562,782.893798828125,790.952392578125,792.5640869140625
998,794.5787353515625,777.6557006835938,789.3406372070312,790.952392578125
999,796.1904907226562,784.5054931640625,796.996337890625,794.1758422851562
1000,793.7728881835938,786.1171875,794.1758422851562,801.025634765625
1001,789.3406372070312,785.3113403320312,788.937744140625,803.040283203125
1002,790.5494384765625,785.7142944335938,789.7435913085938,790.952392578125
1003,788.1318969726562,784.908447265625,786.1171875,782.893798828125
1004,791.7582397460938,785.7142944335938,790.952392578125,782.087890625
1005,792.5640869140625,788.937744140625,793.7728881835938,780.0732421875
1006,792.967041015625,790.5494384765625,791.7582397460938,782.4908447265625
1007,798.6080322265625,788.937744140625,792.5640869140625,786.5201416015625
1008,802.2344360351562,783.6996459960938,793.3699340820312,782.087890625
1009,802.6373901367188,785.7142944335938,794.5787353515625,781.6849975585938
1010,793.7728881835938,784.908447265625,795.3846435546875,786.5201416015625
1011,792.1611938476562,781.2820434570312,790.1465454101562,793.7728881835938
1012,798.2051391601562,784.1025390625,789.3406372070312,794.1758422851562
1013,796.1904907226562,784.908447265625,791.3552856445312,783.2966918945312
1014,790.952392578125,788.5347900390625,791.7582397460938,779.2673950195312
1015,792.967041015625,790.1465454101562,792.967041015625,786.923095703125
1016,798.6080322265625,792.967041015625,794.5787353515625,790.1465454101562
1017,801.8314819335938,794.1758422851562,794.981689453125,790.1465454101562
1018,805.8607788085938,789.7435913085938,791.7582397460938,794.1758422851562
1019,803.8461303710938,785.3113403320312,790.1465454101562,790.5494384765625
1020,795.7875366210938,782.087890625,786.923095703125,790.952392578125
1021,794.981689453125,782.4908447265625,788.5347900390625,796.5933837890625
1022,792.5640869140625,781.2820434570312,787.7289428710938,788.5347900390625
1023,790.5494384765625,778.4615478515625,789.3406372070312,784.1025390625
1024,790.5494384765625,784.1025390625,791.3552856445312,786.1171875
1025,786.923095703125,785.7142944335938,791.3552856445312,790.5494384765625
1026,787.3259887695312,788.5347900390625,796.1904907226562,795.3846435546875
1027,789.3406372070312,791.3552856445312,795.7875366210938,794.981689453125
1028,788.1318969726562,784.1025390625,792.1611938476562,790.5494384765625
1029,790.5494384765625,783.2966918945312,793.3699340820312,785.7142944335938
1030,791.3552856445312,788.937744140625,791.7582397460938,787.3259887695312
1031,792.967041015625,788.937744140625,788.937744140625,798.2051391601562
1032,796.1904907226562,784.1025390625,789.7435913085938,798.6080322265625
1033,799.4139404296875,785.3113403320312,790.1465454101562,791.3552856445312
1034,795.7875366210938,786.5201416015625,790.1465454101562,792.5640869140625
1035,794.5787353515625,787.7289428710938,789.7435913085938,798.2051391601562
1036,800.2197875976562,790.1465454101562,789.7435913085938,802.6373901367188
1037,794.1758422851562,786.1171875,790.5494384765625,792.5640869140625
1038,795.3846435546875,785.3113403320312,786.1171875,784.908447265625
1039,795.7875366210938,794.5787353515625,788.1318969726562,789.3406372070312
1040,783.6996459960938,797.8021850585938,789.3406372070312,788.1318969726562
1041,778.8644409179688,790.5494384765625,789.3406372070312,785.3113403320312
1042,785.7142944335938,785.7142944335938,792.1611938476562,786.923095703125
1043,794.981689453125,786.1171875,791.3552856445312,788.937744140625
1044,794.981689453125,786.5201416015625,790.952392578125,784.908447265625
1045,790.1465454101562,786.5201416015625,788.937744140625,781.2820434570312
1046,785.7142944335938,781.2820434570312,786.923095703125,783.6996459960938
1047,787.3259887695312,782.893798828125,787.3259887695312,782.893798828125
1048,785.7142944335938,786.923095703125,788.5347900390625,777.2527465820312
1049,781.2820434570312,783.2966918945312,791.3552856445312,775.6410522460938
1050,779.2673950195312,781.6849975585938,792.1611938476562,776.4468994140625
1051,780.4761962890625,784.1025390625,790.1465454101562,785.3113403320312
1052,779.6703491210938,784.5054931640625,789.3406372070312,783.6996459960938
1053,785.3113403320312,785.3113403320312,792.1611938476562,784.5054931640625
1054,788.5347900390625,786.923095703125,791.7582397460938,782.4908447265625
1055,787.7289428710938,790.1465454101562,794.5787353515625,778.8644409179688
1056,796.5933837890625,790.952392578125,799.4139404296875,785.3113403320312
1057,795.3846435546875,788.1318969726562,798.2051391601562,786.923095703125
1058,790.952392578125,785.7142944335938,791.3552856445312,785.7142944335938
1059,788.5347900390625,782.893798828125,790.5494384765625,788.1318969726562
1060,784.5054931640625,781.2820434570312,796.5933837890625,788.1318969726562
1061,788.937744140625,784.908447265625,799.4139404296875,792.967041015625
1062,792.5640869140625,785.3113403320312,800.2197875976562,797.3992919921875
1063,796.996337890625,786.1171875,798.6080322265625,792.967041015625
1064,802.2344360351562,790.952392578125,798.2051391601562,788.937744140625
1065,796.1904907226562,789.3406372070312,798.2051391601562,787.7289428710938
1066,791.7582397460938,786.5201416015625,795.3846435546875,793.7728881835938
1067,796.5933837890625,787.7289428710938,796.996337890625,791.3552856445312
1068,800.2197875976562,786.923095703125,796.1904907226562,786.1171875
1069,802.2344360351562,785.3113403320312,796.1904907226562,790.952392578125
1070,796.996337890625,785.7142944335938,796.5933837890625,786.1171875
1071,794.1758422851562,786.5201416015625,793.3699340820312,780.4761962890625
1072,795.7875366210938,788.5347900390625,793.7728881835938,779.6703491210938
1073,798.6080322265625,789.7435913085938,794.5787353515625,787.7289428710938
1074,797.3992919921875,788.937744140625,794.1758422851562,789.7435913085938
1075,798.2051391601562,792.967041015625,794.981689453125,790.1465454101562
1076,793.7728881835938,794.5787353515625,796.1904907226562,792.1611938476562
1077,795.3846435546875,792.5640869140625,792.967041015625,796.1904907226562
1078,802.2344360351562,793.7728881835938,796.5933837890625,797.3992919921875
1079,798.6080322265625,794.1758422851562,801.4285888671875,786.923095703125
1080,793.3699340820312,790.952392578125,800.6226806640625,784.908447265625
1081,793.3699340820312,792.5640869140625,799.8168334960938,786.923095703125
1082,796.996337890625,794.1758422851562,799.8168334960938,784.5054931640625
1083,801.4285888671875,792.1611938476562,799.8168334960938,783.6996459960938
1084,796.996337890625,790.5494384765625,797.8021850585938,784.5054931640625
1085,789.3406372070312,788.1318969726562,798.2051391601562,787.3259887695312
1086,786.5201416015625,789.3406372070312,794.1758422851562,782.4908447265625
1087,788.5347900390625,788.5347900390625,792.1611938476562,786.1171875
1088,793.7728881835938,784.1025390625,794.1758422851562,787.7289428710938
1089,802.2344360351562,786.5201416015625,796.5933837890625,786.1171875
1090,799.4139404296875,786.923095703125,794.1758422851562,788.937744140625
1091,788.1318969726562,784.1025390625,791.3552856445312,785.3113403320312
1092,788.5347900390625,784.5054931640625,792.5640869140625,784.1025390625
1093,792.967041015625,784.908447265625,791.3552856445312,784.5054931640625
1094,791.7582397460938,786.923095703125,790.5494384765625,788.1318969726562
1095,790.1465454101562,786.923095703125,787.3259887695312,785.7142944335938
1096,792.5640869140625,784.1025390625,784.908447265625,784.1025390625
1097,794.5787353515625,788.5347900390625,785.3113403320312,780.879150390625
1098,798.6080322265625,789.3406372070312,786.1171875,775.6410522460938
1099,801.025634765625,790.1465454101562,788.1318969726562,781.6849975585938
1100,800.6226806640625,796.996337890625,791.3552856445312,790.5494384765625
1101,800.2197875976562,799.010986328125,792.5640869140625,789.3406372070312
1102,801.8314819335938,795.7875366210938,797.8021850585938,790.952392578125
1103,799.8168334960938,794.1758422851562,797.8021850585938,794.1758422851562
1104,797.3992919921875,792.5640869140625,793.3699340820312,798.6080322265625
1105,791.3552856445312,790.5494384765625,794.1758422851562,798.2051391601562
1106,787.7289428710938,792.5640869140625,794.1758422851562,790.1465454101562
1107,796.1904907226562,796.5933837890625,796.996337890625,796.1904907226562
1108,799.8168334960938,799.010986328125,802.6373901367188,800.6226806640625
1109,797.8021850585938,799.8168334960938,800.6226806640625,797.3992919921875
1110,792.5640869140625,794.5787353515625,794.5787353515625,795.3846435546875
1111,785.7142944335938,786.1171875,788.1318969726562,792.1611938476562
1112,782.893798828125,789.7435913085938,786.923095703125,792.967041015625
1113,786.1171875,788.937744140625,793.7728881835938,789.7435913085938
1114,791.7582397460938,786.5201416015625,795.7875366210938,793.7728881835938
1115,784.5054931640625,786.1171875,790.5494384765625,794.1758422851562
1116,780.4761962890625,784.1025390625,791.3552856445312,790.5494384765625
1117,777.6557006835938,781.6849975585938,793.3699340820312,786.5201416015625
1118,773.6264038085938,783.2966918945312,795.7875366210938,784.908447265625
1119,777.2527465820312,784.908447265625,797.3992919921875,789.3406372070312
1120,781.6849975585938,783.6996459960938,791.3552856445312,784.908447265625
1121,783.2966918945312,784.1025390625,788.937744140625,778.8644409179688
1122,784.908447265625,788.5347900390625,793.3699340820312,778.05859375
1123,790.1465454101562,790.1465454101562,792.1611938476562,779.6703491210938
1124,792.5640869140625,785.7142944335938,786.1171875,783.2966918945312
1125,794.1758422851562,786.1171875,786.5201416015625,784.5054931640625
1126,795.3846435546875,788.937744140625,786.1171875,785.7142944335938
1127,796.5933837890625,788.1318969726562,785.7142944335938,788.1318969726562
1128,800.6226806640625,789.3406372070312,785.7142944335938,788.5347900390625
1129,803.8461303710938,788.5347900390625,788.937744140625,786.923095703125
1130,804.6520385742188,790.1465454101562,786.5201416015625,792.967041015625
1131,798.2051391601562,792.5640869140625,784.5054931640625,794.5787353515625
1132,794.981689453125,792.1611938476562,784.908447265625,781.6849975585938
1133,793.3699340820312,791.7582397460938,785.7142944335938,781.2820434570312
1134,791.3552856445312,792.1611938476562,786.923095703125,780.0732421875
1135,794.1758422851562,791.7582397460938,787.7289428710938,784.908447265625
1136,795.3846435546875,795.3846435546875,788.5347900390625,790.1465454101562
1137,789.3406372070312,799.010986328125,786.5201416015625,784.1025390625
1138,786.5201416015625,796.996337890625,785.7142944335938,781.2820434570312
1139,787.3259887695312,790.1465454101562,787.3259887695312,780.4761962890625
1140,790.1465454101562,788.5347900390625,785.3113403320312,783.6996459960938
1141,792.1611938476562,788.5347900390625,787.3259887695312,782.893798828125
1142,788.1318969726562,786.923095703125,789.3406372070312,785.7142944335938
1143,787.7289428710938,789.7435913085938,791.7582397460938,792.967041015625
1144,788.5347900390625,789.3406372070312,790.952392578125,788.5347900390625
1145,784.1025390625,782.087890625,786.5201416015625,782.087890625
1146,781.6849975585938,780.4761962890625,787.7289428710938,778.4615478515625
1147,783.6996459960938,783.2966918945312,786.1171875,778.05859375
1148,786.5201416015625,783.6996459960938,785.3113403320312,776.0439453125
1149,794.981689453125,784.908447265625,788.1318969726562,780.879150390625
1150,796.996337890625,785.7142944335938,789.7435913085938,784.1025390625
1151,795.7875366210938,790.1465454101562,795.3846435546875,784.908447265625
1152,798.2051391601562,789.3406372070312,795.3846435546875,785.7142944335938
1153,802.6373901367188,786.923095703125,793.3699340820312,790.952392578125
1154,804.6520385742188,788.5347900390625,796.5933837890625,795.3846435546875
1155,807.87548828125,793.3699340820312,797.8021850585938,790.1465454101562
1156,815.93408203125,795.7875366210938,795.7875366210938,792.5640869140625
1157,811.5018310546875,795.3846435546875,795.3846435546875,795.7875366210938
1158,802.6373901367188,789.7435913085938,796.1904907226562,784.908447265625
1159,803.040283203125,786.1171875,799.010986328125,786.1171875
1160,807.069580078125,791.7582397460938,801.025634765625,797.8021850585938
1161,803.8461303710938,790.1465454101562,798.6080322265625,799.4139404296875
1162,794.981689453125,789.3406372070312,796.1904907226562,793.7728881835938
1163,790.5494384765625,793.7728881835938,794.981689453125,788.5347900390625
1164,790.952392578125,796.996337890625,796.1904907226562,792.967041015625
1165,788.5347900390625,796.5933837890625,795.7875366210938,803.4432373046875
1166,784.5054931640625,795.3846435546875,798.6080322265625,807.069580078125
1167,780.879150390625,799.010986328125,802.2344360351562,803.040283203125
1168,773.6264038085938,795.7875366210938,800.6226806640625,795.3846435546875
1169,772.8204956054688,791.7582397460938,800.2197875976562,792.967041015625
1170,775.6410522460938,792.5640869140625,796.996337890625,791.7582397460938
1171,780.4761962890625,792.967041015625,794.1758422851562,788.5347900390625
1172,778.8644409179688,797.3992919921875,792.967041015625,780.879150390625
1173,776.0439453125,798.6080322265625,797.3992919921875,780.0732421875
1174,781.6849975585938,796.996337890625,796.5933837890625,782.4908447265625
1175,785.7142944335938,791.7582397460938,792.967041015625,780.0732421875
1176,784.5054931640625,788.1318969726562,791.3552856445312,775.6410522460938
1177,784.1025390625,788.5347900390625,786.1171875,776.0439453125
1178,782.087890625,791.3552856445312,786.5201416015625,771.6116943359375
1179,782.087890625,786.923095703125,786.923095703125,767.5823974609375
1180,792.5640869140625,783.6996459960938,787.3259887695312,775.6410522460938
1181,797.8021850585938,786.1171875,789.3406372070312,783.6996459960938
1182,795.3846435546875,785.7142944335938,792.1611938476562,786.1171875
1183,792.5640869140625,784.908447265625,787.3259887695312,787.7289428710938
1184,794.5787353515625,788.1318969726562,789.3406372070312,794.981689453125
1185,799.4139404296875,785.7142944335938,790.1465454101562,791.3552856445312
1186,800.2197875976562,783.6996459960938,781.2820434570312,783.2966918945312
1187,801.025634765625,785.3113403320312,781.6849975585938,784.1025390625
1188,795.7875366210938,783.6996459960938,783.6996459960938,786.923095703125
1189,791.3552856445312,788.1318969726562,790.1465454101562,789.3406372070312
1190,791.7582397460938,790.5494384765625,792.967041015625,787.7289428710938
1191,791.3552856445312,788.1318969726562,791.3552856445312,790.952392578125
1192,786.1171875,786.1171875,790.1465454101562,794.981689453125
1193,776.8497924804688,785.3113403320312,786.5201416015625,782.893798828125
1194,780.4761962890625,782.893798828125,786.5201416015625,781.2820434570312
1195,785.3113403320312,786.5201416015625,788.5347900390625,790.1465454101562
1196,792.967041015625,791.7582397460938,788.5347900390625,791.7582397460938
1197,796.996337890625,786.5201416015625,786.1171875,791.3552856445312
1198,792.1611938476562,784.908447265625,785.3113403320312,792.5640869140625
1199,793.7728881835938,788.1318969726562,786.5201416015625,796.996337890625
1200,797.3992919921875,788.937744140625,785.7142944335938,798.6080322265625
1201,793.7728881835938,785.7142944335938,783.6996459960938,795.3846435546875
1202,792.1611938476562,787.7289428710938,782.087890625,788.1318969726562
1203,794.1758422851562,786.923095703125,782.4908447265625,788.5347900390625
1204,793.7728881835938,787.7289428710938,786.5201416015625,796.1904907226562
1205,793.7728881835938,796.1904907226562,788.5347900390625,790.1465454101562
1206,795.3846435546875,797.8021850585938,786.923095703125,786.1171875
1207,794.5787353515625,796.996337890625,784.1025390625,783.2966918945312
1208,796.1904907226562,796.996337890625,782.4908447265625,784.1025390625
1209,796.5933837890625,790.1465454101562,785.3113403320312,785.3113403320312
1210,794.1758422851562,788.1318969726562,786.923095703125,784.1025390625
1211,802.6373901367188,794.981689453125,790.5494384765625,794.1758422851562
1212,803.8461303710938,794.981689453125,796.1904907226562,797.8021850585938
1213,796.1904907226562,797.3992919921875,796.996337890625,791.3552856445312
1214,789.3406372070312,796.996337890625,794.981689453125,786.923095703125
1215,788.1318969726562,794.1758422851562,793.3699340820312,788.937744140625
1216,792.5640869140625,793.7728881835938,793.3699340820312,787.3259887695312
1217,793.3699340820312,794.1758422851562,793.3699340820312,784.1025390625
1218,792.5640869140625,791.7582397460938,792.5640869140625,786.923095703125
1219,791.7582397460938,790.1465454101562,790.1465454101562,785.3113403320312
1220,788.5347900390625,789.7435913085938,789.3406372070312,788.5347900390625
1221,789.3406372070312,786.5201416015625,790.1465454101562,788.5347900390625
1222,790.952392578125,783.2966918945312,789.3406372070312,786.923095703125
1223,789.3406372070312,784.908447265625,791.7582397460938,790.5494384765625
1224,785.3113403320312,790.952392578125,792.5640869140625,790.5494384765625
1225,788.5347900390625,793.3699340820312,792.5640869140625,789.7435913085938
1226,798.2051391601562,796.1904907226562,797.3992919921875,796.996337890625
1227,796.996337890625,791.3552856445312,793.3699340820312,799.010986328125
1228,796.5933837890625,790.5494384765625,791.7582397460938,795.3846435546875
1229,791.3552856445312,789.3406372070312,794.5787353515625,790.1465454101562
1230,788.937744140625,785.7142944335938,790.952392578125,793.3699340820312
1231,790.5494384765625,785.7142944335938,790.1465454101562,795.7875366210938
1232,786.923095703125,788.937744140625,792.1611938476562,790.952392578125
1233,785.7142944335938,791.3552856445312,796.996337890625,789.7435913085938
1234,782.4908447265625,790.1465454101562,793.3699340820312,788.1318969726562
1235,781.6849975585938,791.7582397460938,788.937744140625,786.923095703125
1236,787.7289428710938,791.3552856445312,790.5494384765625,784.1025390625
1237,789.3406372070312,789.3406372070312,789.3406372070312,784.908447265625
1238,791.7582397460938,791.7582397460938,788.937744140625,785.3113403320312
1239,790.1465454101562,794.981689453125,787.3259887695312,779.2673950195312
1240,786.5201416015625,792.1611938476562,788.1318969726562,779.2673950195312
1241,790.952392578125,791.3552856445312,789.3406372070312,785.7142944335938
1242,794.1758422851562,793.7728881835938,786.1171875,783.2966918945312
1243,794.5787353515625,792.967041015625,783.6996459960938,776.4468994140625
1244,792.5640869140625,790.5494384765625,785.7142944335938,775.2380981445312
1245,791.7582397460938,791.3552856445312,786.923095703125,775.2380981445312
1246,789.7435913085938,795.3846435546875,790.1465454101562,777.2527465820312
1247,788.937744140625,794.5787353515625,789.3406372070312,775.6410522460938
1248,788.5347900390625,790.952392578125,787.7289428710938,772.0146484375
1249,788.1318969726562,791.7582397460938,789.7435913085938,777.6557006835938
1250,786.5201416015625,791.3552856445312,788.937744140625,780.879150390625
1251,790.5494384765625,792.967041015625,792.1611938476562,780.0732421875
1252,797.8021850585938,791.3552856445312,792.5640869140625,785.7142944335938
1253,795.3846435546875,785.3113403320312,791.7582397460938,788.937744140625
1254,784.1025390625,783.2966918945312,791.3552856445312,786.5201416015625
1255,784.1025390625,782.893798828125,792.5640869140625,784.5054931640625
1256,790.1465454101562,786.1171875,795.3846435546875,787.7289428710938
1257,794.981689453125,790.1465454101562,794.5787353515625,797.3992919921875
1258,796.5933837890625,793.3699340820312,796.5933837890625,799.010986328125
1259,788.5347900390625,794.5787353515625,797.3992919921875,794.5787353515625
1260,790.5494384765625,789.7435913085938,793.3699340820312,791.3552856445312
1261,794.1758422851562,786.923095703125,791.3552856445312,794.1758422851562
1262,793.3699340820312,788.5347900390625,791.7582397460938,794.1758422851562
1263,801.8314819335938,791.3552856445312,793.7728881835938,788.1318969726562
1264,805.054931640625,790.1465454101562,793.3699340820312,782.893798828125
1265,798.6080322265625,790.952392578125,791.7582397460938,780.879150390625
1266,793.7728881835938,795.7875366210938,792.967041015625,779.6703491210938
1267,799.4139404296875,798.2051391601562,791.3552856445312,784.1025390625
1268,806.6666870117188,796.996337890625,789.3406372070312,789.3406372070312
1269,796.5933837890625,790.5494384765625,787.3259887695312,784.5054931640625
1270,790.5494384765625,786.1171875,783.6996459960938,777.6557006835938
1271,793.3699340820312,788.5347900390625,783.2966918945312,776.4468994140625
1272,793.3699340820312,792.1611938476562,786.1171875,779.2673950195312
1273,796.996337890625,793.3699340820312,790.1465454101562,786.1171875
1274,796.5933837890625,789.7435913085938,792.967041015625,780.4761962890625
1275,792.5640869140625,785.3113403320312,792.967041015625,776.4468994140625
1276,789.3406372070312,789.3406372070312,789.3406372070312,780.4761962890625
1277,789.7435913085938,791.3552856445312,788.937744140625,783.2966918945312
1278,788.5347900390625,790.5494384765625,794.5787353515625,781.6849975585938
1279,785.7142944335938,788.5347900390625,795.7875366210938,780.4761962890625
1280,783.6996459960938,788.937744140625,790.5494384765625,783.6996459960938
1281,780.4761962890625,789.7435913085938,786.1171875,786.923095703125
1282,787.3259887695312,790.1465454101562,788.1318969726562,784.5054931640625
1283,792.967041015625,788.937744140625,790.5494384765625,785.7142944335938
1284,790.5494384765625,788.937744140625,787.3259887695312,790.1465454101562
1285,785.3113403320312,785.7142944335938,783.6996459960938,787.7289428710938
1286,782.4908447265625,785.3113403320312,785.3113403320312,785.3113403320312
1287,787.7289428710938,786.923095703125,782.893798828125,787.7289428710938
1288,792.967041015625,785.7142944335938,784.1025390625,796.996337890625
1289,797.3992919921875,788.5347900390625,784.908447265625,792.1611938476562
1290,798.6080322265625,792.967041015625,788.5347900390625,788.1318969726562
1291,795.7875366210938,794.1758422851562,791.3552856445312,793.7728881835938
1292,798.2051391601562,792.1611938476562,789.7435913085938,793.3699340820312
1293,796.996337890625,789.3406372070312,788.5347900390625,785.7142944335938
1294,797.3992919921875,788.5347900390625,788.937744140625,784.1025390625
1295,799.8168334960938,788.5347900390625,791.3552856445312,788.5347900390625
1296,796.1904907226562,787.3259887695312,794.1758422851562,789.7435913085938
1297,794.5787353515625,788.1318969726562,792.967041015625,788.5347900390625
1298,792.967041015625,787.7289428710938,786.923095703125,783.6996459960938
1299,789.7435913085938,785.3113403320312,787.3259887695312,785.3113403320312
1300,785.3113403320312,791.7582397460938,788.937744140625,792.1611938476562
1301,787.3259887695312,793.7728881835938,789.3406372070312,790.952392578125
1302,790.5494384765625,789.3406372070312,788.5347900390625,787.7289428710938
1303,792.1611938476562,788.1318969726562,785.3113403320312,789.7435913085938
1304,796.1904907226562,789.3406372070312,786.1171875,792.5640869140625
1305,796.5933837890625,789.7435913085938,790.5494384765625,791.7582397460938
1306,791.7582397460938,790.952392578125,791.7582397460938,788.5347900390625
1307,795.3846435546875,793.7728881835938,794.981689453125,792.5640869140625
1308,804.2490844726562,794.981689453125,795.7875366210938,798.2051391601562
1309,805.8607788085938,794.1758422851562,792.5640869140625,796.1904907226562
1310,805.054931640625,796.996337890625,793.3699340820312,793.3699340820312
1311,805.4578857421875,796.1904907226562,790.952392578125,792.5640869140625
1312,798.2051391601562,797.8021850585938,790.952392578125,788.937744140625
1313,800.6226806640625,799.8168334960938,794.5787353515625,788.1318969726562
1314,804.2490844726562,797.8021850585938,792.1611938476562,794.1758422851562
1315,796.1904907226562,796.1904907226562,789.7435913085938,799.4139404296875
1316,792.5640869140625,795.7875366210938,790.1465454101562,797.8021850585938
1317,793.7728881835938,795.7875366210938,792.1611938476562,794.5787353515625
1318,791.3552856445312,797.3992919921875,795.3846435546875,796.996337890625
1319,793.3699340820312,799.8168334960938,795.7875366210938,796.1904907226562
1320,795.7875366210938,797.3992919921875,795.3846435546875,795.7875366210938
1321,788.1318969726562,790.5494384765625,794.5787353515625,792.5640869140625
1322,790.5494384765625,790.5494384765625,794.5787353515625,796.5933837890625
1323,792.1611938476562,791.7582397460938,794.5787353515625,807.87548828125
1324,783.6996459960938,793.3699340820312,793.7728881835938,800.6226806640625
1325,788.1318969726562,788.5347900390625,796.996337890625,799.010986328125
1326,785.3113403320312,786.5201416015625,795.3846435546875,791.3552856445312
1327,777.6557006835938,789.3406372070312,788.937744140625,776.8497924804688
1328,786.923095703125,790.1465454101562,793.3699340820312,778.05859375
1329,787.7289428710938,789.7435913085938,794.5787353515625,780.4761962890625
1330,784.908447265625,786.1171875,789.3406372070312,774.8351440429688
1331,786.923095703125,786.1171875,788.1318969726562,767.1795043945312
1332,782.087890625,787.3259887695312,786.5201416015625,762.7472534179688
1333,783.6996459960938,785.7142944335938,788.937744140625,765.1648559570312
1334,794.1758422851562,787.7289428710938,789.3406372070312,774.8351440429688
1335,790.952392578125,789.3406372070312,787.3259887695312,776.8497924804688
1336,781.2820434570312,790.952392578125,784.1025390625,774.4322509765625
1337,784.908447265625,792.967041015625,786.5201416015625,776.0439453125
1338,788.1318969726562,794.981689453125,790.5494384765625,776.8497924804688
1339,788.1318969726562,797.8021850585938,788.5347900390625,777.6557006835938
1340,789.7435913085938,798.2051391601562,784.908447265625,779.6703491210938
1341,782.4908447265625,792.5640869140625,784.1025390625,777.2527465820312
1342,781.6849975585938,784.1025390625,786.923095703125,779.2673950195312
1343,784.908447265625,787.7289428710938,788.937744140625,783.6996459960938
1344,783.6996459960938,790.1465454101562,789.7435913085938,780.879150390625
1345,788.5347900390625,783.2966918945312,790.5494384765625,786.1171875
1346,783.6996459960938,778.8644409179688,788.937744140625,786.1171875
1347,770.4029541015625,779.2673950195312,792.1611938476562,772.4176025390625
1348,768.7911987304688,782.087890625,796.5933837890625,770.4029541015625
1349,777.2527465820312,787.7289428710938,796.5933837890625,782.893798828125
1350,782.4908447265625,791.7582397460938,796.5933837890625,783.6996459960938
1351,781.2820434570312,794.5787353515625,797.8021850585938,779.6703491210938
1352,788.937744140625,796.1904907226562,798.6080322265625,786.923095703125
1353,794.1758422851562,796.1904907226562,797.3992919921875,791.7582397460938
1354,787.7289428710938,799.010986328125,798.2051391601562,781.6849975585938
1355,789.3406372070312,798.6080322265625,799.8168334960938,773.6264038085938
1356,797.8021850585938,798.2051391601562,794.981689453125,780.4761962890625
1357,798.2051391601562,799.010986328125,788.1318969726562,786.5201416015625
1358,797.3992919921875,797.3992919921875,792.1611938476562,787.7289428710938
1359,794.5787353515625,799.010986328125,792.5640869140625,785.3113403320312
1360,796.1904907226562,799.4139404296875,794.1758422851562,783.2966918945312
1361,800.2197875976562,798.6080322265625,795.3846435546875,784.5054931640625
1362,793.3699340820312,796.5933837890625,792.5640869140625,781.6849975585938
1363,787.7289428710938,796.5933837890625,790.1465454101562,783.6996459960938
1364,796.5933837890625,797.8021850585938,785.7142944335938,788.937744140625
1365,803.4432373046875,796.1904907226562,787.7289428710938,793.7728881835938
1366,797.8021850585938,794.5787353515625,790.1465454101562,799.010986328125
1367,801.025634765625,791.7582397460938,786.923095703125,800.2197875976562
1368,805.054931640625,791.3552856445312,788.1318969726562,799.4139404296875
1369,807.4725341796875,794.5787353515625,790.5494384765625,805.4578857421875
1370,811.90478515625,796.5933837890625,792.967041015625,806.2637329101562
1371,812.3076782226562,798.6080322265625,792.967041015625,801.8314819335938
1372,807.4725341796875,796.996337890625,791.7582397460938,799.8168334960938
1373,797.8021850585938,796.996337890625,791.7582397460938,797.8021850585938
1374,796.1904907226562,798.6080322265625,790.5494384765625,798.2051391601562
1375,802.6373901367188,796.5933837890625,786.923095703125,799.010986328125
1376,803.8461303710938,795.3846435546875,791.3552856445312,797.8021850585938
1377,799.8168334960938,795.7875366210938,793.3699340820312,794.981689453125
1378,794.981689453125,794.1758422851562,789.7435913085938,788.937744140625
1379,796.1904907226562,789.3406372070312,787.3259887695312,790.5494384765625
1380,800.2197875976562,786.5201416015625,790.952392578125,792.1611938476562
1381,803.4432373046875,791.7582397460938,790.1465454101562,786.923095703125
1382,798.6080322265625,792.967041015625,787.3259887695312,783.6996459960938
1383,792.967041015625,791.3552856445312,790.1465454101562,784.1025390625
1384,796.5933837890625,792.967041015625,790.5494384765625,791.3552856445312
1385,796.996337890625,793.3699340820312,786.5201416015625,790.952392578125
1386,794.981689453125,793.3699340820312,782.087890625,784.1025390625
1387,801.025634765625,799.4139404296875,783.6996459960938,784.5054931640625
1388,801.4285888671875,803.8461303710938,786.923095703125,784.908447265625
1389,802.6373901367188,795.7875366210938,788.1318969726562,779.2673950195312
1390,807.4725341796875,792.967041015625,785.3113403320312,776.8497924804688
1391,811.098876953125,799.4139404296875,786.1171875,782.4908447265625
1392,803.8461303710938,800.2197875976562,786.923095703125,785.3113403320312
1393,796.5933837890625,796.5933837890625,784.5054931640625,785.7142944335938
1394,794.1758422851562,794.1758422851562,786.1171875,784.1025390625
1395,790.5494384765625,789.3406372070312,785.7142944335938,784.1025390625
1396,787.3259887695312,784.908447265625,780.879150390625,787.7289428710938
1397,786.5201416015625,782.4908447265625,780.879150390625,791.3552856445312
1398,788.937744140625,784.5054931640625,784.1025390625,794.1758422851562
1399,789.7435913085938,788.5347900390625,784.5054931640625,792.967041015625
1400,793.7728881835938,787.7289428710938,783.2966918945312,795.3846435546875
1401,792.1611938476562,786.1171875,788.1318969726562,801.4285888671875
1402,786.1171875,784.5054931640625,789.3406372070312,794.5787353515625
1403,782.4908447265625,782.893798828125,788.5347900390625,795.3846435546875
1404,783.2966918945312,784.1025390625,791.7582397460938,802.6373901367188
1405,791.7582397460938,786.5201416015625,794.1758422851562,799.4139404296875
1406,795.3846435546875,789.7435913085938,795.7875366210938,796.996337890625
1407,793.3699340820312,788.937744140625,794.1758422851562,797.3992919921875
1408,788.937744140625,787.3259887695312,792.5640869140625,790.1465454101562
1409,781.2820434570312,788.937744140625,792.1611938476562,780.0732421875
1410,780.0732421875,788.5347900390625,791.7582397460938,778.4615478515625
1411,777.2527465820312,788.1318969726562,791.3552856445312,776.8497924804688
1412,773.2234497070312,788.937744140625,790.1465454101562,771.6116943359375
1413,780.879150390625,796.5933837890625,789.7435913085938,770.4029541015625
1414,782.087890625,803.4432373046875,786.923095703125,771.2088012695312
1415,778.8644409179688,800.2197875976562,782.4908447265625,770.0
1416,785.3113403320312,794.981689453125,782.087890625,768.3883056640625
1417,792.967041015625,795.7875366210938,784.1025390625,777.2527465820312
1418,786.5201416015625,794.1758422851562,787.7289428710938,787.3259887695312
1419,780.4761962890625,788.937744140625,785.3113403320312,786.923095703125
1420,789.7435913085938,793.3699340820312,784.5054931640625,788.5347900390625
1421,793.3699340820312,795.7875366210938,788.5347900390625,790.5494384765625
1422,792.1611938476562,793.3699340820312,788.1318969726562,792.1611938476562
1423,795.3846435546875,796.996337890625,790.5494384765625,796.1904907226562
1424,790.5494384765625,798.6080322265625,795.7875366210938,800.6226806640625
1425,784.908447265625,794.5787353515625,791.7582397460938,798.2051391601562
1426,788.1318969726562,796.1904907226562,789.3406372070312,797.3992919921875
1427,796.996337890625,798.2051391601562,796.1904907226562,802.6373901367188
1428,798.6080322265625,792.967041015625,795.3846435546875,799.8168334960938
1429,793.3699340820312,793.7728881835938,796.1904907226562,798.6080322265625
1430,789.7435913085938,799.8168334960938,792.967041015625,806.2637329101562
1431,789.7435913085938,798.6080322265625,789.3406372070312,803.4432373046875
1432,792.1611938476562,797.3992919921875,790.952392578125,796.5933837890625
1433,799.010986328125,799.4139404296875,792.1611938476562,794.5787353515625
1434,799.8168334960938,798.6080322265625,792.5640869140625,786.1171875
1435,803.040283203125,801.025634765625,793.3699340820312,787.7289428710938
1436,809.4871826171875,804.6520385742188,799.4139404296875,793.7728881835938
1437,806.6666870117188,800.2197875976562,804.2490844726562,789.3406372070312
1438,794.981689453125,794.981689453125,800.6226806640625,788.5347900390625
1439,787.7289428710938,796.1904907226562,799.010986328125,788.1318969726562
1440,787.3259887695312,795.3846435546875,800.2197875976562,788.5347900390625
1441,790.5494384765625,795.7875366210938,801.025634765625,792.967041015625
1442,795.7875366210938,797.8021850585938,799.8168334960938,800.2197875976562
1443,794.1758422851562,794.981689453125,795.7875366210938,794.981689453125
1444,792.5640869140625,794.5787353515625,794.5787353515625,791.3552856445312
1445,794.5787353515625,794.5787353515625,790.952392578125,792.5640869140625
1446,795.3846435546875,792.1611938476562,789.3406372070312,790.5494384765625
1447,795.3846435546875,788.5347900390625,790.952392578125,792.1611938476562
1448,794.981689453125,788.937744140625,790.5494384765625,791.7582397460938
1449,793.3699340820312,790.1465454101562,789.3406372070312,793.3699340820312
1450,792.967041015625,794.981689453125,793.3699340820312,800.2197875976562
1451,794.1758422851562,795.3846435546875,796.1904907226562,800.2197875976562
1452,799.8168334960938,789.7435913085938,794.981689453125,799.4139404296875
1453,796.5933837890625,792.967041015625,790.5494384765625,800.6226806640625
1454,787.7289428710938,796.1904907226562,790.1465454101562,796.5933837890625
1455,788.937744140625,793.7728881835938,788.1318969726562,790.1465454101562
1456,784.1025390625,787.7289428710938,783.6996459960938,782.087890625
1457,775.6410522460938,782.087890625,788.1318969726562,780.879150390625
1458,773.6264038085938,783.6996459960938,786.923095703125,779.6703491210938
1459,773.2234497070312,783.2966918945312,782.087890625,772.4176025390625
1460,770.4029541015625,782.893798828125,784.908447265625,770.0
1461,777.6557006835938,787.7289428710938,785.3113403320312,772.0146484375
1462,787.3259887695312,789.3406372070312,785.3113403320312,777.6557006835938
1463,783.6996459960938,787.7289428710938,792.967041015625,777.2527465820312
1464,779.6703491210938,788.937744140625,794.5787353515625,773.6264038085938
1465,776.4468994140625,790.952392578125,789.7435913085938,777.6557006835938
1466,780.4761962890625,790.1465454101562,789.7435913085938,775.6410522460938
1467,783.6996459960938,789.7435913085938,790.952392578125,775.2380981445312
1468,786.923095703125,788.5347900390625,790.1465454101562,784.1025390625
1469,788.1318969726562,785.3113403320312,791.3552856445312,788.1318969726562
1470,787.3259887695312,784.1025390625,795.7875366210938,784.1025390625
1471,788.937744140625,784.5054931640625,797.3992919921875,785.7142944335938
1472,794.5787353515625,786.5201416015625,796.996337890625,792.5640869140625
1473,800.6226806640625,784.5054931640625,795.3846435546875,790.952392578125
1474,803.4432373046875,785.7142944335938,796.996337890625,794.5787353515625
1475,797.8021850585938,784.5054931640625,798.2051391601562,796.996337890625
1476,799.8168334960938,783.6996459960938,791.7582397460938,796.5933837890625
1477,808.2783813476562,786.923095703125,793.7728881835938,801.4285888671875
1478,805.4578857421875,787.3259887695312,796.1904907226562,792.967041015625
1479,796.5933837890625,784.1025390625,798.6080322265625,788.937744140625
1480,786.5201416015625,786.5201416015625,794.1758422851562,794.1758422851562
1481,787.3259887695312,792.967041015625,788.937744140625,791.3552856445312
1482,794.5787353515625,789.7435913085938,790.5494384765625,789.3406372070312
1483,800.6226806640625,792.5640869140625,792.5640869140625,792.967041015625
1484,801.025634765625,800.6226806640625,798.2051391601562,790.1465454101562
1485,797.3992919921875,802.6373901367188,799.010986328125,787.7289428710938
1486,790.5494384765625,798.6080322265625,796.996337890625,786.5201416015625
1487,793.3699340820312,799.8168334960938,793.7728881835938,788.1318969726562
1488,788.5347900390625,801.8314819335938,790.1465454101562,789.3406372070312
1489,778.8644409179688,797.3992919921875,787.3259887695312,786.1171875
1490,774.029296875,790.5494384765625,784.5054931640625,776.4468994140625
1491,770.4029541015625,790.952392578125,787.7289428710938,776.8497924804688
1492,774.4322509765625,797.3992919921875,790.952392578125,789.7435913085938
1493,780.0732421875,798.2051391601562,790.5494384765625,785.3113403320312
1494,782.4908447265625,795.7875366210938,791.3552856445312,783.6996459960938
1495,785.3113403320312,794.1758422851562,791.3552856445312,787.7289428710938
1496,782.893798828125,792.5640869140625,788.1318969726562,785.3113403320312
1497,788.1318969726562,793.3699340820312,786.1171875,792.1611938476562
1498,794.981689453125,794.981689453125,782.893798828125,793.7728881835938
1499,794.5787353515625,796.1904907226562,784.5054931640625,784.1025390625
1500,792.1611938476562,799.4139404296875,785.3113403320312,782.4908447265625
1501,791.3552856445312,799.4139404296875,786.923095703125,777.6557006835938
1502,792.967041015625,797.8021850585938,787.3259887695312,771.6116943359375
1503,787.7289428710938,792.1611938476562,785.7142944335938,779.6703491210938
1504,785.7142944335938,784.908447265625,785.3113403320312,783.2966918945312
1505,777.2527465820312,784.908447265625,784.1025390625,770.8058471679688
1506,769.5970458984375,784.5054931640625,782.4908447265625,768.3883056640625
1507,772.8204956054688,783.2966918945312,783.6996459960938,772.8204956054688
1508,774.8351440429688,785.7142944335938,788.5347900390625,775.6410522460938
1509,777.2527465820312,786.923095703125,788.5347900390625,774.4322509765625
1510,779.2673950195312,789.7435913085938,785.7142944335938,769.5970458984375
1511,777.6557006835938,792.967041015625,789.3406372070312,772.0146484375
1512,777.6557006835938,787.7289428710938,789.7435913085938,771.2088012695312
1513,783.6996459960938,782.4908447265625,790.5494384765625,774.4322509765625
1514,786.923095703125,782.087890625,788.937744140625,779.6703491210938
1515,787.7289428710938,782.893798828125,788.1318969726562,781.6849975585938
1516,785.7142944335938,782.893798828125,794.1758422851562,780.4761962890625
1517,786.1171875,786.5201416015625,796.996337890625,785.7142944335938
1518,797.3992919921875,788.1318969726562,797.8021850585938,788.1318969726562
1519,810.2930297851562,788.937744140625,801.8314819335938,789.7435913085938
1520,805.4578857421875,794.981689453125,800.6226806640625,792.967041015625
1521,801.4285888671875,793.7728881835938,799.010986328125,790.1465454101562
1522,802.2344360351562,792.5640869140625,801.4285888671875,789.7435913085938
1523,802.6373901367188,793.3699340820312,801.025634765625,789.7435913085938
1524,810.6959838867188,790.952392578125,803.4432373046875,799.010986328125
1525,808.6813354492188,791.3552856445312,801.8314819335938,801.8314819335938
1526,804.2490844726562,791.3552856445312,799.8168334960938,800.6226806640625
1527,805.4578857421875,789.3406372070312,799.8168334960938,798.6080322265625
1528,803.040283203125,791.3552856445312,796.996337890625,790.952392578125
1529,799.010986328125,792.967041015625,789.3406372070312,787.7289428710938
1530,791.3552856445312,788.937744140625,787.3259887695312,784.5054931640625
1531,789.3406372070312,789.7435913085938,790.952392578125,788.937744140625
1532,783.6996459960938,792.1611938476562,789.3406372070312,786.1171875
1533,781.6849975585938,789.3406372070312,786.5201416015625,780.4761962890625
1534,786.923095703125,788.1318969726562,786.5201416015625,782.893798828125
1535,786.1171875,788.937744140625,785.7142944335938,782.087890625
1536,782.087890625,788.5347900390625,787.3259887695312,781.6849975585938
1537,781.2820434570312,789.3406372070312,785.3113403320312,784.908447265625
1538,782.087890625,792.5640869140625,780.879150390625,790.1465454101562
1539,785.7142944335938,792.1611938476562,783.2966918945312,784.908447265625
1540,789.3406372070312,791.3552856445312,786.5201416015625,778.8644409179688
1541,786.1171875,790.5494384765625,782.4908447265625,779.2673950195312
1542,786.5201416015625,787.3259887695312,785.3113403320312,780.0732421875
1543,787.3259887695312,789.3406372070312,790.1465454101562,778.8644409179688
1544,788.937744140625,791.3552856445312,784.5054931640625,787.3259887695312
1545,787.7289428710938,792.1611938476562,787.7289428710938,789.3406372070312
1546,792.1611938476562,797.8021850585938,791.3552856445312,785.3113403320312
1547,798.2051391601562,797.3992919921875,787.3259887695312,788.937744140625
1548,801.8314819335938,801.8314819335938,795.7875366210938,792.1611938476562
1549,807.4725341796875,807.4725341796875,796.996337890625,792.5640869140625
1550,794.981689453125,798.2051391601562,784.1025390625,781.2820434570312
1551,784.1025390625,802.2344360351562,788.937744140625,772.8204956054688
1552,785.7142944335938,816.3369750976562,792.5640869140625,776.8497924804688
1553,771.6116943359375,808.2783813476562,781.2820434570312,767.1795043945312
1554,769.5970458984375,803.040283203125,781.6849975585938,761.94140625
1555,764.7619018554688,813.5164794921875,782.893798828125,751.4652099609375
1556,750.2564086914062,816.3369750976562,780.0732421875,731.7216186523438
1557,742.6007080078125,825.6043701171875,782.893798828125,716.8131713867188
1558,730.10986328125,833.2600708007812,784.5054931640625,702.3076782226562
1559,716.4102783203125,824.7985229492188,779.6703491210938,692.2344360351562
1560,700.2930297851562,825.6043701171875,783.2966918945312,681.7582397460938
1561,678.1318969726562,829.2307739257812,794.981689453125,658.3883056640625
1562,665.6410522460938,832.05126953125,794.5787353515625,647.5091552734375
1563,656.3735961914062,841.3186645507812,792.1611938476562,638.6447143554688
1564,642.2710571289062,840.915771484375,791.7582397460938,621.3186645507812
1565,640.6593627929688,844.5421142578125,790.1465454101562,619.7069702148438
1566,634.2124633789062,850.5860595703125,793.3699340820312,610.8424682617188
1567,618.4981689453125,839.7069702148438,799.010986328125,596.3369750976562
1568,610.8424682617188,843.3333129882812,795.7875366210938,594.7252807617188
1569,616.886474609375,858.6447143554688,798.6080322265625,601.1721801757812
1570,611.6483764648438,852.6007080078125,805.8607788085938,597.94873046875
1571,614.8717651367188,848.974365234375,794.981689453125,608.02197265625
1572,622.930419921875,854.6153564453125,794.5787353515625,614.4688720703125
1573,615.2747192382812,846.1538696289062,806.6666870117188,607.6190185546875
1574,624.945068359375,841.7216186523438,807.069580078125,615.6776733398438
1575,641.062255859375,844.1392211914062,804.2490844726562,628.1685180664062
1576,647.912109375,844.945068359375,808.6813354492188,640.2564086914062
1577,653.1502075195312,845.3479614257812,806.6666870117188,641.8681030273438
1578,651.94140625,840.10986328125,800.6226806640625,638.2417602539062
1579,662.8204956054688,834.8717651367188,801.8314819335938,655.970703125
1580,672.4908447265625,834.4688720703125,805.4578857421875,672.893798828125
1581,672.087890625,840.915771484375,806.2637329101562,670.0732421875
1582,669.2673950195312,838.09521484375,803.4432373046875,665.2380981445312
1583,665.2380981445312,822.7838745117188,796.1904907226562,661.2088012695312
1584,675.7142944335938,813.5164794921875,790.5494384765625,670.0732421875
1585,695.054931640625,816.7399291992188,794.5787353515625,686.1904907226562
1586,690.6226806640625,814.3223266601562,789.3406372070312,676.923095703125
1587,685.7875366210938,810.2930297851562,787.7289428710938,680.1465454101562
1588,703.113525390625,813.91943359375,792.1611938476562,703.113525390625
1589,715.2014770507812,817.5457763671875,791.7582397460938,705.1282348632812
1590,717.6190185546875,812.3076782226562,793.7728881835938,700.2930297851562
