timestamp,RAW_TP9,RAW_AF7,RAW_AF8,RAW_TP10
1,777.2527465820312,789.3406372070312,802.2344360351562,805.4578857421875
2,785.3113403320312,790.1465454101562,804.2490844726562,799.010986328125
3,783.6996459960938,784.908447265625,802.2344360351562,798.2051391601562
4,781.6849975585938,784.1025390625,798.2051391601562,806.2637329101562
5,788.5347900390625,788.937744140625,798.2051391601562,805.054931640625
6,788.937744140625,790.952392578125,799.4139404296875,795.7875366210938
7,784.908447265625,787.7289428710938,799.8168334960938,794.5787353515625
8,790.952392578125,789.3406372070312,801.8314819335938,797.8021850585938
9,784.1025390625,789.3406372070312,799.8168334960938,794.981689453125
10,780.879150390625,786.5201416015625,796.5933837890625,792.967041015625
11,788.1318969726562,788.1318969726562,796.1904907226562,795.3846435546875
12,787.3259887695312,787.3259887695312,799.4139404296875,787.7289428710938
13,792.967041015625,788.937744140625,805.054931640625,787.7289428710938
14,797.8021850585938,792.1611938476562,805.8607788085938,795.3846435546875
15,797.3992919921875,793.7728881835938,801.4285888671875,794.5787353515625
16,799.4139404296875,797.3992919921875,801.8314819335938,798.6080322265625
17,797.8021850585938,800.2197875976562,807.87548828125,801.025634765625
18,797.3992919921875,796.996337890625,807.4725341796875,796.5933837890625
19,806.2637329101562,796.996337890625,803.8461303710938,797.8021850585938
20,804.2490844726562,793.7728881835938,800.6226806640625,791.7582397460938
21,804.2490844726562,790.952392578125,801.4285888671875,794.5787353515625
22,807.069580078125,792.5640869140625,800.2197875976562,799.8168334960938
23,799.010986328125,788.937744140625,800.2197875976562,794.5787353515625
24,789.7435913085938,788.5347900390625,798.6080322265625,794.981689453125
25,792.5640869140625,794.981689453125,797.8021850585938,799.010986328125
26,792.967041015625,794.981689453125,804.2490844726562,792.967041015625
27,790.5494384765625,790.952392578125,802.2344360351562,793.3699340820312
28,789.7435913085938,790.1465454101562,800.6226806640625,799.010986328125
29,785.3113403320312,789.7435913085938,798.6080322265625,796.5933837890625
30,789.3406372070312,784.1025390625,793.7728881835938,787.7289428710938
31,791.3552856445312,779.6703491210938,792.5640869140625,792.1611938476562
32,786.1171875,784.5054931640625,792.5640869140625,788.5347900390625
33,794.981689453125,790.1465454101562,792.967041015625,779.6703491210938
34,800.2197875976562,794.1758422851562,795.7875366210938,788.1318969726562
35,792.967041015625,795.7875366210938,796.996337890625,798.2051391601562
36,790.5494384765625,796.5933837890625,794.5787353515625,793.7728881835938
37,779.2673950195312,792.5640869140625,791.7582397460938,791.3552856445312
38,778.05859375,790.1465454101562,796.1904907226562,792.1611938476562
39,786.923095703125,789.7435913085938,798.6080322265625,790.1465454101562
40,792.5640869140625,789.7435913085938,796.1904907226562,788.937744140625
41,792.5640869140625,790.952392578125,795.7875366210938,782.893798828125
42,787.3259887695312,786.923095703125,791.3552856445312,781.6849975585938
43,785.7142944335938,784.1025390625,786.1171875,779.2673950195312
44,784.908447265625,785.3113403320312,787.7289428710938,780.0732421875
45,784.5054931640625,786.923095703125,791.7582397460938,787.3259887695312
46,781.6849975585938,788.1318969726562,790.1465454101562,788.5347900390625
47,782.4908447265625,787.7289428710938,792.1611938476562,792.5640869140625
48,788.937744140625,786.1171875,794.981689453125,798.2051391601562
49,790.1465454101562,787.7289428710938,792.5640869140625,794.981689453125
50,789.7435913085938,790.5494384765625,791.3552856445312,794.981689453125
51,793.3699340820312,789.3406372070312,794.5787353515625,805.8607788085938
52,796.1904907226562,796.5933837890625,800.2197875976562,807.069580078125
53,803.8461303710938,800.2197875976562,796.996337890625,808.2783813476562
54,799.4139404296875,793.7728881835938,795.7875366210938,796.1904907226562
55,797.8021850585938,794.981689453125,799.4139404296875,785.3113403320312
56,807.069580078125,795.3846435546875,795.3846435546875,788.1318969726562
57,800.2197875976562,792.5640869140625,792.1611938476562,787.7289428710938
58,787.3259887695312,795.7875366210938,796.996337890625,793.3699340820312
59,786.1171875,801.025634765625,801.025634765625,796.1904907226562
60,782.4908447265625,798.6080322265625,798.6080322265625,784.1025390625
61,780.0732421875,794.981689453125,795.3846435546875,777.6557006835938
62,793.3699340820312,795.7875366210938,796.996337890625,784.908447265625
63,794.5787353515625,796.996337890625,801.4285888671875,790.5494384765625
64,785.7142944335938,801.8314819335938,799.4139404296875,790.5494384765625
65,786.1171875,800.6226806640625,803.8461303710938,792.5640869140625
66,789.3406372070312,799.010986328125,805.4578857421875,793.7728881835938
67,796.996337890625,798.2051391601562,797.8021850585938,789.7435913085938
68,799.4139404296875,796.5933837890625,797.8021850585938,785.3113403320312
69,792.1611938476562,799.010986328125,802.2344360351562,790.952392578125
70,790.952392578125,800.6226806640625,802.2344360351562,792.5640869140625
71,792.1611938476562,797.3992919921875,797.3992919921875,793.7728881835938
72,789.3406372070312,794.1758422851562,798.6080322265625,788.1318969726562
73,786.1171875,794.1758422851562,800.2197875976562,788.1318969726562
74,784.908447265625,794.1758422851562,797.8021850585938,796.5933837890625
75,785.7142944335938,796.996337890625,798.6080322265625,786.923095703125
76,788.937744140625,796.996337890625,802.2344360351562,784.5054931640625
77,797.8021850585938,792.1611938476562,798.2051391601562,786.5201416015625
78,804.2490844726562,789.7435913085938,798.6080322265625,790.5494384765625
79,793.7728881835938,793.7728881835938,794.981689453125,783.2966918945312
80,778.4615478515625,789.7435913085938,790.5494384765625,773.6264038085938
81,777.6557006835938,786.923095703125,788.937744140625,775.2380981445312
82,785.7142944335938,786.5201416015625,787.7289428710938,772.0146484375
83,789.3406372070312,784.1025390625,791.3552856445312,774.029296875
84,783.6996459960938,786.1171875,792.967041015625,777.6557006835938
85,794.5787353515625,786.1171875,796.5933837890625,793.3699340820312
86,802.6373901367188,786.5201416015625,798.2051391601562,805.8607788085938
87,791.7582397460938,798.2051391601562,795.3846435546875,794.1758422851562
88,781.6849975585938,798.2051391601562,792.967041015625,782.893798828125
89,774.029296875,793.3699340820312,791.3552856445312,778.8644409179688
90,768.3883056640625,795.7875366210938,791.3552856445312,766.3735961914062
91,771.6116943359375,793.7728881835938,791.7582397460938,767.1795043945312
92,780.879150390625,794.1758422851562,789.3406372070312,779.2673950195312
93,788.1318969726562,796.1904907226562,789.3406372070312,781.2820434570312
94,794.981689453125,794.5787353515625,793.3699340820312,782.087890625
95,790.952392578125,792.5640869140625,797.3992919921875,777.2527465820312
96,783.6996459960938,794.981689453125,797.8021850585938,780.0732421875
97,791.3552856445312,794.1758422851562,795.7875366210938,789.3406372070312
98,784.908447265625,794.1758422851562,795.3846435546875,785.7142944335938
99,785.3113403320312,797.3992919921875,794.981689453125,779.6703491210938
100,790.1465454101562,794.1758422851562,793.3699340820312,784.5054931640625
101,786.1171875,788.5347900390625,793.3699340820312,800.2197875976562
102,793.7728881835938,792.5640869140625,798.6080322265625,790.952392578125
103,792.1611938476562,796.996337890625,799.4139404296875,785.7142944335938
104,789.7435913085938,800.6226806640625,799.010986328125,790.952392578125
105,789.7435913085938,801.8314819335938,799.8168334960938,778.05859375
106,791.3552856445312,803.040283203125,801.8314819335938,776.8497924804688
107,800.6226806640625,804.2490844726562,805.8607788085938,786.1171875
108,789.7435913085938,795.7875366210938,802.6373901367188,787.7289428710938
109,773.2234497070312,789.3406372070312,799.8168334960938,784.908447265625
110,772.0146484375,794.5787353515625,796.1904907226562,781.2820434570312
111,772.4176025390625,791.3552856445312,799.4139404296875,782.4908447265625
112,781.6849975585938,789.3406372070312,803.8461303710938,788.1318969726562
113,788.5347900390625,792.5640869140625,802.2344360351562,796.1904907226562
114,786.923095703125,793.7728881835938,798.6080322265625,805.054931640625
115,786.5201416015625,793.3699340820312,792.5640869140625,794.5787353515625
116,787.3259887695312,796.996337890625,794.1758422851562,780.0732421875
117,793.7728881835938,800.6226806640625,798.2051391601562,783.6996459960938
118,802.2344360351562,799.4139404296875,795.3846435546875,786.923095703125
119,794.5787353515625,799.8168334960938,794.1758422851562,787.7289428710938
120,789.3406372070312,798.6080322265625,796.5933837890625,780.4761962890625
121,790.952392578125,795.3846435546875,795.3846435546875,775.2380981445312
122,788.937744140625,794.5787353515625,795.7875366210938,778.8644409179688
123,793.7728881835938,794.1758422851562,791.7582397460938,784.908447265625
124,793.7728881835938,789.7435913085938,794.1758422851562,791.7582397460938
125,790.952392578125,788.1318969726562,798.2051391601562,787.7289428710938
126,790.1465454101562,788.5347900390625,795.3846435546875,782.087890625
127,789.3406372070312,790.1465454101562,799.010986328125,791.7582397460938
128,786.923095703125,789.7435913085938,798.6080322265625,797.3992919921875
129,784.5054931640625,790.952392578125,799.8168334960938,788.1318969726562
130,787.3259887695312,790.952392578125,801.4285888671875,787.3259887695312
131,787.3259887695312,790.952392578125,799.010986328125,781.6849975585938
132,787.3259887695312,796.1904907226562,797.3992919921875,779.2673950195312
133,792.5640869140625,797.8021850585938,797.3992919921875,787.3259887695312
134,798.2051391601562,794.981689453125,794.5787353515625,790.1465454101562
135,795.7875366210938,787.3259887695312,793.7728881835938,792.1611938476562
136,788.937744140625,789.3406372070312,794.5787353515625,794.981689453125
137,797.8021850585938,792.5640869140625,797.3992919921875,790.5494384765625
138,798.6080322265625,795.3846435546875,798.2051391601562,790.1465454101562
139,776.8497924804688,794.981689453125,794.5787353515625,793.7728881835938
140,780.4761962890625,791.7582397460938,795.7875366210938,791.3552856445312
141,787.7289428710938,791.3552856445312,797.8021850585938,786.1171875
142,787.3259887695312,793.7728881835938,800.2197875976562,792.1611938476562
143,790.1465454101562,791.7582397460938,799.010986328125,793.3699340820312
144,790.1465454101562,789.3406372070312,794.5787353515625,789.3406372070312
145,787.7289428710938,792.5640869140625,797.8021850585938,793.7728881835938
146,789.7435913085938,799.010986328125,797.8021850585938,801.8314819335938
147,794.1758422851562,795.7875366210938,797.3992919921875,810.6959838867188
148,797.8021850585938,789.3406372070312,797.3992919921875,804.6520385742188
149,799.4139404296875,794.5787353515625,799.8168334960938,793.7728881835938
150,792.967041015625,796.1904907226562,800.2197875976562,799.8168334960938
151,790.1465454101562,790.1465454101562,799.4139404296875,798.6080322265625
152,788.5347900390625,792.5640869140625,798.6080322265625,789.3406372070312
153,797.3992919921875,793.3699340820312,794.1758422851562,788.937744140625
154,791.3552856445312,788.937744140625,791.7582397460938,789.7435913085938
155,785.3113403320312,790.952392578125,789.3406372070312,789.7435913085938
156,794.1758422851562,794.981689453125,788.1318969726562,792.967041015625
157,797.3992919921875,794.1758422851562,792.967041015625,797.8021850585938
158,796.1904907226562,789.7435913085938,792.967041015625,794.981689453125
159,790.952392578125,789.3406372070312,791.7582397460938,790.1465454101562
160,798.2051391601562,796.1904907226562,791.7582397460938,789.3406372070312
161,799.8168334960938,799.8168334960938,794.981689453125,786.923095703125
162,802.6373901367188,800.2197875976562,796.996337890625,792.1611938476562
163,813.91943359375,797.3992919921875,795.3846435546875,790.1465454101562
164,808.6813354492188,792.967041015625,797.3992919921875,787.3259887695312
165,802.2344360351562,792.1611938476562,797.3992919921875,794.5787353515625
166,797.3992919921875,790.1465454101562,794.1758422851562,801.025634765625
167,790.1465454101562,787.3259887695312,793.3699340820312,801.8314819335938
168,794.1758422851562,786.923095703125,796.1904907226562,788.1318969726562
169,797.8021850585938,789.7435913085938,797.3992919921875,782.4908447265625
170,788.1318969726562,786.5201416015625,791.3552856445312,792.1611938476562
171,784.908447265625,786.5201416015625,792.1611938476562,790.1465454101562
172,795.3846435546875,789.3406372070312,796.5933837890625,786.1171875
173,797.3992919921875,793.7728881835938,794.5787353515625,788.5347900390625
174,799.8168334960938,795.3846435546875,792.967041015625,795.3846435546875
175,799.4139404296875,794.1758422851562,788.937744140625,788.937744140625
176,796.5933837890625,793.3699340820312,782.893798828125,779.2673950195312
177,792.967041015625,789.7435913085938,781.2820434570312,781.6849975585938
178,775.2380981445312,790.5494384765625,783.2966918945312,777.2527465820312
179,782.087890625,792.5640869140625,784.1025390625,774.8351440429688
180,791.7582397460938,794.1758422851562,788.1318969726562,782.893798828125
181,782.893798828125,790.952392578125,791.3552856445312,790.5494384765625
182,780.879150390625,793.7728881835938,788.5347900390625,794.1758422851562
183,792.5640869140625,796.5933837890625,785.3113403320312,788.5347900390625
184,794.5787353515625,792.5640869140625,788.1318969726562,785.3113403320312
185,787.7289428710938,793.7728881835938,791.7582397460938,791.7582397460938
186,789.7435913085938,793.7728881835938,790.1465454101562,791.3552856445312
187,790.5494384765625,792.1611938476562,788.5347900390625,790.952392578125
188,795.3846435546875,791.7582397460938,791.3552856445312,789.7435913085938
189,793.7728881835938,793.3699340820312,791.7582397460938,790.5494384765625
190,797.3992919921875,798.2051391601562,791.3552856445312,792.5640869140625
191,816.3369750976562,801.8314819335938,792.5640869140625,793.3699340820312
192,816.3369750976562,799.4139404296875,792.1611938476562,792.5640869140625
193,787.3259887695312,796.996337890625,796.996337890625,803.8461303710938
194,788.5347900390625,797.8021850585938,800.6226806640625,806.2637329101562
195,803.8461303710938,794.981689453125,799.010986328125,800.2197875976562
196,795.7875366210938,796.5933837890625,801.4285888671875,796.1904907226562
197,786.5201416015625,795.7875366210938,802.6373901367188,790.1465454101562
198,791.3552856445312,794.1758422851562,798.6080322265625,793.7728881835938
199,790.952392578125,796.1904907226562,796.996337890625,798.6080322265625
200,794.5787353515625,791.7582397460938,792.1611938476562,798.6080322265625
201,797.3992919921875,789.3406372070312,793.7728881835938,793.3699340820312
202,797.3992919921875,791.3552856445312,797.8021850585938,786.5201416015625
203,798.6080322265625,790.5494384765625,798.2051391601562,787.3259887695312
204,794.981689453125,794.1758422851562,797.3992919921875,793.7728881835938
205,802.2344360351562,799.010986328125,799.8168334960938,796.996337890625
206,811.5018310546875,796.1904907226562,800.6226806640625,794.5787353515625
207,788.937744140625,795.7875366210938,798.2051391601562,790.952392578125
208,774.8351440429688,800.2197875976562,799.4139404296875,793.3699340820312
209,784.1025390625,801.025634765625,799.4139404296875,800.2197875976562
210,790.1465454101562,799.010986328125,797.3992919921875,794.981689453125
211,790.5494384765625,793.3699340820312,793.7728881835938,789.7435913085938
212,790.952392578125,793.3699340820312,790.5494384765625,791.7582397460938
213,793.3699340820312,797.8021850585938,790.5494384765625,794.1758422851562
214,796.5933837890625,793.7728881835938,790.1465454101562,794.981689453125
215,797.8021850585938,791.3552856445312,788.937744140625,787.7289428710938
216,790.1465454101562,792.967041015625,793.3699340820312,792.1611938476562
217,782.4908447265625,793.3699340820312,796.1904907226562,786.923095703125
218,787.3259887695312,794.1758422851562,798.6080322265625,781.6849975585938
219,791.3552856445312,794.5787353515625,794.5787353515625,788.937744140625
220,797.3992919921875,795.3846435546875,792.1611938476562,796.5933837890625
221,803.4432373046875,794.981689453125,796.996337890625,799.4139404296875
222,797.8021850585938,794.981689453125,794.1758422851562,792.967041015625
223,790.5494384765625,790.1465454101562,790.5494384765625,790.952392578125
224,793.7728881835938,788.937744140625,794.1758422851562,792.5640869140625
225,795.3846435546875,790.5494384765625,794.981689453125,797.3992919921875
226,800.6226806640625,787.7289428710938,793.7728881835938,795.7875366210938
227,802.6373901367188,788.5347900390625,792.967041015625,786.923095703125
228,788.937744140625,793.3699340820312,794.1758422851562,791.3552856445312
229,789.7435913085938,790.5494384765625,793.3699340820312,793.7728881835938
230,782.893798828125,783.6996459960938,788.937744140625,782.893798828125
231,783.6996459960938,792.967041015625,793.3699340820312,796.5933837890625
232,791.7582397460938,799.4139404296875,794.981689453125,804.6520385742188
233,781.2820434570312,797.8021850585938,792.1611938476562,784.5054931640625
234,775.2380981445312,797.3992919921875,791.7582397460938,778.05859375
235,783.2966918945312,793.3699340820312,791.3552856445312,782.893798828125
236,789.3406372070312,789.3406372070312,795.3846435546875,778.4615478515625
237,780.879150390625,792.5640869140625,791.3552856445312,774.8351440429688
238,777.2527465820312,792.967041015625,790.5494384765625,772.8204956054688
239,786.1171875,794.1758422851562,795.3846435546875,774.4322509765625
240,790.5494384765625,794.1758422851562,794.981689453125,784.908447265625
241,790.952392578125,794.1758422851562,792.1611938476562,783.6996459960938
242,797.8021850585938,792.5640869140625,788.5347900390625,779.2673950195312
243,785.7142944335938,782.893798828125,789.3406372070312,784.1025390625
244,782.087890625,783.2966918945312,793.3699340820312,789.7435913085938
245,805.054931640625,786.923095703125,799.8168334960938,792.5640869140625
246,797.3992919921875,786.5201416015625,804.2490844726562,799.8168334960938
247,785.3113403320312,787.7289428710938,805.8607788085938,802.6373901367188
248,788.5347900390625,791.7582397460938,803.4432373046875,798.6080322265625
249,794.1758422851562,793.7728881835938,803.8461303710938,801.4285888671875
250,799.010986328125,792.1611938476562,803.040283203125,799.8168334960938
251,794.5787353515625,794.5787353515625,799.010986328125,800.2197875976562
252,795.3846435546875,795.7875366210938,801.025634765625,802.2344360351562
253,794.1758422851562,793.3699340820312,797.8021850585938,797.3992919921875
254,795.7875366210938,793.3699340820312,796.5933837890625,802.2344360351562
255,793.7728881835938,790.952392578125,796.5933837890625,798.2051391601562
256,790.1465454101562,782.4908447265625,794.5787353515625,781.6849975585938
257,795.3846435546875,780.879150390625,794.5787353515625,782.893798828125
258,788.5347900390625,789.7435913085938,796.996337890625,789.7435913085938
259,778.8644409179688,791.7582397460938,799.4139404296875,782.087890625
260,782.087890625,788.937744140625,796.996337890625,779.2673950195312
261,785.7142944335938,791.3552856445312,796.996337890625,785.7142944335938
262,781.2820434570312,792.1611938476562,799.8168334960938,786.1171875
263,781.6849975585938,794.981689453125,798.6080322265625,788.5347900390625
264,785.3113403320312,794.1758422851562,799.8168334960938,790.1465454101562
265,787.7289428710938,788.5347900390625,799.4139404296875,784.908447265625
266,796.1904907226562,787.3259887695312,794.5787353515625,791.3552856445312
267,797.3992919921875,794.981689453125,796.5933837890625,800.6226806640625
268,794.5787353515625,795.7875366210938,801.025634765625,794.981689453125
269,796.5933837890625,792.1611938476562,799.010986328125,788.937744140625
270,796.5933837890625,792.1611938476562,792.967041015625,798.2051391601562
271,792.967041015625,790.5494384765625,787.3259887695312,798.2051391601562
272,791.7582397460938,788.1318969726562,786.923095703125,790.952392578125
273,792.1611938476562,784.908447265625,788.1318969726562,788.937744140625
274,789.7435913085938,788.5347900390625,790.5494384765625,792.967041015625
275,789.7435913085938,790.952392578125,791.3552856445312,795.3846435546875
276,792.1611938476562,789.3406372070312,792.967041015625,795.7875366210938
277,790.1465454101562,790.5494384765625,793.3699340820312,801.025634765625
278,788.937744140625,786.923095703125,792.5640869140625,795.7875366210938
279,790.1465454101562,787.3259887695312,792.967041015625,786.1171875
280,789.7435913085938,790.5494384765625,795.3846435546875,787.7289428710938
281,788.5347900390625,786.923095703125,792.5640869140625,786.1171875
282,794.981689453125,791.7582397460938,789.7435913085938,790.952392578125
283,798.6080322265625,794.981689453125,793.7728881835938,798.2051391601562
284,790.5494384765625,793.3699340820312,794.5787353515625,796.5933837890625
285,787.7289428710938,789.7435913085938,796.1904907226562,802.6373901367188
286,794.5787353515625,785.7142944335938,794.981689453125,804.2490844726562
287,789.7435913085938,790.5494384765625,794.5787353515625,789.7435913085938
288,791.7582397460938,799.010986328125,792.1611938476562,791.7582397460938
289,797.3992919921875,800.2197875976562,790.1465454101562,801.025634765625
290,799.010986328125,800.2197875976562,789.3406372070312,796.5933837890625
291,799.010986328125,795.7875366210938,784.908447265625,790.5494384765625
292,792.967041015625,793.3699340820312,782.087890625,792.967041015625
293,791.3552856445312,794.5787353515625,782.893798828125,789.7435913085938
294,793.7728881835938,795.7875366210938,784.5054931640625,782.4908447265625
295,792.967041015625,795.3846435546875,784.908447265625,782.893798828125
296,793.3699340820312,792.5640869140625,783.2966918945312,780.0732421875
297,790.5494384765625,792.1611938476562,784.1025390625,781.6849975585938
298,791.3552856445312,794.5787353515625,788.1318969726562,788.1318969726562
299,791.3552856445312,799.010986328125,792.5640869140625,791.7582397460938
300,790.952392578125,793.3699340820312,794.5787353515625,795.7875366210938
301,792.967041015625,788.1318969726562,790.952392578125,801.8314819335938
302,793.7728881835938,794.981689453125,788.937744140625,796.1904907226562
303,798.2051391601562,796.1904907226562,794.1758422851562,795.7875366210938
304,799.8168334960938,794.1758422851562,797.3992919921875,798.2051391601562
305,793.3699340820312,785.3113403320312,791.3552856445312,788.937744140625
306,788.5347900390625,782.893798828125,788.1318969726562,790.1465454101562
307,796.5933837890625,790.5494384765625,790.1465454101562,802.6373901367188
308,799.4139404296875,793.7728881835938,792.1611938476562,803.040283203125
309,791.3552856445312,790.1465454101562,794.5787353515625,793.3699340820312
310,793.3699340820312,790.952392578125,795.3846435546875,790.952392578125
311,799.010986328125,793.3699340820312,795.7875366210938,795.7875366210938
312,794.981689453125,786.923095703125,797.3992919921875,794.1758422851562
313,793.3699340820312,782.4908447265625,801.4285888671875,795.7875366210938
314,795.3846435546875,785.7142944335938,802.6373901367188,801.4285888671875
315,796.1904907226562,791.7582397460938,797.8021850585938,796.1904907226562
316,793.7728881835938,794.1758422851562,794.5787353515625,790.5494384765625
317,790.1465454101562,789.7435913085938,795.3846435546875,788.937744140625
318,790.5494384765625,793.3699340820312,799.4139404296875,790.5494384765625
319,792.967041015625,800.2197875976562,798.6080322265625,789.3406372070312
320,792.5640869140625,799.4139404296875,798.6080322265625,788.937744140625
321,791.7582397460938,794.5787353515625,799.4139404296875,785.3113403320312
322,793.3699340820312,791.7582397460938,797.8021850585938,782.893798828125
323,793.3699340820312,791.7582397460938,793.7728881835938,795.3846435546875
324,796.996337890625,795.7875366210938,791.7582397460938,807.069580078125
325,803.4432373046875,796.5933837890625,796.1904907226562,798.6080322265625
326,790.952392578125,797.8021850585938,797.8021850585938,798.6080322265625
327,787.7289428710938,799.4139404296875,798.2051391601562,810.6959838867188
328,790.952392578125,795.7875366210938,799.4139404296875,797.8021850585938
329,785.7142944335938,788.937744140625,796.5933837890625,778.8644409179688
330,791.3552856445312,792.1611938476562,797.8021850585938,783.6996459960938
331,792.5640869140625,792.967041015625,800.2197875976562,789.3406372070312
332,787.3259887695312,788.5347900390625,800.2197875976562,783.6996459960938
333,793.3699340820312,784.5054931640625,800.2197875976562,786.923095703125
334,792.967041015625,782.087890625,801.8314819335938,796.1904907226562
335,784.5054931640625,782.4908447265625,800.6226806640625,803.040283203125
336,780.879150390625,783.2966918945312,799.4139404296875,802.2344360351562
337,784.5054931640625,785.3113403320312,801.4285888671875,799.4139404296875
338,784.908447265625,786.5201416015625,797.8021850585938,798.6080322265625
339,780.879150390625,783.2966918945312,795.7875366210938,796.1904907226562
340,787.7289428710938,785.3113403320312,799.010986328125,798.6080322265625
341,794.981689453125,785.7142944335938,803.040283203125,799.8168334960938
342,792.1611938476562,782.087890625,804.6520385742188,795.3846435546875
343,798.2051391601562,779.6703491210938,805.8607788085938,802.2344360351562
344,803.4432373046875,783.2966918945312,805.8607788085938,800.6226806640625
345,796.5933837890625,789.7435913085938,801.8314819335938,788.1318969726562
346,794.981689453125,793.3699340820312,798.2051391601562,784.1025390625
347,801.8314819335938,793.7728881835938,796.5933837890625,795.3846435546875
348,805.054931640625,794.1758422851562,796.1904907226562,786.1171875
349,805.054931640625,794.5787353515625,797.8021850585938,772.4176025390625
350,802.6373901367188,795.7875366210938,796.996337890625,782.4908447265625
351,796.1904907226562,798.6080322265625,797.3992919921875,789.3406372070312
352,794.981689453125,796.1904907226562,795.7875366210938,788.1318969726562
353,799.8168334960938,793.3699340820312,793.7728881835938,787.7289428710938
354,807.069580078125,797.3992919921875,800.6226806640625,791.7582397460938
355,789.7435913085938,794.5787353515625,797.8021850585938,789.3406372070312
356,769.5970458984375,790.952392578125,790.1465454101562,780.879150390625
357,770.0,791.7582397460938,789.3406372070312,777.2527465820312
358,775.2380981445312,788.937744140625,787.7289428710938,782.087890625
359,777.6557006835938,790.952392578125,790.952392578125,782.4908447265625
360,773.2234497070312,789.7435913085938,793.7728881835938,782.893798828125
361,768.3883056640625,785.3113403320312,795.7875366210938,786.5201416015625
362,774.8351440429688,785.3113403320312,794.1758422851562,793.7728881835938
363,779.2673950195312,783.2966918945312,790.1465454101562,793.3699340820312
364,776.8497924804688,784.5054931640625,792.1611938476562,784.5054931640625
365,779.6703491210938,788.937744140625,792.5640869140625,784.1025390625
366,775.2380981445312,786.923095703125,788.937744140625,779.6703491210938
367,771.2088012695312,781.2820434570312,792.1611938476562,778.8644409179688
368,781.6849975585938,786.1171875,796.996337890625,788.1318969726562
369,788.1318969726562,788.1318969726562,801.025634765625,788.1318969726562
370,784.908447265625,786.5201416015625,799.010986328125,790.1465454101562
371,779.6703491210938,790.1465454101562,796.1904907226562,795.3846435546875
372,783.2966918945312,788.937744140625,797.8021850585938,787.3259887695312
373,790.952392578125,793.3699340820312,803.040283203125,788.937744140625
374,788.1318969726562,799.4139404296875,800.2197875976562,799.010986328125
375,786.5201416015625,794.981689453125,798.6080322265625,790.1465454101562
376,779.6703491210938,794.5787353515625,806.6666870117188,770.0
377,776.8497924804688,796.1904907226562,799.4139404296875,764.3589477539062
378,770.0,788.1318969726562,792.1611938476562,756.7033081054688
379,757.106201171875,790.1465454101562,799.4139404296875,748.6447143554688
380,763.5531005859375,808.6813354492188,812.3076782226562,755.8974609375
381,758.7179565429688,810.2930297851562,814.3223266601562,738.1685180664062
382,736.1538696289062,800.6226806640625,807.4725341796875,717.2161254882812
383,720.8424682617188,801.8314819335938,811.90478515625,711.5750732421875
384,703.5164794921875,807.87548828125,820.3662719726562,697.069580078125
385,693.040283203125,806.6666870117188,829.6337280273438,690.6226806640625
386,676.5201416015625,803.040283203125,840.10986328125,680.5494384765625
387,648.3150024414062,801.025634765625,838.09521484375,653.9560546875
388,641.062255859375,801.025634765625,836.886474609375,649.120849609375
389,634.6153564453125,797.8021850585938,846.1538696289062,655.970703125
390,628.5714111328125,799.010986328125,851.3919677734375,645.091552734375
391,635.018310546875,801.4285888671875,850.1831665039062,639.4505615234375
392,631.7948608398438,795.7875366210938,854.2124633789062,647.106201171875
393,624.5421142578125,799.010986328125,859.8534545898438,639.8534545898438
394,628.974365234375,801.4285888671875,857.8388061523438,635.4212646484375
395,634.2124633789062,795.3846435546875,857.8388061523438,646.3003540039062
396,645.4945068359375,792.1611938476562,857.032958984375,666.0439453125
397,656.7765502929688,790.952392578125,851.7948608398438,677.3259887695312
398,666.4468994140625,789.7435913085938,845.7509155273438,671.6849975585938
399,680.5494384765625,793.7728881835938,844.945068359375,679.3406372070312
400,691.8314819335938,795.3846435546875,845.3479614257812,704.7252807617188
401,700.2930297851562,797.3992919921875,838.09521484375,716.8131713867188
402,709.96337890625,800.6226806640625,833.2600708007812,719.6337280273438
403,716.00732421875,803.8461303710938,832.05126953125,720.4395751953125
404,730.5128173828125,800.2197875976562,824.3956298828125,726.4835205078125
405,745.8241577148438,796.1904907226562,823.5897216796875,747.032958984375
406,755.8974609375,799.4139404296875,824.7985229492188,765.970703125
407,765.970703125,799.8168334960938,819.1575317382812,778.05859375
408,774.4322509765625,799.8168334960938,813.113525390625,790.1465454101562
409,780.879150390625,800.6226806640625,806.2637329101562,793.3699340820312
410,786.923095703125,798.6080322265625,799.4139404296875,789.7435913085938
411,793.7728881835938,789.7435913085938,800.2197875976562,799.010986328125
412,791.3552856445312,788.5347900390625,798.6080322265625,803.4432373046875
413,790.5494384765625,790.952392578125,795.7875366210938,804.6520385742188
414,809.4871826171875,787.3259887695312,789.3406372070312,813.91943359375
415,826.00732421875,783.2966918945312,790.5494384765625,822.7838745117188
416,816.3369750976562,784.5054931640625,790.1465454101562,820.3662719726562
417,819.5604248046875,788.1318969726562,784.1025390625,821.97802734375
418,823.99267578125,786.1171875,782.4908447265625,813.91943359375
419,816.7399291992188,781.6849975585938,777.6557006835938,811.90478515625
420,822.3809814453125,779.2673950195312,772.0146484375,819.5604248046875
421,822.3809814453125,786.1171875,768.3883056640625,823.99267578125
422,824.7985229492188,794.981689453125,770.8058471679688,824.3956298828125
423,832.4542236328125,794.5787353515625,768.3883056640625,822.7838745117188
424,834.4688720703125,792.5640869140625,764.7619018554688,824.7985229492188
425,834.4688720703125,791.3552856445312,766.7765502929688,823.1868286132812
426,831.6483764648438,786.1171875,762.7472534179688,822.7838745117188
427,830.4395751953125,784.1025390625,758.7179565429688,827.2161254882812
428,832.4542236328125,786.5201416015625,758.7179565429688,825.2014770507812
429,838.4981689453125,784.908447265625,759.120849609375,819.5604248046875
430,844.5421142578125,783.6996459960938,759.5238037109375,819.5604248046875
431,844.1392211914062,784.908447265625,764.3589477539062,822.3809814453125
432,839.7069702148438,784.908447265625,763.9560546875,823.99267578125
433,832.4542236328125,780.4761962890625,761.1355590820312,828.8278198242188
434,826.4102783203125,772.8204956054688,764.7619018554688,828.4249267578125
435,827.2161254882812,767.9853515625,766.7765502929688,830.8424682617188
436,830.8424682617188,775.2380981445312,767.1795043945312,835.2747192382812
437,831.2454223632812,778.4615478515625,772.8204956054688,835.6776733398438
438,831.2454223632812,777.2527465820312,777.2527465820312,835.2747192382812
439,832.8571166992188,782.4908447265625,782.893798828125,843.7362670898438
440,835.2747192382812,782.893798828125,786.5201416015625,846.5567626953125
441,834.8717651367188,778.05859375,784.908447265625,840.5128173828125
442,827.2161254882812,781.2820434570312,784.908447265625,838.4981689453125
443,822.3809814453125,782.893798828125,784.908447265625,830.8424682617188
444,828.02197265625,780.0732421875,786.1171875,827.6190185546875
445,831.2454223632812,780.879150390625,786.923095703125,831.6483764648438
446,829.2307739257812,781.6849975585938,786.923095703125,830.8424682617188
447,825.2014770507812,785.3113403320312,788.1318969726562,821.5750732421875
448,821.97802734375,785.3113403320312,786.923095703125,815.5311279296875
449,819.1575317382812,782.087890625,780.4761962890625,818.7545776367188
450,819.96337890625,781.6849975585938,780.879150390625,810.6959838867188
451,819.96337890625,781.6849975585938,781.2820434570312,801.8314819335938
452,817.94873046875,788.5347900390625,775.6410522460938,803.040283203125
453,816.3369750976562,792.967041015625,778.05859375,810.2930297851562
454,818.3516235351562,793.3699340820312,776.8497924804688,814.3223266601562
455,818.7545776367188,794.5787353515625,774.8351440429688,807.4725341796875
456,813.5164794921875,788.5347900390625,776.8497924804688,797.8021850585938
457,819.96337890625,792.1611938476562,778.4615478515625,801.4285888671875
458,816.3369750976562,795.7875366210938,782.087890625,807.069580078125
459,809.084228515625,791.7582397460938,788.937744140625,810.6959838867188
460,807.4725341796875,795.7875366210938,792.1611938476562,812.7106323242188
461,802.6373901367188,791.7582397460938,796.1904907226562,816.7399291992188
462,798.6080322265625,787.3259887695312,795.7875366210938,825.2014770507812
463,792.1611938476562,783.2966918945312,790.1465454101562,811.5018310546875
464,789.7435913085938,783.2966918945312,788.937744140625,792.5640869140625
465,795.7875366210938,787.7289428710938,795.3846435546875,792.5640869140625
466,807.87548828125,790.1465454101562,795.7875366210938,801.4285888671875
467,810.2930297851562,790.1465454101562,799.4139404296875,805.054931640625
468,807.069580078125,788.5347900390625,801.8314819335938,803.4432373046875
469,806.6666870117188,786.923095703125,795.3846435546875,804.2490844726562
470,818.3516235351562,788.5347900390625,790.952392578125,811.5018310546875
471,823.5897216796875,788.5347900390625,790.1465454101562,807.4725341796875
472,819.1575317382812,788.1318969726562,792.5640869140625,796.996337890625
473,817.94873046875,789.3406372070312,792.5640869140625,799.4139404296875
474,813.5164794921875,789.7435913085938,790.5494384765625,799.010986328125
475,815.5311279296875,795.7875366210938,791.3552856445312,796.996337890625
476,825.6043701171875,799.8168334960938,794.1758422851562,819.5604248046875
477,817.5457763671875,794.981689453125,794.5787353515625,819.5604248046875
478,803.4432373046875,790.952392578125,788.937744140625,799.8168334960938
479,801.8314819335938,794.5787353515625,788.5347900390625,794.5787353515625
480,806.6666870117188,796.996337890625,790.5494384765625,798.6080322265625
481,806.2637329101562,796.5933837890625,788.5347900390625,811.5018310546875
482,809.4871826171875,797.8021850585938,787.3259887695312,810.2930297851562
483,807.87548828125,799.8168334960938,784.908447265625,803.4432373046875
484,796.5933837890625,800.6226806640625,785.3113403320312,807.4725341796875
485,798.6080322265625,798.2051391601562,790.1465454101562,818.3516235351562
486,799.4139404296875,796.5933837890625,789.3406372070312,808.2783813476562
487,795.7875366210938,799.4139404296875,790.1465454101562,800.2197875976562
488,800.2197875976562,798.6080322265625,788.1318969726562,801.8314819335938
489,800.6226806640625,800.6226806640625,787.7289428710938,792.5640869140625
490,802.2344360351562,799.4139404296875,782.087890625,788.1318969726562
491,801.8314819335938,796.996337890625,773.6264038085938,790.1465454101562
492,796.996337890625,799.4139404296875,779.2673950195312,793.3699340820312
493,796.5933837890625,799.4139404296875,783.6996459960938,791.7582397460938
494,797.8021850585938,797.8021850585938,786.1171875,790.952392578125
495,798.6080322265625,791.3552856445312,786.1171875,790.1465454101562
496,797.8021850585938,790.952392578125,787.7289428710938,791.7582397460938
497,798.6080322265625,796.5933837890625,790.5494384765625,796.996337890625
498,802.2344360351562,798.6080322265625,790.952392578125,798.6080322265625
499,796.996337890625,800.6226806640625,795.3846435546875,796.5933837890625
500,786.5201416015625,801.025634765625,790.952392578125,790.1465454101562
501,789.3406372070312,800.2197875976562,794.1758422851562,786.923095703125
502,796.996337890625,799.010986328125,800.6226806640625,791.3552856445312
503,792.5640869140625,792.967041015625,793.7728881835938,795.7875366210938
504,785.7142944335938,787.3259887695312,788.937744140625,792.1611938476562
505,778.4615478515625,790.1465454101562,790.1465454101562,788.937744140625
506,777.6557006835938,790.952392578125,793.7728881835938,792.5640869140625
507,783.6996459960938,789.3406372070312,795.3846435546875,801.8314819335938
508,784.1025390625,786.1171875,793.7728881835938,806.6666870117188
509,776.8497924804688,783.2966918945312,792.5640869140625,793.7728881835938
510,773.2234497070312,788.5347900390625,790.1465454101562,786.923095703125
511,777.6557006835938,793.3699340820312,787.3259887695312,782.893798828125
512,780.879150390625,790.1465454101562,787.3259887695312,778.8644409179688
513,794.5787353515625,787.7289428710938,787.7289428710938,786.923095703125
514,801.4285888671875,789.3406372070312,787.3259887695312,788.1318969726562
515,799.010986328125,794.1758422851562,786.5201416015625,779.2673950195312
516,802.2344360351562,792.967041015625,785.7142944335938,776.8497924804688
517,801.8314819335938,792.1611938476562,784.5054931640625,778.8644409179688
518,800.6226806640625,802.2344360351562,781.6849975585938,786.5201416015625
519,800.2197875976562,809.4871826171875,783.6996459960938,797.8021850585938
520,797.3992919921875,805.8607788085938,788.5347900390625,805.054931640625
521,800.2197875976562,804.6520385742188,786.5201416015625,804.2490844726562
522,803.040283203125,804.6520385742188,787.3259887695312,799.010986328125
523,802.2344360351562,801.025634765625,790.1465454101562,800.2197875976562
524,801.8314819335938,799.4139404296875,788.5347900390625,801.8314819335938
525,796.996337890625,795.3846435546875,791.7582397460938,800.6226806640625
526,797.3992919921875,787.3259887695312,796.5933837890625,805.4578857421875
527,797.3992919921875,785.7142944335938,797.8021850585938,802.2344360351562
528,797.3992919921875,790.1465454101562,796.5933837890625,801.8314819335938
529,803.4432373046875,789.7435913085938,801.4285888671875,805.4578857421875
530,800.2197875976562,789.7435913085938,803.040283203125,796.996337890625
531,792.967041015625,788.1318969726562,796.5933837890625,796.996337890625
532,794.981689453125,786.923095703125,799.8168334960938,800.2197875976562
533,795.3846435546875,787.3259887695312,802.2344360351562,792.5640869140625
534,792.5640869140625,782.087890625,796.1904907226562,785.3113403320312
535,794.5787353515625,780.4761962890625,796.5933837890625,787.3259887695312
536,799.010986328125,784.5054931640625,801.025634765625,785.7142944335938
537,801.8314819335938,787.7289428710938,798.2051391601562,780.879150390625
538,801.025634765625,787.7289428710938,795.3846435546875,778.4615478515625
539,794.981689453125,789.3406372070312,790.5494384765625,781.2820434570312
540,791.3552856445312,794.1758422851562,786.923095703125,782.087890625
541,789.7435913085938,792.1611938476562,788.1318969726562,778.8644409179688
542,788.937744140625,788.937744140625,786.5201416015625,781.2820434570312
543,789.3406372070312,791.7582397460938,790.1465454101562,787.7289428710938
544,792.1611938476562,794.1758422851562,792.1611938476562,789.3406372070312
545,789.7435913085938,794.981689453125,790.952392578125,784.1025390625
546,785.7142944335938,793.7728881835938,789.7435913085938,783.6996459960938
547,787.3259887695312,789.3406372070312,789.7435913085938,792.5640869140625
548,793.3699340820312,786.923095703125,792.5640869140625,799.010986328125
549,794.981689453125,788.1318969726562,793.3699340820312,791.3552856445312
550,789.3406372070312,788.1318969726562,794.981689453125,790.5494384765625
551,787.7289428710938,791.7582397460938,792.967041015625,798.6080322265625
552,787.7289428710938,793.7728881835938,792.967041015625,787.3259887695312
553,794.5787353515625,790.1465454101562,794.1758422851562,780.879150390625
554,793.7728881835938,785.7142944335938,791.7582397460938,788.5347900390625
555,784.1025390625,787.3259887695312,793.7728881835938,794.981689453125
556,785.7142944335938,794.1758422851562,795.7875366210938,791.7582397460938
557,798.2051391601562,797.3992919921875,795.7875366210938,789.3406372070312
558,804.2490844726562,798.2051391601562,795.7875366210938,791.3552856445312
559,800.6226806640625,796.1904907226562,795.7875366210938,788.1318969726562
560,803.8461303710938,794.981689453125,794.981689453125,791.3552856445312
561,805.8607788085938,797.8021850585938,795.3846435546875,790.5494384765625
562,802.2344360351562,796.996337890625,794.5787353515625,790.1465454101562
563,801.4285888671875,794.5787353515625,796.1904907226562,792.967041015625
564,798.6080322265625,790.952392578125,796.996337890625,792.967041015625
565,790.5494384765625,792.1611938476562,794.981689453125,801.4285888671875
566,787.7289428710938,794.981689453125,796.1904907226562,802.6373901367188
567,789.7435913085938,793.3699340820312,793.7728881835938,791.7582397460938
568,788.1318969726562,797.3992919921875,797.3992919921875,786.5201416015625
569,786.5201416015625,794.5787353515625,804.6520385742188,785.7142944335938
570,788.937744140625,793.3699340820312,804.6520385742188,783.2966918945312
571,786.923095703125,797.3992919921875,797.8021850585938,780.879150390625
572,784.908447265625,794.1758422851562,792.1611938476562,781.6849975585938
573,786.1171875,792.1611938476562,795.7875366210938,782.4908447265625
574,787.7289428710938,791.7582397460938,798.6080322265625,785.3113403320312
575,788.1318969726562,792.967041015625,799.010986328125,786.1171875
576,784.908447265625,794.981689453125,797.8021850585938,784.908447265625
577,781.6849975585938,788.5347900390625,792.967041015625,786.5201416015625
578,776.8497924804688,789.3406372070312,794.981689453125,781.2820434570312
579,778.05859375,792.5640869140625,796.996337890625,780.4761962890625
580,779.2673950195312,789.3406372070312,796.5933837890625,782.4908447265625
581,778.8644409179688,786.5201416015625,800.2197875976562,779.6703491210938
582,786.5201416015625,790.5494384765625,797.8021850585938,783.6996459960938
583,799.8168334960938,799.010986328125,799.010986328125,793.3699340820312
584,804.2490844726562,800.6226806640625,803.4432373046875,794.1758422851562
585,799.010986328125,799.4139404296875,805.4578857421875,792.1611938476562
586,801.025634765625,803.4432373046875,805.8607788085938,799.4139404296875
587,803.8461303710938,805.054931640625,803.8461303710938,799.4139404296875
588,803.8461303710938,801.025634765625,802.6373901367188,793.7728881835938
589,803.4432373046875,796.996337890625,803.040283203125,790.1465454101562
590,800.2197875976562,794.1758422851562,801.8314819335938,784.1025390625
591,794.5787353515625,794.5787353515625,803.040283203125,782.893798828125
592,794.1758422851562,791.7582397460938,798.6080322265625,787.7289428710938
593,804.6520385742188,796.5933837890625,797.8021850585938,788.1318969726562
594,809.89013671875,797.8021850585938,798.2051391601562,781.2820434570312
595,801.025634765625,792.1611938476562,791.7582397460938,780.4761962890625
596,796.996337890625,792.1611938476562,790.952392578125,785.3113403320312
597,794.981689453125,793.3699340820312,792.967041015625,782.4908447265625
598,797.3992919921875,794.1758422851562,793.7728881835938,788.937744140625
599,806.6666870117188,795.7875366210938,796.5933837890625,805.8607788085938
600,808.2783813476562,799.010986328125,790.952392578125,809.084228515625
601,810.2930297851562,798.6080322265625,784.1025390625,798.6080322265625
602,802.2344360351562,794.1758422851562,788.1318969726562,793.7728881835938
603,786.5201416015625,790.5494384765625,794.981689453125,791.3552856445312
604,792.1611938476562,794.5787353515625,793.7728881835938,792.1611938476562
605,799.4139404296875,794.1758422851562,794.981689453125,794.981689453125
606,793.3699340820312,786.1171875,797.8021850585938,790.5494384765625
607,792.5640869140625,782.4908447265625,797.3992919921875,785.3113403320312
608,791.7582397460938,786.5201416015625,793.7728881835938,785.7142944335938
609,791.3552856445312,790.952392578125,795.7875366210938,788.1318969726562
610,800.6226806640625,794.1758422851562,799.8168334960938,796.5933837890625
611,798.2051391601562,792.1611938476562,803.8461303710938,799.4139404296875
612,792.5640869140625,791.3552856445312,802.2344360351562,795.7875366210938
613,792.1611938476562,791.7582397460938,801.4285888671875,788.5347900390625
614,799.4139404296875,792.1611938476562,801.8314819335938,788.5347900390625
615,807.87548828125,794.1758422851562,799.8168334960938,801.4285888671875
616,799.8168334960938,794.981689453125,799.4139404296875,810.6959838867188
617,790.5494384765625,792.5640869140625,798.2051391601562,800.2197875976562
618,791.3552856445312,792.1611938476562,796.1904907226562,789.7435913085938
619,798.2051391601562,797.3992919921875,795.3846435546875,790.5494384765625
620,801.4285888671875,800.2197875976562,795.7875366210938,790.5494384765625
621,797.8021850585938,796.1904907226562,791.3552856445312,783.2966918945312
622,792.1611938476562,791.3552856445312,782.893798828125,782.087890625
623,781.6849975585938,786.1171875,782.087890625,785.3113403320312
624,789.7435913085938,790.1465454101562,791.3552856445312,791.7582397460938
625,795.3846435546875,797.3992919921875,796.5933837890625,798.2051391601562
626,792.967041015625,798.2051391601562,791.7582397460938,797.8021850585938
627,796.5933837890625,795.7875366210938,792.5640869140625,806.2637329101562
628,793.3699340820312,791.7582397460938,790.1465454101562,803.040283203125
629,789.3406372070312,788.1318969726562,790.1465454101562,799.010986328125
630,792.1611938476562,784.1025390625,794.1758422851562,802.2344360351562
631,797.3992919921875,782.4908447265625,794.5787353515625,801.025634765625
632,790.1465454101562,782.893798828125,794.5787353515625,798.2051391601562
633,786.1171875,790.1465454101562,794.981689453125,798.2051391601562
634,788.937744140625,793.7728881835938,795.7875366210938,793.3699340820312
635,788.5347900390625,786.1171875,800.2197875976562,788.1318969726562
636,788.5347900390625,785.7142944335938,797.8021850585938,787.3259887695312
637,782.087890625,788.1318969726562,793.3699340820312,782.893798828125
638,783.2966918945312,782.893798828125,792.1611938476562,784.5054931640625
639,790.5494384765625,786.923095703125,794.5787353515625,788.937744140625
640,788.5347900390625,791.7582397460938,796.996337890625,780.0732421875
641,777.2527465820312,784.5054931640625,792.1611938476562,774.029296875
642,775.2380981445312,781.6849975585938,792.1611938476562,775.2380981445312
643,778.05859375,784.1025390625,794.5787353515625,776.4468994140625
644,783.2966918945312,783.2966918945312,796.5933837890625,781.2820434570312
645,787.7289428710938,782.893798828125,795.3846435546875,787.3259887695312
646,784.908447265625,782.087890625,794.981689453125,786.1171875
647,788.5347900390625,784.5054931640625,797.8021850585938,786.1171875
648,791.7582397460938,790.1465454101562,799.4139404296875,790.1465454101562
649,785.7142944335938,789.7435913085938,796.996337890625,793.3699340820312
650,781.2820434570312,786.1171875,792.1611938476562,792.967041015625
651,776.4468994140625,783.2966918945312,789.7435913085938,782.087890625
652,776.0439453125,783.6996459960938,787.7289428710938,777.2527465820312
653,777.6557006835938,782.893798828125,790.952392578125,778.4615478515625
654,773.2234497070312,781.2820434570312,793.3699340820312,779.6703491210938
655,780.0732421875,780.879150390625,794.981689453125,778.4615478515625
656,788.1318969726562,781.2820434570312,795.7875366210938,777.2527465820312
657,781.2820434570312,786.1171875,796.1904907226562,780.879150390625
658,779.2673950195312,790.5494384765625,798.6080322265625,779.6703491210938
659,775.2380981445312,791.3552856445312,802.6373901367188,778.4615478515625
660,780.0732421875,796.1904907226562,802.6373901367188,786.923095703125
661,785.3113403320312,794.981689453125,802.2344360351562,790.1465454101562
662,782.4908447265625,790.952392578125,801.025634765625,785.3113403320312
663,787.7289428710938,796.5933837890625,798.2051391601562,788.1318969726562
664,785.7142944335938,795.3846435546875,797.8021850585938,793.3699340820312
665,788.937744140625,793.7728881835938,794.981689453125,794.1758422851562
666,791.3552856445312,794.1758422851562,794.5787353515625,791.7582397460938
667,795.7875366210938,788.1318969726562,792.5640869140625,786.923095703125
668,796.1904907226562,789.7435913085938,786.923095703125,778.4615478515625
669,786.5201416015625,790.952392578125,788.5347900390625,783.2966918945312
670,793.7728881835938,789.3406372070312,791.3552856445312,788.1318969726562
671,799.8168334960938,798.2051391601562,794.5787353515625,789.7435913085938
672,795.3846435546875,805.4578857421875,799.4139404296875,795.3846435546875
673,790.952392578125,802.2344360351562,797.3992919921875,794.981689453125
674,791.3552856445312,802.2344360351562,792.967041015625,788.5347900390625
675,789.7435913085938,805.054931640625,797.3992919921875,789.7435913085938
676,793.7728881835938,801.8314819335938,800.2197875976562,790.952392578125
677,799.4139404296875,802.2344360351562,795.7875366210938,789.3406372070312
678,786.923095703125,800.2197875976562,791.7582397460938,782.087890625
679,778.8644409179688,796.996337890625,791.3552856445312,778.05859375
680,785.7142944335938,798.2051391601562,789.7435913085938,783.6996459960938
681,784.5054931640625,797.3992919921875,787.3259887695312,785.3113403320312
682,779.2673950195312,794.981689453125,791.3552856445312,784.5054931640625
683,775.2380981445312,790.5494384765625,790.952392578125,779.6703491210938
684,774.8351440429688,793.7728881835938,787.3259887695312,783.6996459960938
685,779.6703491210938,799.010986328125,786.5201416015625,790.952392578125
686,782.893798828125,800.6226806640625,792.1611938476562,787.3259887695312
687,780.4761962890625,799.010986328125,795.3846435546875,790.1465454101562
688,785.7142944335938,797.3992919921875,795.3846435546875,793.3699340820312
689,798.6080322265625,801.4285888671875,797.3992919921875,792.967041015625
690,800.6226806640625,801.025634765625,798.6080322265625,797.8021850585938
691,798.2051391601562,796.5933837890625,799.010986328125,801.4285888671875
692,795.7875366210938,799.4139404296875,794.5787353515625,796.996337890625
693,794.981689453125,804.2490844726562,793.7728881835938,793.3699340820312
694,801.025634765625,799.8168334960938,798.2051391601562,795.3846435546875
695,802.6373901367188,796.996337890625,801.8314819335938,798.6080322265625
696,800.2197875976562,798.6080322265625,803.4432373046875,799.8168334960938
697,802.2344360351562,794.981689453125,801.025634765625,806.6666870117188
698,803.8461303710938,792.1611938476562,801.8314819335938,805.054931640625
699,795.3846435546875,791.7582397460938,801.025634765625,796.996337890625
700,791.3552856445312,788.937744140625,801.8314819335938,796.1904907226562
701,794.5787353515625,786.923095703125,800.2197875976562,787.3259887695312
702,797.3992919921875,789.3406372070312,805.8607788085938,787.7289428710938
703,796.1904907226562,789.3406372070312,811.098876953125,789.3406372070312
704,784.908447265625,784.908447265625,806.2637329101562,783.6996459960938
705,784.1025390625,783.6996459960938,803.8461303710938,780.4761962890625
706,793.3699340820312,786.1171875,805.8607788085938,780.0732421875
707,780.879150390625,785.3113403320312,804.2490844726562,782.4908447265625
708,775.6410522460938,784.1025390625,799.8168334960938,780.4761962890625
709,780.4761962890625,786.1171875,794.5787353515625,776.0439453125
710,777.6557006835938,784.1025390625,793.7728881835938,779.6703491210938
711,776.4468994140625,785.3113403320312,792.967041015625,786.5201416015625
712,777.6557006835938,786.923095703125,792.1611938476562,784.908447265625
713,776.8497924804688,787.7289428710938,792.5640869140625,786.923095703125
714,780.879150390625,789.7435913085938,792.5640869140625,789.3406372070312
715,785.3113403320312,787.7289428710938,790.5494384765625,786.5201416015625
716,783.6996459960938,786.923095703125,785.7142944335938,787.3259887695312
717,790.952392578125,789.7435913085938,788.937744140625,793.7728881835938
718,789.7435913085938,788.5347900390625,787.3259887695312,795.7875366210938
719,784.5054931640625,787.7289428710938,782.4908447265625,796.5933837890625
720,789.7435913085938,791.3552856445312,786.5201416015625,796.1904907226562
721,798.6080322265625,793.7728881835938,789.7435913085938,791.7582397460938
722,797.8021850585938,794.5787353515625,786.1171875,786.1171875
723,795.3846435546875,790.5494384765625,786.923095703125,787.7289428710938
724,790.952392578125,787.3259887695312,788.937744140625,791.3552856445312
725,783.2966918945312,790.1465454101562,790.5494384765625,787.7289428710938
726,784.5054931640625,795.3846435546875,795.7875366210938,780.4761962890625
727,793.3699340820312,800.2197875976562,794.1758422851562,779.6703491210938
728,798.2051391601562,801.025634765625,795.3846435546875,784.5054931640625
729,800.2197875976562,799.8168334960938,798.6080322265625,792.5640869140625
730,802.2344360351562,801.8314819335938,796.996337890625,792.967041015625
731,796.1904907226562,804.2490844726562,796.1904907226562,788.5347900390625
732,789.7435913085938,800.2197875976562,793.7728881835938,793.3699340820312
733,784.908447265625,796.5933837890625,790.5494384765625,790.952392578125
734,784.5054931640625,790.5494384765625,792.5640869140625,790.1465454101562
735,794.5787353515625,785.3113403320312,794.5787353515625,803.040283203125
736,793.7728881835938,784.908447265625,794.981689453125,808.6813354492188
737,783.6996459960938,791.3552856445312,790.952392578125,793.3699340820312
738,777.6557006835938,796.996337890625,789.3406372070312,785.3113403320312
739,778.05859375,796.5933837890625,794.981689453125,787.3259887695312
740,776.8497924804688,795.3846435546875,798.6080322265625,786.1171875
741,774.4322509765625,794.981689453125,794.1758422851562,792.5640869140625
742,789.3406372070312,795.3846435546875,794.981689453125,801.025634765625
743,796.5933837890625,792.1611938476562,797.8021850585938,804.6520385742188
744,782.4908447265625,790.952392578125,795.7875366210938,803.040283203125
745,781.6849975585938,792.5640869140625,796.1904907226562,808.2783813476562
746,791.3552856445312,792.5640869140625,799.8168334960938,817.5457763671875
747,803.4432373046875,793.3699340820312,801.025634765625,809.89013671875
748,802.6373901367188,791.3552856445312,800.6226806640625,800.2197875976562
749,800.6226806640625,791.3552856445312,796.996337890625,793.3699340820312
750,804.6520385742188,793.7728881835938,794.5787353515625,789.3406372070312
751,797.3992919921875,797.3992919921875,792.1611938476562,789.3406372070312
752,795.3846435546875,801.8314819335938,792.5640869140625,788.5347900390625
753,796.1904907226562,799.8168334960938,792.5640869140625,788.937744140625
754,792.5640869140625,794.5787353515625,790.1465454101562,793.3699340820312
755,792.5640869140625,794.981689453125,789.3406372070312,789.3406372070312
756,786.1171875,797.3992919921875,789.3406372070312,782.893798828125
757,790.5494384765625,797.8021850585938,792.5640869140625,786.1171875
758,797.8021850585938,801.025634765625,792.1611938476562,786.5201416015625
759,786.5201416015625,803.4432373046875,792.1611938476562,784.5054931640625
760,784.908447265625,801.8314819335938,792.967041015625,797.8021850585938
761,787.7289428710938,799.8168334960938,790.952392578125,794.981689453125
762,786.1171875,801.025634765625,788.1318969726562,784.908447265625
763,798.2051391601562,803.8461303710938,788.5347900390625,792.1611938476562
764,803.8461303710938,803.4432373046875,790.1465454101562,785.3113403320312
765,795.7875366210938,799.4139404296875,789.7435913085938,777.2527465820312
766,787.7289428710938,797.8021850585938,787.7289428710938,780.4761962890625
767,785.7142944335938,799.4139404296875,786.5201416015625,780.0732421875
768,792.5640869140625,800.6226806640625,791.3552856445312,785.7142944335938
769,794.5787353515625,797.8021850585938,793.7728881835938,799.010986328125
770,792.967041015625,798.6080322265625,795.3846435546875,794.981689453125
771,802.2344360351562,791.3552856445312,797.8021850585938,783.2966918945312
772,802.2344360351562,790.5494384765625,795.7875366210938,781.2820434570312
773,783.6996459960938,794.981689453125,800.2197875976562,781.6849975585938
774,788.5347900390625,794.1758422851562,801.8314819335938,789.7435913085938
775,791.7582397460938,794.5787353515625,803.040283203125,799.4139404296875
776,778.8644409179688,796.996337890625,802.6373901367188,790.952392578125
777,780.4761962890625,799.010986328125,795.7875366210938,784.908447265625
778,788.5347900390625,796.1904907226562,793.3699340820312,782.893798828125
779,788.5347900390625,797.3992919921875,796.5933837890625,783.6996459960938
780,782.087890625,796.1904907226562,799.010986328125,788.1318969726562
781,790.1465454101562,796.1904907226562,803.040283203125,795.7875366210938
782,800.2197875976562,798.2051391601562,801.4285888671875,799.8168334960938
783,793.3699340820312,792.1611938476562,796.996337890625,792.967041015625
784,788.5347900390625,790.1465454101562,795.3846435546875,793.7728881835938
785,787.3259887695312,792.1611938476562,795.7875366210938,802.2344360351562
786,794.5787353515625,793.7728881835938,798.6080322265625,794.981689453125
787,801.025634765625,793.3699340820312,801.025634765625,794.5787353515625
788,794.1758422851562,792.5640869140625,798.6080322265625,798.6080322265625
789,789.7435913085938,790.1465454101562,796.5933837890625,794.981689453125
790,781.6849975585938,788.1318969726562,791.7582397460938,788.1318969726562
791,784.1025390625,788.1318969726562,791.7582397460938,790.1465454101562
792,794.981689453125,790.5494384765625,798.6080322265625,796.5933837890625
793,790.952392578125,789.7435913085938,798.6080322265625,794.1758422851562
794,783.6996459960938,787.3259887695312,794.981689453125,790.5494384765625
795,779.2673950195312,784.1025390625,792.967041015625,791.3552856445312
796,777.6557006835938,781.6849975585938,791.7582397460938,792.1611938476562
797,772.0146484375,782.087890625,791.7582397460938,783.6996459960938
798,773.2234497070312,782.4908447265625,792.5640869140625,778.4615478515625
799,785.3113403320312,786.1171875,796.5933837890625,786.1171875
800,787.3259887695312,789.3406372070312,797.3992919921875,789.3406372070312
801,780.0732421875,789.3406372070312,799.010986328125,793.7728881835938
802,780.879150390625,789.7435913085938,801.025634765625,803.8461303710938
803,791.3552856445312,790.1465454101562,799.4139404296875,802.6373901367188
804,793.7728881835938,783.2966918945312,799.010986328125,786.923095703125
805,780.879150390625,787.3259887695312,796.5933837890625,785.3113403320312
806,778.05859375,790.1465454101562,797.3992919921875,786.923095703125
807,783.2966918945312,779.6703491210938,799.4139404296875,784.908447265625
808,790.952392578125,781.2820434570312,799.8168334960938,790.952392578125
809,794.5787353515625,788.937744140625,796.1904907226562,791.7582397460938
810,784.5054931640625,790.1465454101562,788.1318969726562,794.1758422851562
811,792.967041015625,793.3699340820312,789.3406372070312,797.8021850585938
812,795.3846435546875,788.1318969726562,792.967041015625,791.7582397460938
813,784.5054931640625,784.908447265625,788.5347900390625,784.1025390625
814,796.1904907226562,790.952392578125,788.937744140625,783.2966918945312
815,796.996337890625,791.7582397460938,789.3406372070312,785.3113403320312
816,785.7142944335938,789.7435913085938,785.7142944335938,788.937744140625
817,772.4176025390625,786.1171875,786.5201416015625,786.923095703125
818,773.6264038085938,784.1025390625,784.908447265625,783.2966918945312
819,784.1025390625,784.908447265625,786.1171875,791.7582397460938
820,778.4615478515625,784.5054931640625,787.7289428710938,783.2966918945312
821,776.4468994140625,782.4908447265625,788.5347900390625,774.4322509765625
822,778.4615478515625,780.879150390625,794.981689453125,780.0732421875
823,775.6410522460938,783.6996459960938,795.3846435546875,785.7142944335938
824,777.2527465820312,783.6996459960938,796.5933837890625,786.923095703125
825,787.3259887695312,786.1171875,802.2344360351562,789.3406372070312
826,790.1465454101562,787.7289428710938,799.010986328125,788.1318969726562
827,782.4908447265625,787.7289428710938,792.967041015625,788.5347900390625
828,777.2527465820312,786.5201416015625,791.7582397460938,792.967041015625
829,784.908447265625,783.2966918945312,792.1611938476562,785.7142944335938
830,796.1904907226562,787.3259887695312,793.3699340820312,785.7142944335938
831,800.6226806640625,789.3406372070312,795.3846435546875,795.7875366210938
832,791.3552856445312,786.923095703125,795.7875366210938,787.7289428710938
833,777.2527465820312,784.1025390625,794.5787353515625,773.6264038085938
834,787.7289428710938,787.7289428710938,793.7728881835938,778.05859375
835,791.3552856445312,790.1465454101562,794.5787353515625,784.5054931640625
836,784.908447265625,789.3406372070312,794.5787353515625,782.893798828125
837,786.1171875,791.7582397460938,792.1611938476562,782.893798828125
838,790.952392578125,792.5640869140625,794.5787353515625,788.937744140625
839,795.3846435546875,794.981689453125,792.1611938476562,786.1171875
840,794.1758422851562,796.996337890625,788.1318969726562,780.0732421875
841,800.2197875976562,798.2051391601562,791.7582397460938,781.2820434570312
842,786.923095703125,798.6080322265625,790.952392578125,790.1465454101562
843,771.2088012695312,795.3846435546875,789.3406372070312,787.7289428710938
844,780.879150390625,790.5494384765625,791.7582397460938,785.3113403320312
845,787.7289428710938,788.5347900390625,789.7435913085938,786.5201416015625
846,785.7142944335938,792.967041015625,795.7875366210938,791.7582397460938
847,780.4761962890625,794.981689453125,798.2051391601562,790.952392578125
848,780.0732421875,789.3406372070312,791.3552856445312,780.4761962890625
849,787.7289428710938,788.937744140625,790.5494384765625,780.0732421875
850,798.2051391601562,794.1758422851562,792.1611938476562,785.7142944335938
851,801.4285888671875,796.5933837890625,798.2051391601562,790.952392578125
852,793.7728881835938,796.5933837890625,797.8021850585938,790.1465454101562
853,790.1465454101562,793.7728881835938,796.996337890625,793.7728881835938
854,789.7435913085938,792.967041015625,802.6373901367188,799.8168334960938
855,787.7289428710938,792.967041015625,799.4139404296875,803.040283203125
856,790.5494384765625,793.3699340820312,802.2344360351562,805.8607788085938
857,791.3552856445312,793.7728881835938,806.2637329101562,799.4139404296875
858,788.1318969726562,792.1611938476562,805.4578857421875,792.967041015625
859,790.952392578125,797.8021850585938,804.2490844726562,795.3846435546875
860,795.7875366210938,801.025634765625,803.4432373046875,799.010986328125
861,794.981689453125,795.3846435546875,802.2344360351562,794.5787353515625
862,793.3699340820312,789.7435913085938,796.5933837890625,790.1465454101562
863,785.7142944335938,789.3406372070312,790.952392578125,788.1318969726562
864,789.3406372070312,790.1465454101562,792.967041015625,789.7435913085938
865,799.4139404296875,791.7582397460938,796.996337890625,790.952392578125
866,803.8461303710938,792.967041015625,794.5787353515625,787.3259887695312
867,797.3992919921875,794.1758422851562,792.5640869140625,785.3113403320312
868,788.5347900390625,792.967041015625,795.3846435546875,790.1465454101562
869,779.2673950195312,789.3406372070312,793.7728881835938,790.1465454101562
870,776.8497924804688,790.952392578125,795.3846435546875,790.952392578125
871,784.1025390625,792.5640869140625,796.5933837890625,795.3846435546875
872,788.5347900390625,795.7875366210938,798.6080322265625,792.5640869140625
873,790.5494384765625,797.3992919921875,804.2490844726562,796.1904907226562
874,783.6996459960938,796.5933837890625,804.6520385742188,793.7728881835938
875,790.952392578125,801.025634765625,804.2490844726562,793.3699340820312
876,796.5933837890625,800.6226806640625,804.2490844726562,802.2344360351562
877,792.967041015625,794.981689453125,799.010986328125,792.1611938476562
878,799.010986328125,796.996337890625,798.2051391601562,786.1171875
879,789.7435913085938,798.2051391601562,793.7728881835938,782.893798828125
880,774.8351440429688,791.3552856445312,788.937744140625,786.923095703125
881,777.2527465820312,788.937744140625,788.937744140625,791.3552856445312
882,783.2966918945312,792.5640869140625,788.937744140625,784.908447265625
883,782.893798828125,797.8021850585938,788.937744140625,780.4761962890625
884,787.3259887695312,805.4578857421875,789.7435913085938,776.0439453125
885,792.1611938476562,800.6226806640625,793.3699340820312,779.2673950195312
886,789.3406372070312,794.1758422851562,792.1611938476562,780.0732421875
887,795.7875366210938,796.5933837890625,792.967041015625,780.0732421875
888,790.952392578125,799.8168334960938,792.5640869140625,780.0732421875
889,783.2966918945312,801.4285888671875,788.5347900390625,779.2673950195312
890,786.1171875,799.8168334960938,791.7582397460938,781.6849975585938
891,789.7435913085938,795.7875366210938,786.5201416015625,785.3113403320312
892,791.3552856445312,796.5933837890625,784.1025390625,782.4908447265625
893,789.7435913085938,796.1904907226562,790.952392578125,781.6849975585938
894,790.5494384765625,790.952392578125,790.1465454101562,782.087890625
895,799.010986328125,793.7728881835938,791.7582397460938,786.923095703125
896,805.4578857421875,800.2197875976562,797.8021850585938,794.981689453125
897,795.7875366210938,798.2051391601562,800.6226806640625,791.3552856445312
898,787.7289428710938,796.5933837890625,799.010986328125,793.3699340820312
899,791.3552856445312,796.1904907226562,794.1758422851562,798.6080322265625
900,790.1465454101562,793.7728881835938,791.3552856445312,801.4285888671875
901,789.3406372070312,794.981689453125,794.1758422851562,803.4432373046875
902,795.3846435546875,796.5933837890625,796.1904907226562,803.040283203125
903,799.010986328125,794.1758422851562,798.6080322265625,798.2051391601562
904,801.4285888671875,789.7435913085938,795.3846435546875,787.7289428710938
905,798.6080322265625,791.3552856445312,792.1611938476562,787.3259887695312
906,795.3846435546875,795.3846435546875,794.5787353515625,790.5494384765625
907,798.6080322265625,795.7875366210938,796.1904907226562,787.3259887695312
908,790.952392578125,796.5933837890625,796.1904907226562,782.087890625
909,781.2820434570312,797.8021850585938,794.5787353515625,781.6849975585938
910,784.5054931640625,798.6080322265625,792.967041015625,784.5054931640625
911,789.3406372070312,796.996337890625,792.5640869140625,794.5787353515625
912,795.3846435546875,792.967041015625,794.1758422851562,792.967041015625
913,804.2490844726562,788.5347900390625,793.7728881835938,787.7289428710938
914,796.1904907226562,788.1318969726562,787.7289428710938,790.5494384765625
915,791.7582397460938,792.1611938476562,787.3259887695312,794.5787353515625
916,802.2344360351562,793.3699340820312,791.7582397460938,793.7728881835938
917,812.3076782226562,789.7435913085938,788.1318969726562,786.1171875
918,805.4578857421875,791.3552856445312,785.7142944335938,790.1465454101562
919,792.1611938476562,788.1318969726562,789.7435913085938,796.996337890625
920,797.8021850585938,781.6849975585938,785.7142944335938,791.3552856445312
921,805.4578857421875,791.7582397460938,783.2966918945312,787.3259887695312
922,799.8168334960938,796.5933837890625,787.3259887695312,787.7289428710938
923,794.5787353515625,792.967041015625,792.5640869140625,786.1171875
924,789.3406372070312,793.3699340820312,792.967041015625,786.5201416015625
925,796.1904907226562,795.3846435546875,790.1465454101562,784.5054931640625
926,791.3552856445312,793.3699340820312,787.3259887695312,783.6996459960938
927,772.0146484375,787.7289428710938,788.1318969726562,784.5054931640625
928,774.4322509765625,790.952392578125,789.7435913085938,779.2673950195312
929,784.908447265625,794.981689453125,793.3699340820312,786.923095703125
930,784.1025390625,794.1758422851562,794.981689453125,793.3699340820312
931,783.2966918945312,794.981689453125,794.1758422851562,789.3406372070312
932,788.5347900390625,789.7435913085938,796.1904907226562,789.3406372070312
933,792.967041015625,785.7142944335938,797.8021850585938,793.3699340820312
934,785.7142944335938,786.5201416015625,790.1465454101562,784.908447265625
935,780.879150390625,787.3259887695312,786.923095703125,777.2527465820312
936,789.3406372070312,786.5201416015625,789.3406372070312,778.05859375
937,801.8314819335938,789.7435913085938,789.7435913085938,780.4761962890625
938,792.1611938476562,791.3552856445312,785.7142944335938,789.3406372070312
939,771.6116943359375,789.3406372070312,790.952392578125,791.7582397460938
940,775.6410522460938,784.908447265625,797.3992919921875,786.5201416015625
941,784.1025390625,785.7142944335938,799.4139404296875,793.3699340820312
942,778.8644409179688,789.3406372070312,804.2490844726562,799.4139404296875
943,780.0732421875,788.5347900390625,801.025634765625,791.7582397460938
944,788.1318969726562,787.3259887695312,796.1904907226562,788.1318969726562
945,787.7289428710938,787.3259887695312,796.1904907226562,787.3259887695312
946,787.7289428710938,788.5347900390625,798.6080322265625,784.1025390625
947,792.967041015625,792.5640869140625,800.6226806640625,787.3259887695312
948,792.1611938476562,791.7582397460938,795.7875366210938,784.5054931640625
949,786.923095703125,794.1758422851562,796.996337890625,787.7289428710938
950,780.0732421875,797.3992919921875,801.8314819335938,793.3699340820312
951,782.893798828125,793.3699340820312,796.996337890625,782.893798828125
952,791.7582397460938,791.3552856445312,793.7728881835938,782.087890625
953,799.4139404296875,792.1611938476562,795.3846435546875,790.952392578125
954,794.5787353515625,788.1318969726562,792.5640869140625,778.05859375
955,782.893798828125,787.7289428710938,792.5640869140625,772.8204956054688
956,786.5201416015625,796.5933837890625,794.1758422851562,786.5201416015625
957,801.8314819335938,801.8314819335938,794.1758422851562,788.1318969726562
958,813.113525390625,800.2197875976562,795.3846435546875,786.5201416015625
959,798.6080322265625,802.6373901367188,794.981689453125,782.4908447265625
960,793.3699340820312,802.6373901367188,796.1904907226562,784.908447265625
961,799.8168334960938,801.8314819335938,797.3992919921875,795.3846435546875
962,796.996337890625,797.8021850585938,799.010986328125,792.967041015625
963,807.069580078125,798.2051391601562,798.2051391601562,790.952392578125
964,796.5933837890625,799.8168334960938,798.6080322265625,794.1758422851562
965,785.7142944335938,794.981689453125,798.6080322265625,788.937744140625
966,792.1611938476562,795.3846435546875,795.3846435546875,780.879150390625
967,792.967041015625,794.981689453125,792.1611938476562,782.087890625
968,796.1904907226562,789.3406372070312,790.952392578125,784.908447265625
969,787.7289428710938,789.7435913085938,794.1758422851562,785.7142944335938
970,784.1025390625,793.3699340820312,799.4139404296875,790.1465454101562
971,787.7289428710938,796.996337890625,801.4285888671875,794.981689453125
972,781.6849975585938,794.5787353515625,801.4285888671875,793.3699340820312
973,780.4761962890625,789.3406372070312,802.6373901367188,785.3113403320312
974,781.6849975585938,793.3699340820312,800.6226806640625,779.6703491210938
975,777.6557006835938,792.967041015625,797.8021850585938,780.879150390625
976,781.2820434570312,794.5787353515625,797.8021850585938,788.5347900390625
977,787.3259887695312,797.8021850585938,798.2051391601562,786.5201416015625
978,793.7728881835938,797.3992919921875,799.8168334960938,783.2966918945312
979,789.7435913085938,794.981689453125,799.4139404296875,790.952392578125
980,780.879150390625,793.3699340820312,797.8021850585938,796.1904907226562
981,792.967041015625,790.1465454101562,794.5787353515625,796.5933837890625
982,793.7728881835938,792.1611938476562,793.7728881835938,801.025634765625
983,778.8644409179688,793.7728881835938,790.1465454101562,800.2197875976562
984,792.967041015625,788.937744140625,792.1611938476562,788.5347900390625
985,794.981689453125,790.1465454101562,792.5640869140625,786.5201416015625
986,774.4322509765625,789.3406372070312,792.1611938476562,786.1171875
987,780.879150390625,786.5201416015625,794.981689453125,789.7435913085938
988,788.937744140625,789.3406372070312,791.3552856445312,794.1758422851562
989,785.7142944335938,792.1611938476562,790.1465454101562,788.937744140625
990,786.5201416015625,794.5787353515625,794.5787353515625,787.7289428710938
991,788.5347900390625,799.8168334960938,797.3992919921875,792.967041015625
992,794.5787353515625,800.6226806640625,798.2051391601562,799.4139404296875
993,797.8021850585938,798.2051391601562,795.7875366210938,796.1904907226562
994,796.996337890625,792.5640869140625,796.1904907226562,796.996337890625
995,793.3699340820312,792.5640869140625,801.025634765625,797.3992919921875
996,777.6557006835938,797.8021850585938,804.6520385742188,795.3846435546875
997,775.6410522460938,799.4139404296875,801.4285888671875,799.010986328125
998,786.5201416015625,799.4139404296875,800.2197875976562,795.7875366210938
999,784.908447265625,794.1758422851562,800.6226806640625,798.2051391601562
1000,780.4761962890625,789.3406372070312,796.996337890625,801.8314819335938
1001,780.879150390625,788.1318969726562,795.7875366210938,788.5347900390625
1002,784.908447265625,790.1465454101562,793.7728881835938,786.5201416015625
1003,780.4761962890625,794.1758422851562,791.3552856445312,792.1611938476562
1004,775.6410522460938,793.3699340820312,792.5640869140625,788.1318969726562
1005,778.4615478515625,792.5640869140625,794.1758422851562,779.2673950195312
1006,778.05859375,790.952392578125,793.3699340820312,776.4468994140625
1007,788.1318969726562,790.952392578125,793.7728881835938,792.1611938476562
1008,797.8021850585938,792.5640869140625,793.3699340820312,784.908447265625
1009,792.967041015625,789.7435913085938,792.967041015625,777.2527465820312
1010,776.8497924804688,787.7289428710938,791.7582397460938,787.7289428710938
1011,781.6849975585938,793.3699340820312,795.3846435546875,793.7728881835938
1012,776.8497924804688,795.7875366210938,796.5933837890625,785.3113403320312
1013,766.3735961914062,785.7142944335938,795.7875366210938,779.6703491210938
1014,768.3883056640625,780.0732421875,792.5640869140625,777.6557006835938
1015,775.6410522460938,790.952392578125,788.937744140625,782.893798828125
1016,779.2673950195312,791.3552856445312,790.952392578125,794.1758422851562
1017,778.8644409179688,789.7435913085938,790.952392578125,785.7142944335938
1018,779.2673950195312,793.3699340820312,789.3406372070312,776.0439453125
1019,788.1318969726562,794.981689453125,790.5494384765625,777.2527465820312
1020,795.3846435546875,792.1611938476562,789.7435913085938,776.4468994140625
1021,776.8497924804688,789.3406372070312,790.952392578125,774.029296875
1022,768.7911987304688,793.3699340820312,798.6080322265625,781.2820434570312
1023,781.6849975585938,796.1904907226562,798.6080322265625,784.5054931640625
1024,788.937744140625,796.1904907226562,794.5787353515625,779.6703491210938
1025,790.5494384765625,797.3992919921875,791.7582397460938,781.6849975585938
1026,785.3113403320312,796.996337890625,791.7582397460938,779.2673950195312
1027,783.2966918945312,796.1904907226562,790.952392578125,779.6703491210938
1028,785.3113403320312,796.996337890625,790.5494384765625,784.5054931640625
1029,793.3699340820312,796.5933837890625,791.7582397460938,784.5054931640625
1030,805.054931640625,794.1758422851562,791.7582397460938,780.0732421875
1031,779.2673950195312,795.7875366210938,791.3552856445312,772.0146484375
1032,771.6116943359375,799.8168334960938,788.937744140625,775.2380981445312
1033,784.908447265625,801.8314819335938,792.1611938476562,786.1171875
1034,787.3259887695312,802.2344360351562,796.1904907226562,798.6080322265625
1035,796.996337890625,802.2344360351562,794.981689453125,801.025634765625
1036,798.6080322265625,794.981689453125,792.5640869140625,791.3552856445312
1037,794.5787353515625,790.1465454101562,790.1465454101562,790.1465454101562
1038,802.6373901367188,790.952392578125,793.7728881835938,796.996337890625
1039,812.7106323242188,792.1611938476562,799.010986328125,801.025634765625
1040,803.4432373046875,795.3846435546875,797.3992919921875,794.981689453125
1041,786.923095703125,797.3992919921875,791.7582397460938,784.5054931640625
1042,788.1318969726562,796.996337890625,793.3699340820312,780.879150390625
1043,789.7435913085938,800.6226806640625,794.981689453125,784.1025390625
1044,786.5201416015625,798.2051391601562,795.7875366210938,787.7289428710938
1045,790.952392578125,794.981689453125,794.981689453125,791.7582397460938
1046,795.3846435546875,797.8021850585938,795.3846435546875,799.8168334960938
1047,794.1758422851562,794.981689453125,796.5933837890625,799.4139404296875
1048,792.5640869140625,792.967041015625,792.967041015625,785.3113403320312
1049,800.6226806640625,794.5787353515625,794.5787353515625,784.1025390625
1050,803.040283203125,786.1171875,801.025634765625,788.937744140625
1051,803.4432373046875,788.1318969726562,799.8168334960938,782.087890625
1052,796.996337890625,795.7875366210938,796.1904907226562,784.908447265625
1053,794.981689453125,794.5787353515625,796.5933837890625,793.7728881835938
1054,782.893798828125,792.967041015625,794.981689453125,787.3259887695312
1055,779.6703491210938,794.1758422851562,795.3846435546875,788.1318969726562
1056,790.5494384765625,793.7728881835938,792.5640869140625,793.7728881835938
1057,784.5054931640625,788.1318969726562,791.3552856445312,792.967041015625
1058,785.7142944335938,789.7435913085938,792.967041015625,793.7728881835938
1059,801.4285888671875,792.1611938476562,794.981689453125,792.1611938476562
1060,797.3992919921875,790.1465454101562,798.2051391601562,792.5640869140625
1061,792.5640869140625,792.1611938476562,799.010986328125,795.3846435546875
1062,791.7582397460938,791.3552856445312,796.996337890625,798.6080322265625
1063,794.5787353515625,787.7289428710938,796.1904907226562,794.981689453125
1064,805.054931640625,792.967041015625,797.3992919921875,794.981689453125
1065,809.89013671875,794.1758422851562,796.996337890625,802.2344360351562
1066,805.054931640625,789.3406372070312,795.3846435546875,801.4285888671875
1067,794.981689453125,792.5640869140625,796.996337890625,796.1904907226562
1068,796.996337890625,795.3846435546875,798.2051391601562,792.967041015625
1069,803.040283203125,791.7582397460938,799.010986328125,791.7582397460938
1070,792.1611938476562,790.952392578125,796.1904907226562,784.908447265625
1071,782.087890625,793.3699340820312,793.7728881835938,780.4761962890625
1072,778.4615478515625,789.7435913085938,792.967041015625,783.6996459960938
1073,780.879150390625,788.937744140625,795.3846435546875,786.1171875
1074,783.6996459960938,791.7582397460938,794.981689453125,784.908447265625
1075,785.7142944335938,790.952392578125,792.967041015625,783.2966918945312
1076,786.5201416015625,785.3113403320312,794.5787353515625,788.937744140625
1077,795.3846435546875,786.5201416015625,796.996337890625,792.1611938476562
1078,792.5640869140625,786.5201416015625,798.6080322265625,788.937744140625
1079,773.6264038085938,786.5201416015625,797.8021850585938,788.5347900390625
1080,787.7289428710938,790.952392578125,798.6080322265625,797.8021850585938
1081,807.4725341796875,786.923095703125,799.010986328125,800.2197875976562
1082,793.7728881835938,789.7435913085938,791.7582397460938,799.4139404296875
1083,774.4322509765625,788.937744140625,784.908447265625,792.967041015625
1084,781.2820434570312,783.6996459960938,787.3259887695312,791.7582397460938
1085,792.5640869140625,784.908447265625,793.3699340820312,788.1318969726562
1086,794.981689453125,788.5347900390625,797.3992919921875,794.1758422851562
1087,803.8461303710938,787.3259887695312,796.1904907226562,795.7875366210938
1088,800.2197875976562,787.7289428710938,793.7728881835938,786.923095703125
1089,792.5640869140625,792.967041015625,794.981689453125,782.4908447265625
1090,791.7582397460938,795.3846435546875,795.3846435546875,782.4908447265625
1091,783.6996459960938,794.981689453125,794.981689453125,784.908447265625
1092,780.879150390625,793.7728881835938,792.1611938476562,787.3259887695312
1093,787.7289428710938,791.3552856445312,787.7289428710938,782.4908447265625
1094,785.7142944335938,792.967041015625,789.3406372070312,775.6410522460938
1095,787.7289428710938,794.5787353515625,788.1318969726562,779.6703491210938
1096,794.981689453125,791.7582397460938,790.1465454101562,789.3406372070312
1097,797.8021850585938,791.3552856445312,791.7582397460938,794.981689453125
1098,782.4908447265625,789.3406372070312,789.3406372070312,789.3406372070312
1099,782.087890625,790.1465454101562,788.937744140625,784.908447265625
1100,794.1758422851562,794.5787353515625,788.937744140625,784.1025390625
1101,790.1465454101562,792.5640869140625,792.1611938476562,792.5640869140625
1102,787.3259887695312,788.5347900390625,798.2051391601562,799.4139404296875
1103,793.3699340820312,786.1171875,795.7875366210938,803.040283203125
1104,790.952392578125,790.5494384765625,793.3699340820312,811.90478515625
1105,778.4615478515625,788.937744140625,793.7728881835938,799.010986328125
1106,777.6557006835938,786.923095703125,793.3699340820312,787.7289428710938
1107,781.2820434570312,787.7289428710938,794.5787353515625,793.3699340820312
1108,777.6557006835938,788.1318969726562,795.7875366210938,790.5494384765625
1109,788.1318969726562,790.5494384765625,796.996337890625,781.2820434570312
1110,811.5018310546875,791.7582397460938,800.2197875976562,788.1318969726562
1111,793.7728881835938,794.1758422851562,805.054931640625,792.1611938476562
1112,784.908447265625,789.3406372070312,805.054931640625,785.7142944335938
1113,788.937744140625,789.3406372070312,802.2344360351562,782.893798828125
1114,788.1318969726562,795.7875366210938,801.025634765625,790.1465454101562
1115,804.2490844726562,790.952392578125,799.8168334960938,793.3699340820312
1116,809.4871826171875,787.7289428710938,799.8168334960938,789.3406372070312
1117,788.1318969726562,792.5640869140625,799.010986328125,786.5201416015625
1118,779.6703491210938,790.952392578125,802.2344360351562,791.3552856445312
1119,788.5347900390625,793.7728881835938,806.6666870117188,793.3699340820312
1120,789.7435913085938,794.5787353515625,801.4285888671875,789.3406372070312
1121,792.967041015625,790.5494384765625,798.2051391601562,793.3699340820312
1122,800.2197875976562,791.3552856445312,798.6080322265625,796.1904907226562
1123,799.4139404296875,793.3699340820312,796.5933837890625,797.8021850585938
1124,805.4578857421875,796.1904907226562,796.996337890625,793.7728881835938
1125,801.025634765625,800.2197875976562,794.981689453125,786.5201416015625
1126,795.3846435546875,801.8314819335938,797.8021850585938,789.3406372070312
1127,798.2051391601562,796.5933837890625,796.996337890625,784.5054931640625
1128,786.923095703125,794.5787353515625,795.7875366210938,779.6703491210938
1129,784.1025390625,792.1611938476562,795.7875366210938,785.3113403320312
1130,780.0732421875,790.5494384765625,792.1611938476562,785.7142944335938
1131,775.2380981445312,794.5787353515625,794.5787353515625,782.893798828125
1132,782.893798828125,794.981689453125,798.2051391601562,780.4761962890625
1133,790.5494384765625,798.2051391601562,796.996337890625,781.6849975585938
1134,798.2051391601562,803.040283203125,795.7875366210938,785.3113403320312
1135,784.1025390625,804.6520385742188,798.2051391601562,782.893798828125
1136,771.2088012695312,806.2637329101562,796.1904907226562,782.4908447265625
1137,776.8497924804688,803.4432373046875,794.1758422851562,780.879150390625
1138,782.087890625,804.6520385742188,796.1904907226562,779.6703491210938
1139,783.6996459960938,804.2490844726562,793.3699340820312,782.893798828125
1140,792.1611938476562,797.3992919921875,785.3113403320312,781.2820434570312
1141,794.1758422851562,794.981689453125,785.7142944335938,783.2966918945312
1142,787.7289428710938,793.7728881835938,788.5347900390625,792.5640869140625
1143,790.952392578125,793.3699340820312,786.1171875,788.5347900390625
1144,790.952392578125,793.7728881835938,789.3406372070312,784.908447265625
1145,799.010986328125,792.5640869140625,790.952392578125,787.7289428710938
1146,799.4139404296875,788.937744140625,792.1611938476562,792.967041015625
1147,782.087890625,788.937744140625,792.1611938476562,803.8461303710938
1148,783.6996459960938,782.893798828125,789.7435913085938,804.2490844726562
1149,786.923095703125,784.1025390625,790.952392578125,796.996337890625
1150,786.1171875,792.1611938476562,792.5640869140625,798.2051391601562
1151,788.5347900390625,790.5494384765625,789.3406372070312,790.952392578125
1152,794.5787353515625,784.5054931640625,786.923095703125,790.5494384765625
1153,797.8021850585938,781.2820434570312,785.7142944335938,797.3992919921875
1154,806.6666870117188,783.2966918945312,784.908447265625,792.5640869140625
1155,793.7728881835938,782.893798828125,785.3113403320312,786.923095703125
1156,779.2673950195312,782.4908447265625,786.923095703125,786.923095703125
1157,790.1465454101562,790.952392578125,789.3406372070312,790.5494384765625
1158,793.3699340820312,796.1904907226562,789.7435913085938,792.967041015625
1159,795.3846435546875,792.967041015625,789.7435913085938,786.1171875
1160,801.4285888671875,797.3992919921875,793.3699340820312,785.7142944335938
1161,806.2637329101562,805.4578857421875,794.1758422851562,790.5494384765625
1162,801.025634765625,805.054931640625,788.1318969726562,785.7142944335938
1163,808.6813354492188,799.4139404296875,786.1171875,781.6849975585938
1164,811.098876953125,799.8168334960938,788.5347900390625,788.1318969726562
1165,791.3552856445312,798.2051391601562,789.3406372070312,792.5640869140625
1166,786.923095703125,791.3552856445312,786.1171875,786.1171875
1167,796.1904907226562,789.3406372070312,780.879150390625,782.4908447265625
1168,801.025634765625,788.937744140625,784.908447265625,787.7289428710938
1169,792.967041015625,786.5201416015625,787.7289428710938,788.937744140625
1170,785.7142944335938,789.3406372070312,785.3113403320312,783.6996459960938
1171,786.1171875,796.5933837890625,787.7289428710938,788.1318969726562
1172,791.7582397460938,799.010986328125,786.5201416015625,789.3406372070312
1173,794.981689453125,793.7728881835938,779.6703491210938,783.6996459960938
1174,791.3552856445312,790.1465454101562,782.4908447265625,786.923095703125
1175,787.7289428710938,790.952392578125,790.5494384765625,789.7435913085938
1176,795.3846435546875,794.981689453125,789.3406372070312,787.7289428710938
1177,803.040283203125,795.7875366210938,788.937744140625,792.967041015625
1178,792.5640869140625,791.3552856445312,792.1611938476562,787.3259887695312
1179,788.1318969726562,789.7435913085938,791.7582397460938,786.923095703125
1180,788.937744140625,791.7582397460938,794.1758422851562,795.7875366210938
1181,786.1171875,793.7728881835938,792.5640869140625,783.6996459960938
1182,786.1171875,793.3699340820312,790.1465454101562,775.2380981445312
1183,785.7142944335938,788.937744140625,790.952392578125,783.2966918945312
1184,783.6996459960938,784.908447265625,790.5494384765625,786.923095703125
1185,776.0439453125,787.3259887695312,787.3259887695312,781.2820434570312
1186,772.8204956054688,788.5347900390625,784.5054931640625,771.2088012695312
1187,782.087890625,791.3552856445312,786.1171875,772.4176025390625
1188,792.967041015625,791.7582397460938,788.937744140625,781.2820434570312
1189,786.5201416015625,791.3552856445312,790.5494384765625,783.2966918945312
1190,773.6264038085938,788.1318969726562,788.937744140625,776.8497924804688
1191,778.05859375,779.2673950195312,786.5201416015625,771.2088012695312
1192,791.7582397460938,787.3259887695312,793.3699340820312,780.4761962890625
1193,790.1465454101562,792.5640869140625,799.010986328125,778.8644409179688
1194,787.3259887695312,790.952392578125,794.981689453125,781.2820434570312
1195,785.7142944335938,794.1758422851562,792.5640869140625,785.7142944335938
1196,788.5347900390625,798.6080322265625,796.5933837890625,783.2966918945312
1197,793.3699340820312,797.8021850585938,798.2051391601562,781.6849975585938
1198,795.3846435546875,791.7582397460938,795.3846435546875,782.4908447265625
1199,797.8021850585938,790.5494384765625,799.8168334960938,789.3406372070312
1200,795.3846435546875,790.5494384765625,797.8021850585938,794.1758422851562
1201,793.7728881835938,790.5494384765625,794.5787353515625,792.1611938476562
1202,788.1318969726562,791.7582397460938,796.996337890625,790.1465454101562
1203,790.952392578125,788.937744140625,799.8168334960938,797.8021850585938
1204,792.967041015625,795.3846435546875,804.6520385742188,798.6080322265625
1205,788.937744140625,802.6373901367188,806.6666870117188,791.3552856445312
1206,781.6849975585938,799.8168334960938,802.2344360351562,783.6996459960938
1207,782.087890625,796.1904907226562,799.4139404296875,783.6996459960938
1208,790.5494384765625,794.5787353515625,801.025634765625,789.3406372070312
1209,787.7289428710938,793.3699340820312,797.8021850585938,794.5787353515625
1210,778.4615478515625,792.967041015625,795.7875366210938,789.7435913085938
1211,780.879150390625,792.967041015625,796.5933837890625,785.3113403320312
1212,791.3552856445312,790.5494384765625,799.4139404296875,785.7142944335938
1213,790.952392578125,789.7435913085938,801.025634765625,788.1318969726562
1214,787.7289428710938,790.5494384765625,799.010986328125,795.3846435546875
1215,782.893798828125,789.3406372070312,796.996337890625,791.3552856445312
1216,780.879150390625,788.5347900390625,794.1758422851562,783.6996459960938
1217,790.952392578125,790.1465454101562,793.7728881835938,786.923095703125
1218,803.8461303710938,790.1465454101562,796.1904907226562,788.1318969726562
1219,800.6226806640625,786.1171875,796.5933837890625,786.1171875
1220,799.010986328125,786.5201416015625,795.7875366210938,789.3406372070312
1221,802.2344360351562,786.5201416015625,796.1904907226562,799.010986328125
1222,794.5787353515625,784.1025390625,795.7875366210938,800.6226806640625
1223,788.937744140625,788.1318969726562,796.1904907226562,793.7728881835938
1224,785.7142944335938,789.7435913085938,799.8168334960938,794.981689453125
1225,784.1025390625,787.3259887695312,800.2197875976562,797.3992919921875
1226,782.4908447265625,788.5347900390625,796.996337890625,795.7875366210938
1227,786.923095703125,795.7875366210938,795.7875366210938,798.6080322265625
1228,795.7875366210938,794.1758422851562,794.1758422851562,797.8021850585938
1229,795.3846435546875,790.5494384765625,792.1611938476562,791.3552856445312
1230,788.5347900390625,792.5640869140625,794.1758422851562,794.981689453125
1231,782.893798828125,788.1318969726562,796.5933837890625,788.5347900390625
1232,777.2527465820312,783.2966918945312,796.1904907226562,783.6996459960938
1233,782.893798828125,785.3113403320312,794.1758422851562,786.1171875
1234,791.7582397460938,789.3406372070312,796.996337890625,790.1465454101562
1235,790.952392578125,792.1611938476562,802.6373901367188,792.1611938476562
1236,782.4908447265625,789.7435913085938,804.2490844726562,788.937744140625
1237,782.893798828125,786.5201416015625,799.010986328125,794.1758422851562
1238,793.7728881835938,786.923095703125,795.7875366210938,797.3992919921875
1239,792.5640869140625,789.3406372070312,796.996337890625,791.3552856445312
1240,786.923095703125,789.3406372070312,795.7875366210938,787.7289428710938
1241,798.6080322265625,788.5347900390625,796.5933837890625,786.923095703125
1242,798.6080322265625,791.3552856445312,798.2051391601562,792.1611938476562
1243,793.7728881835938,791.7582397460938,799.8168334960938,798.6080322265625
1244,792.1611938476562,785.7142944335938,801.025634765625,802.6373901367188
1245,782.087890625,784.1025390625,797.3992919921875,792.967041015625
1246,792.1611938476562,788.937744140625,794.5787353515625,785.7142944335938
1247,782.4908447265625,787.7289428710938,794.1758422851562,789.7435913085938
1248,775.6410522460938,789.3406372070312,790.952392578125,790.5494384765625
1249,792.5640869140625,787.3259887695312,791.7582397460938,784.1025390625
1250,791.7582397460938,783.6996459960938,789.7435913085938,778.05859375
1251,790.1465454101562,789.3406372070312,787.7289428710938,779.6703491210938
1252,790.1465454101562,790.5494384765625,787.7289428710938,784.908447265625
1253,782.4908447265625,794.1758422851562,790.5494384765625,790.5494384765625
1254,788.1318969726562,799.010986328125,791.7582397460938,786.923095703125
1255,788.5347900390625,796.996337890625,787.3259887695312,784.5054931640625
1256,782.4908447265625,794.1758422851562,788.5347900390625,782.087890625
1257,782.893798828125,792.1611938476562,788.5347900390625,779.6703491210938
1258,783.6996459960938,789.3406372070312,787.7289428710938,785.3113403320312
1259,785.3113403320312,792.967041015625,793.7728881835938,781.2820434570312
1260,788.937744140625,797.8021850585938,795.3846435546875,778.4615478515625
1261,787.7289428710938,793.7728881835938,797.8021850585938,777.6557006835938
1262,791.3552856445312,789.3406372070312,800.2197875976562,779.2673950195312
1263,798.2051391601562,789.7435913085938,797.8021850585938,784.1025390625
1264,801.4285888671875,795.7875366210938,791.7582397460938,783.2966918945312
1265,795.3846435546875,796.5933837890625,788.5347900390625,788.5347900390625
1266,793.3699340820312,794.5787353515625,790.952392578125,792.5640869140625
1267,794.1758422851562,797.3992919921875,788.937744140625,782.4908447265625
1268,790.5494384765625,798.2051391601562,790.1465454101562,780.0732421875
1269,790.5494384765625,795.7875366210938,792.5640869140625,787.3259887695312
1270,789.7435913085938,792.5640869140625,792.1611938476562,792.5640869140625
1271,788.937744140625,788.1318969726562,789.3406372070312,801.025634765625
1272,784.908447265625,782.893798828125,784.908447265625,805.054931640625
1273,784.908447265625,780.4761962890625,789.7435913085938,802.6373901367188
1274,788.937744140625,781.6849975585938,793.7728881835938,801.4285888671875
1275,784.908447265625,783.6996459960938,793.3699340820312,799.4139404296875
1276,787.7289428710938,790.5494384765625,792.5640869140625,800.6226806640625
1277,782.893798828125,788.5347900390625,792.967041015625,793.7728881835938
1278,787.3259887695312,782.4908447265625,793.7728881835938,791.3552856445312
1279,789.3406372070312,785.7142944335938,789.3406372070312,792.5640869140625
1280,765.970703125,783.2966918945312,788.937744140625,779.2673950195312
1281,768.3883056640625,782.893798828125,789.3406372070312,778.05859375
1282,775.6410522460938,784.5054931640625,788.1318969726562,783.2966918945312
1283,782.893798828125,786.5201416015625,791.7582397460938,782.4908447265625
1284,792.967041015625,790.952392578125,794.981689453125,783.6996459960938
1285,793.7728881835938,792.1611938476562,793.7728881835938,786.923095703125
1286,796.1904907226562,794.981689453125,793.7728881835938,789.3406372070312
1287,797.8021850585938,795.7875366210938,794.1758422851562,791.3552856445312
1288,792.1611938476562,795.7875366210938,794.981689453125,785.7142944335938
1289,783.2966918945312,798.6080322265625,794.1758422851562,781.6849975585938
1290,788.937744140625,795.7875366210938,794.1758422851562,790.5494384765625
1291,790.1465454101562,794.5787353515625,796.996337890625,794.1758422851562
1292,787.3259887695312,796.996337890625,798.2051391601562,788.937744140625
1293,800.2197875976562,799.010986328125,800.2197875976562,792.967041015625
1294,805.4578857421875,798.6080322265625,799.010986328125,796.1904907226562
1295,791.7582397460938,796.1904907226562,799.8168334960938,793.3699340820312
1296,794.981689453125,794.5787353515625,801.025634765625,791.7582397460938
1297,800.6226806640625,791.7582397460938,798.2051391601562,790.952392578125
1298,794.5787353515625,788.937744140625,796.5933837890625,793.7728881835938
1299,803.8461303710938,793.3699340820312,799.4139404296875,801.4285888671875
1300,799.8168334960938,798.6080322265625,803.4432373046875,799.8168334960938
1301,787.3259887695312,796.996337890625,798.6080322265625,794.1758422851562
1302,787.3259887695312,794.981689453125,793.3699340820312,791.7582397460938
1303,787.7289428710938,794.1758422851562,797.8021850585938,789.3406372070312
1304,801.8314819335938,798.2051391601562,801.8314819335938,788.937744140625
1305,803.040283203125,796.996337890625,801.025634765625,793.3699340820312
1306,786.923095703125,789.7435913085938,796.996337890625,784.908447265625
1307,784.908447265625,789.7435913085938,792.967041015625,774.4322509765625
1308,784.908447265625,791.3552856445312,792.5640869140625,778.4615478515625
1309,786.923095703125,789.7435913085938,795.3846435546875,780.879150390625
1310,788.5347900390625,787.7289428710938,795.3846435546875,785.7142944335938
1311,788.937744140625,790.5494384765625,797.3992919921875,784.5054931640625
1312,791.3552856445312,796.5933837890625,799.010986328125,778.4615478515625
1313,791.3552856445312,799.010986328125,795.3846435546875,782.087890625
1314,790.5494384765625,794.1758422851562,792.967041015625,783.2966918945312
1315,791.7582397460938,790.5494384765625,796.1904907226562,782.4908447265625
1316,798.6080322265625,789.7435913085938,791.3552856445312,784.5054931640625
1317,795.7875366210938,786.1171875,782.4908447265625,788.937744140625
1318,788.1318969726562,789.7435913085938,784.908447265625,790.5494384765625
1319,788.5347900390625,788.937744140625,786.5201416015625,792.1611938476562
1320,795.3846435546875,785.7142944335938,786.923095703125,790.952392578125
1321,786.5201416015625,784.1025390625,783.6996459960938,786.923095703125
1322,788.5347900390625,783.6996459960938,780.4761962890625,787.7289428710938
1323,792.5640869140625,788.937744140625,782.087890625,788.5347900390625
1324,783.6996459960938,790.1465454101562,783.6996459960938,787.7289428710938
1325,794.1758422851562,786.923095703125,786.1171875,788.1318969726562
1326,798.6080322265625,790.1465454101562,789.7435913085938,787.3259887695312
1327,782.087890625,788.1318969726562,793.7728881835938,783.6996459960938
1328,782.087890625,784.1025390625,792.967041015625,784.1025390625
1329,795.3846435546875,788.1318969726562,793.3699340820312,792.967041015625
1330,799.4139404296875,787.3259887695312,797.8021850585938,797.3992919921875
1331,803.4432373046875,787.7289428710938,795.3846435546875,793.7728881835938
1332,794.981689453125,791.7582397460938,791.3552856445312,788.1318969726562
1333,779.6703491210938,786.923095703125,792.1611938476562,793.7728881835938
1334,783.2966918945312,784.1025390625,796.5933837890625,799.4139404296875
1335,791.3552856445312,791.7582397460938,794.981689453125,791.3552856445312
1336,788.1318969726562,790.952392578125,789.7435913085938,794.1758422851562
1337,782.4908447265625,786.923095703125,790.952392578125,793.3699340820312
1338,784.908447265625,786.5201416015625,792.1611938476562,789.7435913085938
1339,782.893798828125,787.7289428710938,789.7435913085938,785.7142944335938
1340,786.5201416015625,793.3699340820312,789.3406372070312,783.6996459960938
1341,789.3406372070312,793.3699340820312,791.3552856445312,796.996337890625
1342,787.7289428710938,791.3552856445312,792.1611938476562,795.3846435546875
1343,791.7582397460938,797.3992919921875,792.1611938476562,784.908447265625
1344,788.937744140625,796.5933837890625,790.5494384765625,785.7142944335938
1345,785.3113403320312,789.7435913085938,794.981689453125,788.1318969726562
1346,781.6849975585938,793.3699340820312,799.8168334960938,785.3113403320312
1347,784.5054931640625,798.2051391601562,798.6080322265625,782.893798828125
1348,785.7142944335938,794.1758422851562,798.2051391601562,783.2966918945312
1349,786.923095703125,796.1904907226562,794.981689453125,786.923095703125
1350,796.996337890625,797.8021850585938,799.010986328125,790.952392578125
1351,807.4725341796875,792.1611938476562,805.4578857421875,799.8168334960938
1352,803.040283203125,796.1904907226562,801.8314819335938,796.5933837890625
1353,788.1318969726562,802.2344360351562,796.5933837890625,781.2820434570312
1354,782.893798828125,797.8021850585938,792.967041015625,775.6410522460938
1355,792.1611938476562,795.3846435546875,793.3699340820312,780.0732421875
1356,782.4908447265625,796.1904907226562,792.5640869140625,785.3113403320312
1357,776.8497924804688,796.996337890625,795.3846435546875,789.7435913085938
1358,786.5201416015625,795.7875366210938,796.1904907226562,789.3406372070312
1359,787.3259887695312,793.7728881835938,798.6080322265625,792.1611938476562
1360,791.7582397460938,794.1758422851562,802.6373901367188,800.6226806640625
1361,793.3699340820312,796.1904907226562,799.4139404296875,802.6373901367188
1362,793.7728881835938,795.7875366210938,802.6373901367188,797.8021850585938
1363,798.2051391601562,792.1611938476562,803.040283203125,799.4139404296875
1364,791.7582397460938,794.5787353515625,797.8021850585938,800.2197875976562
1365,787.7289428710938,794.1758422851562,801.025634765625,793.3699340820312
1366,792.5640869140625,790.1465454101562,799.4139404296875,795.7875366210938
1367,797.3992919921875,794.981689453125,795.7875366210938,797.3992919921875
1368,796.5933837890625,795.7875366210938,797.8021850585938,794.1758422851562
1369,794.981689453125,795.7875366210938,798.6080322265625,794.5787353515625
1370,794.5787353515625,802.2344360351562,799.4139404296875,791.3552856445312
1371,793.7728881835938,800.2197875976562,798.2051391601562,790.952392578125
1372,799.4139404296875,800.2197875976562,795.3846435546875,790.5494384765625
1373,805.8607788085938,802.2344360351562,793.3699340820312,785.3113403320312
1374,806.2637329101562,797.3992919921875,790.1465454101562,791.3552856445312
1375,795.7875366210938,796.1904907226562,788.1318969726562,789.7435913085938
1376,792.967041015625,796.996337890625,789.3406372070312,787.7289428710938
1377,799.4139404296875,798.2051391601562,791.3552856445312,794.1758422851562
1378,796.996337890625,796.5933837890625,790.952392578125,790.1465454101562
1379,817.5457763671875,802.2344360351562,786.5201416015625,790.952392578125
1380,821.5750732421875,805.4578857421875,787.3259887695312,791.3552856445312
1381,800.2197875976562,803.040283203125,791.3552856445312,792.5640869140625
1382,792.1611938476562,802.2344360351562,790.5494384765625,798.2051391601562
1383,787.7289428710938,794.981689453125,788.1318969726562,801.8314819335938
1384,784.1025390625,791.3552856445312,789.3406372070312,796.996337890625
1385,781.6849975585938,793.7728881835938,793.3699340820312,796.1904907226562
1386,784.1025390625,792.967041015625,793.3699340820312,802.6373901367188
1387,789.3406372070312,789.3406372070312,796.1904907226562,804.6520385742188
1388,792.1611938476562,790.1465454101562,794.5787353515625,796.5933837890625
1389,793.3699340820312,791.7582397460938,792.967041015625,787.7289428710938
1390,796.996337890625,790.952392578125,794.981689453125,791.3552856445312
1391,794.981689453125,794.1758422851562,794.1758422851562,794.5787353515625
1392,790.952392578125,799.010986328125,793.7728881835938,790.5494384765625
1393,792.1611938476562,800.2197875976562,794.5787353515625,788.937744140625
1394,799.4139404296875,795.3846435546875,795.7875366210938,790.1465454101562
1395,794.1758422851562,794.5787353515625,794.5787353515625,786.1171875
1396,781.2820434570312,796.5933837890625,796.996337890625,786.923095703125
1397,780.4761962890625,794.5787353515625,797.8021850585938,788.1318969726562
1398,782.893798828125,795.3846435546875,796.5933837890625,778.05859375
1399,791.7582397460938,801.8314819335938,797.8021850585938,777.6557006835938
1400,791.3552856445312,799.010986328125,796.1904907226562,775.2380981445312
1401,788.1318969726562,792.5640869140625,793.3699340820312,771.6116943359375
1402,794.981689453125,800.2197875976562,796.5933837890625,774.4322509765625
1403,796.996337890625,801.025634765625,797.3992919921875,779.6703491210938
1404,792.5640869140625,795.3846435546875,796.1904907226562,778.05859375
1405,782.087890625,800.2197875976562,799.010986328125,778.4615478515625
1406,780.0732421875,801.8314819335938,797.8021850585938,794.981689453125
1407,779.6703491210938,797.3992919921875,790.952392578125,794.981689453125
1408,788.5347900390625,794.981689453125,791.7582397460938,788.937744140625
1409,794.981689453125,790.952392578125,797.8021850585938,793.3699340820312
1410,795.3846435546875,793.7728881835938,799.010986328125,794.1758422851562
1411,792.1611938476562,788.937744140625,797.8021850585938,789.3406372070312
1412,789.7435913085938,785.7142944335938,796.996337890625,786.1171875
1413,790.5494384765625,789.7435913085938,794.1758422851562,796.996337890625
1414,795.3846435546875,788.1318969726562,795.7875366210938,793.7728881835938
1415,799.010986328125,793.7728881835938,796.5933837890625,781.6849975585938
1416,791.7582397460938,792.5640869140625,798.2051391601562,782.893798828125
1417,789.7435913085938,792.1611938476562,801.8314819335938,788.1318969726562
1418,788.5347900390625,797.3992919921875,799.010986328125,784.5054931640625
1419,788.1318969726562,794.1758422851562,795.7875366210938,783.2966918945312
1420,788.1318969726562,791.7582397460938,796.1904907226562,782.087890625
1421,786.923095703125,789.7435913085938,795.3846435546875,774.8351440429688
1422,790.1465454101562,789.7435913085938,792.1611938476562,777.2527465820312
1423,791.7582397460938,791.7582397460938,786.923095703125,781.6849975585938
1424,790.5494384765625,789.7435913085938,787.7289428710938,786.1171875
1425,791.7582397460938,791.3552856445312,792.1611938476562,785.7142944335938
1426,787.3259887695312,792.5640869140625,794.981689453125,780.4761962890625
1427,788.937744140625,791.7582397460938,795.7875366210938,783.2966918945312
1428,798.2051391601562,788.1318969726562,792.5640869140625,784.5054931640625
1429,801.025634765625,788.5347900390625,792.5640869140625,784.908447265625
1430,788.5347900390625,796.996337890625,797.3992919921875,789.3406372070312
1431,781.6849975585938,801.8314819335938,804.6520385742188,791.7582397460938
1432,780.4761962890625,796.996337890625,805.054931640625,792.967041015625
1433,783.6996459960938,796.1904907226562,797.8021850585938,797.3992919921875
1434,790.952392578125,800.2197875976562,796.996337890625,790.952392578125
1435,797.3992919921875,795.3846435546875,799.010986328125,787.3259887695312
1436,799.4139404296875,796.1904907226562,796.1904907226562,790.1465454101562
1437,797.8021850585938,799.8168334960938,793.7728881835938,789.3406372070312
1438,804.2490844726562,803.4432373046875,798.2051391601562,792.967041015625
1439,811.098876953125,801.025634765625,798.6080322265625,792.5640869140625
1440,806.6666870117188,796.996337890625,797.3992919921875,792.1611938476562
1441,792.1611938476562,794.981689453125,797.8021850585938,792.5640869140625
1442,784.908447265625,792.967041015625,794.981689453125,784.5054931640625
1443,794.1758422851562,789.7435913085938,794.981689453125,786.923095703125
1444,793.3699340820312,790.5494384765625,792.1611938476562,802.6373901367188
1445,782.4908447265625,794.1758422851562,795.3846435546875,794.981689453125
1446,784.1025390625,795.7875366210938,801.8314819335938,779.2673950195312
1447,796.1904907226562,792.967041015625,801.8314819335938,784.1025390625
1448,798.2051391601562,801.025634765625,804.2490844726562,794.1758422851562
1449,787.7289428710938,803.8461303710938,808.2783813476562,791.3552856445312
1450,776.8497924804688,787.3259887695312,795.7875366210938,782.4908447265625
1451,760.7326049804688,784.5054931640625,792.1611938476562,774.029296875
1452,746.6300659179688,794.5787353515625,800.2197875976562,768.3883056640625
1453,751.062255859375,799.8168334960938,802.6373901367188,772.0146484375
1454,743.003662109375,797.3992919921875,802.2344360351562,756.3003540039062
1455,737.3626098632812,798.6080322265625,809.4871826171875,741.3919677734375
1456,742.6007080078125,807.87548828125,809.89013671875,743.8095092773438
1457,715.2014770507812,801.025634765625,804.6520385742188,720.03662109375
1458,706.3369750976562,802.2344360351562,822.3809814453125,707.94873046875
1459,705.1282348632812,813.5164794921875,831.2454223632812,706.7399291992188
1460,676.1171875,812.7106323242188,829.2307739257812,686.1904907226562
1461,657.9853515625,816.7399291992188,834.06591796875,664.4322509765625
1462,658.7911987304688,817.5457763671875,840.10986328125,653.5531005859375
1463,652.7472534179688,809.084228515625,840.915771484375,644.2857055664062
1464,646.7033081054688,807.4725341796875,841.7216186523438,638.2417602539062
1465,649.120849609375,812.3076782226562,848.5714111328125,643.4798583984375
1466,641.8681030273438,814.3223266601562,848.974365234375,647.912109375
1467,640.2564086914062,812.3076782226562,850.1831665039062,654.3589477539062
1468,645.4945068359375,811.098876953125,850.5860595703125,656.3735961914062
1469,643.076904296875,805.4578857421875,848.974365234375,645.4945068359375
1470,641.8681030273438,799.010986328125,844.1392211914062,647.912109375
1471,647.912109375,798.6080322265625,843.3333129882812,664.029296875
1472,653.5531005859375,800.2197875976562,854.2124633789062,673.2966918945312
1473,657.5823974609375,799.4139404296875,852.1978149414062,675.7142944335938
1474,660.0,800.6226806640625,845.7509155273438,687.8021850585938
1475,668.8644409179688,798.6080322265625,847.7655639648438,705.93408203125
1476,676.5201416015625,801.025634765625,850.5860595703125,702.7106323242188
1477,683.3699340820312,805.4578857421875,847.7655639648438,701.5018310546875
1478,695.054931640625,803.4432373046875,844.945068359375,719.6337280273438
1479,702.3076782226562,800.2197875976562,846.959716796875,730.915771484375
1480,705.1282348632812,797.3992919921875,839.7069702148438,726.886474609375
1481,709.1575317382812,802.6373901367188,831.2454223632812,723.2600708007812
1482,725.6776733398438,804.2490844726562,829.6337280273438,739.7802124023438
1483,735.3479614257812,803.4432373046875,824.3956298828125,750.6593627929688
1484,747.032958984375,801.4285888671875,815.1282348632812,753.4798583984375
1485,765.5677490234375,799.8168334960938,805.8607788085938,767.5823974609375
1486,771.6116943359375,794.1758422851562,806.2637329101562,777.2527465820312
1487,785.7142944335938,790.952392578125,803.040283203125,782.087890625
1488,801.8314819335938,790.1465454101562,794.981689453125,789.7435913085938
1489,799.8168334960938,791.7582397460938,790.952392578125,796.5933837890625
1490,809.084228515625,792.5640869140625,783.6996459960938,804.2490844726562
1491,821.5750732421875,793.7728881835938,779.2673950195312,811.098876953125
1492,822.3809814453125,795.7875366210938,775.2380981445312,807.069580078125
1493,822.7838745117188,791.7582397460938,770.0,804.6520385742188
1494,826.8131713867188,790.1465454101562,774.4322509765625,823.1868286132812
1495,834.8717651367188,792.5640869140625,774.8351440429688,836.886474609375
1496,837.6923217773438,792.5640869140625,771.2088012695312,836.08056640625
1497,838.09521484375,786.923095703125,769.5970458984375,834.06591796875
1498,837.6923217773438,781.2820434570312,767.1795043945312,836.4835205078125
1499,853.4066162109375,783.2966918945312,772.4176025390625,836.886474609375
1500,843.7362670898438,786.923095703125,771.6116943359375,829.2307739257812
1501,831.6483764648438,788.5347900390625,769.1941528320312,837.6923217773438
1502,835.6776733398438,789.3406372070312,774.8351440429688,849.3773193359375
1503,832.8571166992188,785.7142944335938,778.4615478515625,854.6153564453125
1504,848.1685180664062,782.893798828125,778.4615478515625,857.4359130859375
1505,855.4212646484375,787.3259887695312,772.8204956054688,847.3626098632812
1506,850.989013671875,788.5347900390625,767.1795043945312,844.945068359375
1507,846.5567626953125,783.2966918945312,761.94140625,844.1392211914062
1508,842.12451171875,779.6703491210938,762.3442993164062,840.5128173828125
1509,846.959716796875,784.1025390625,763.5531005859375,846.5567626953125
1510,855.8241577148438,786.5201416015625,765.5677490234375,848.1685180664062
1511,858.2417602539062,782.893798828125,766.3735961914062,844.1392211914062
1512,860.2564086914062,787.7289428710938,768.7911987304688,841.3186645507812
1513,861.8681030273438,789.7435913085938,773.2234497070312,844.945068359375
1514,863.4798583984375,786.5201416015625,770.4029541015625,847.7655639648438
1515,860.6593627929688,788.937744140625,772.8204956054688,840.10986328125
1516,865.8974609375,793.3699340820312,776.0439453125,840.915771484375
1517,858.6447143554688,793.7728881835938,773.6264038085938,841.7216186523438
1518,836.08056640625,788.1318969726562,776.4468994140625,843.7362670898438
1519,832.05126953125,788.937744140625,772.8204956054688,838.901123046875
1520,838.4981689453125,786.5201416015625,764.3589477539062,834.06591796875
1521,846.5567626953125,784.1025390625,768.3883056640625,842.5274658203125
1522,841.3186645507812,789.7435913085938,773.2234497070312,842.12451171875
1523,835.2747192382812,793.3699340820312,777.2527465820312,841.3186645507812
1524,837.6923217773438,788.5347900390625,777.6557006835938,836.08056640625
1525,839.3040161132812,785.3113403320312,771.2088012695312,830.4395751953125
1526,830.4395751953125,786.1171875,769.1941528320312,822.3809814453125
1527,824.3956298828125,786.5201416015625,775.2380981445312,812.7106323242188
1528,822.7838745117188,787.3259887695312,776.0439453125,815.93408203125
1529,825.2014770507812,787.7289428710938,771.2088012695312,819.96337890625
1530,825.6043701171875,788.937744140625,772.4176025390625,818.7545776367188
1531,835.6776733398438,789.3406372070312,779.6703491210938,820.3662719726562
1532,835.2747192382812,789.7435913085938,782.087890625,825.2014770507812
1533,825.6043701171875,788.1318969726562,786.923095703125,837.6923217773438
1534,822.3809814453125,790.1465454101562,793.3699340820312,838.4981689453125
1535,823.1868286132812,787.7289428710938,788.1318969726562,826.00732421875
1536,826.8131713867188,784.1025390625,782.087890625,821.5750732421875
1537,821.1721801757812,786.5201416015625,783.6996459960938,823.99267578125
1538,825.6043701171875,790.952392578125,783.2966918945312,820.7692260742188
1539,825.2014770507812,791.7582397460938,784.1025390625,817.94873046875
1540,828.02197265625,790.5494384765625,786.923095703125,828.8278198242188
1541,830.8424682617188,794.981689453125,784.5054931640625,830.03662109375
1542,822.7838745117188,795.7875366210938,779.2673950195312,817.1428833007812
1543,819.5604248046875,789.7435913085938,779.6703491210938,807.87548828125
1544,819.1575317382812,788.937744140625,784.908447265625,809.084228515625
1545,819.96337890625,797.3992919921875,786.5201416015625,807.4725341796875
1546,819.1575317382812,799.8168334960938,784.5054931640625,803.040283203125
1547,819.96337890625,794.1758422851562,782.4908447265625,802.2344360351562
1548,821.97802734375,792.1611938476562,784.1025390625,809.084228515625
1549,822.3809814453125,793.7728881835938,786.923095703125,811.90478515625
1550,820.7692260742188,792.967041015625,786.1171875,811.098876953125
1551,832.4542236328125,795.7875366210938,786.1171875,809.89013671875
1552,839.3040161132812,799.4139404296875,786.923095703125,807.4725341796875
1553,817.5457763671875,797.8021850585938,788.937744140625,802.6373901367188
1554,809.084228515625,795.3846435546875,792.967041015625,801.025634765625
1555,812.3076782226562,790.5494384765625,788.937744140625,803.8461303710938
1556,814.3223266601562,790.5494384765625,788.5347900390625,811.90478515625
1557,822.3809814453125,792.1611938476562,791.7582397460938,817.5457763671875
1558,814.7252807617188,787.3259887695312,790.1465454101562,816.7399291992188
1559,803.040283203125,785.7142944335938,790.5494384765625,810.6959838867188
1560,805.054931640625,788.937744140625,794.1758422851562,803.8461303710938
1561,809.084228515625,791.3552856445312,794.5787353515625,807.069580078125
1562,807.87548828125,783.2966918945312,794.5787353515625,804.2490844726562
1563,803.040283203125,776.8497924804688,794.981689453125,803.8461303710938
1564,794.5787353515625,783.6996459960938,790.952392578125,803.4432373046875
1565,797.3992919921875,788.1318969726562,789.7435913085938,795.7875366210938
1566,805.054931640625,786.1171875,792.1611938476562,799.010986328125
1567,803.4432373046875,787.7289428710938,792.5640869140625,799.010986328125
1568,803.040283203125,788.5347900390625,792.5640869140625,797.3992919921875
1569,804.6520385742188,791.7582397460938,796.1904907226562,802.6373901367188
1570,803.040283203125,796.1904907226562,791.3552856445312,793.7728881835938
1571,802.6373901367188,794.981689453125,790.952392578125,791.7582397460938
1572,804.6520385742188,789.7435913085938,791.3552856445312,792.1611938476562
1573,800.2197875976562,787.3259887695312,785.7142944335938,783.2966918945312
1574,799.010986328125,791.3552856445312,788.1318969726562,789.3406372070312
1575,800.2197875976562,793.3699340820312,791.3552856445312,797.8021850585938
1576,809.89013671875,790.952392578125,792.5640869140625,801.025634765625
1577,815.1282348632812,793.3699340820312,797.8021850585938,805.054931640625
1578,806.2637329101562,791.3552856445312,792.967041015625,800.2197875976562
1579,808.2783813476562,790.5494384765625,792.1611938476562,796.1904907226562
1580,806.6666870117188,792.5640869140625,798.2051391601562,800.2197875976562
1581,801.8314819335938,792.1611938476562,798.6080322265625,799.4139404296875
1582,800.2197875976562,794.981689453125,799.010986328125,799.8168334960938
1583,798.6080322265625,795.3846435546875,798.2051391601562,797.8021850585938
1584,797.3992919921875,793.7728881835938,799.4139404296875,799.4139404296875
