timestamp,RAW_TP9,RAW_AF7,RAW_AF8,RAW_TP10
1,796.996337890625,786.923095703125,797.8021850585938,801.025634765625
2,803.040283203125,788.5347900390625,801.8314819335938,801.8314819335938
3,791.7582397460938,788.1318969726562,798.2051391601562,797.8021850585938
4,786.923095703125,784.908447265625,792.5640869140625,792.967041015625
5,792.1611938476562,788.937744140625,790.5494384765625,791.3552856445312
6,799.8168334960938,793.3699340820312,790.5494384765625,789.3406372070312
7,804.2490844726562,791.3552856445312,791.7582397460938,789.3406372070312
8,800.2197875976562,790.5494384765625,787.7289428710938,789.7435913085938
9,798.2051391601562,794.5787353515625,782.893798828125,784.908447265625
10,798.2051391601562,795.3846435546875,785.7142944335938,783.6996459960938
11,799.010986328125,795.3846435546875,788.1318969726562,785.3113403320312
12,798.2051391601562,792.967041015625,786.1171875,780.4761962890625
13,794.981689453125,795.7875366210938,785.7142944335938,780.0732421875
14,796.5933837890625,798.2051391601562,789.3406372070312,785.7142944335938
15,799.4139404296875,796.5933837890625,786.923095703125,791.7582397460938
16,796.1904907226562,794.5787353515625,782.4908447265625,792.5640869140625
17,788.5347900390625,790.5494384765625,786.1171875,786.1171875
18,783.6996459960938,786.5201416015625,790.5494384765625,787.7289428710938
19,776.8497924804688,782.893798828125,793.3699340820312,788.5347900390625
20,777.6557006835938,783.2966918945312,795.7875366210938,786.1171875
21,783.2966918945312,785.3113403320312,798.6080322265625,792.1611938476562
22,780.879150390625,784.908447265625,795.3846435546875,792.967041015625
23,784.5054931640625,786.923095703125,799.4139404296875,794.5787353515625
24,788.937744140625,785.7142944335938,803.4432373046875,800.2197875976562
25,786.1171875,784.1025390625,800.6226806640625,799.4139404296875
26,789.7435913085938,785.3113403320312,803.040283203125,805.054931640625
27,799.4139404296875,786.1171875,803.4432373046875,811.90478515625
28,792.967041015625,787.3259887695312,797.3992919921875,801.025634765625
29,786.5201416015625,786.923095703125,795.3846435546875,790.1465454101562
30,788.1318969726562,784.5054931640625,794.1758422851562,786.923095703125
31,796.1904907226562,784.5054931640625,793.3699340820312,790.1465454101562
32,803.040283203125,785.7142944335938,792.967041015625,789.3406372070312
33,799.8168334960938,792.967041015625,788.1318969726562,784.1025390625
34,794.5787353515625,802.2344360351562,789.7435913085938,783.2966918945312
35,799.010986328125,804.6520385742188,788.937744140625,783.6996459960938
36,799.010986328125,799.8168334960938,782.4908447265625,777.2527465820312
37,799.8168334960938,798.6080322265625,784.5054931640625,776.8497924804688
38,800.6226806640625,804.6520385742188,786.5201416015625,780.4761962890625
39,794.5787353515625,805.8607788085938,786.1171875,774.4322509765625
40,787.3259887695312,799.4139404296875,788.937744140625,772.0146484375
41,784.1025390625,802.2344360351562,786.923095703125,772.8204956054688
42,790.5494384765625,806.6666870117188,788.1318969726562,780.0732421875
43,787.7289428710938,803.040283203125,787.3259887695312,783.6996459960938
44,782.4908447265625,801.4285888671875,788.5347900390625,782.087890625
45,783.6996459960938,799.4139404296875,788.5347900390625,777.2527465820312
46,785.7142944335938,791.3552856445312,787.7289428710938,781.6849975585938
47,785.7142944335938,790.5494384765625,790.1465454101562,788.937744140625
48,784.908447265625,793.3699340820312,788.5347900390625,788.5347900390625
49,791.3552856445312,795.3846435546875,787.7289428710938,789.3406372070312
50,790.952392578125,792.5640869140625,793.7728881835938,789.7435913085938
51,790.5494384765625,788.937744140625,791.3552856445312,794.981689453125
52,795.3846435546875,789.3406372070312,786.1171875,797.8021850585938
53,798.6080322265625,790.952392578125,790.952392578125,798.6080322265625
54,796.996337890625,790.5494384765625,794.1758422851562,798.2051391601562
55,792.5640869140625,788.1318969726562,795.7875366210938,794.5787353515625
56,794.5787353515625,785.3113403320312,796.1904907226562,789.7435913085938
57,799.8168334960938,784.1025390625,797.3992919921875,791.7582397460938
58,805.4578857421875,786.1171875,797.8021850585938,799.4139404296875
59,803.8461303710938,783.6996459960938,797.3992919921875,791.3552856445312
60,806.6666870117188,787.7289428710938,797.3992919921875,790.952392578125
61,805.8607788085938,794.1758422851562,792.967041015625,797.3992919921875
62,800.2197875976562,788.1318969726562,788.937744140625,794.1758422851562
63,800.2197875976562,787.3259887695312,794.5787353515625,790.952392578125
64,795.3846435546875,787.7289428710938,801.4285888671875,792.967041015625
65,791.7582397460938,786.923095703125,802.6373901367188,793.3699340820312
66,796.996337890625,790.5494384765625,803.040283203125,794.5787353515625
67,799.8168334960938,790.952392578125,797.3992919921875,795.3846435546875
68,798.2051391601562,792.967041015625,795.7875366210938,794.1758422851562
69,799.4139404296875,792.5640869140625,799.010986328125,801.4285888671875
70,796.5933837890625,792.5640869140625,796.1904907226562,802.6373901367188
71,792.5640869140625,794.1758422851562,792.5640869140625,791.3552856445312
72,788.1318969726562,789.3406372070312,791.3552856445312,787.7289428710938
73,782.893798828125,788.937744140625,791.3552856445312,787.7289428710938
74,776.4468994140625,791.7582397460938,790.952392578125,790.1465454101562
75,774.029296875,786.1171875,792.967041015625,786.5201416015625
76,780.879150390625,786.5201416015625,792.967041015625,780.879150390625
77,782.893798828125,790.5494384765625,790.5494384765625,783.2966918945312
78,787.7289428710938,791.7582397460938,794.1758422851562,787.3259887695312
79,786.5201416015625,793.7728881835938,793.7728881835938,780.0732421875
80,776.4468994140625,794.5787353515625,788.5347900390625,770.8058471679688
81,780.4761962890625,796.5933837890625,793.7728881835938,782.4908447265625
82,781.2820434570312,792.1611938476562,794.5787353515625,780.0732421875
83,783.2966918945312,789.7435913085938,790.952392578125,771.2088012695312
84,791.7582397460938,795.3846435546875,792.5640869140625,773.2234497070312
85,789.3406372070312,796.1904907226562,795.3846435546875,777.6557006835938
86,789.3406372070312,797.8021850585938,796.996337890625,786.5201416015625
87,795.3846435546875,796.1904907226562,796.5933837890625,787.3259887695312
88,798.6080322265625,793.3699340820312,796.1904907226562,790.952392578125
89,796.996337890625,797.3992919921875,796.1904907226562,798.2051391601562
90,793.3699340820312,794.1758422851562,797.3992919921875,796.5933837890625
91,792.967041015625,791.7582397460938,796.996337890625,793.3699340820312
92,793.3699340820312,794.5787353515625,795.7875366210938,796.5933837890625
93,796.5933837890625,795.3846435546875,791.3552856445312,797.3992919921875
94,799.4139404296875,799.4139404296875,790.5494384765625,793.3699340820312
95,798.6080322265625,797.3992919921875,794.981689453125,790.952392578125
96,800.6226806640625,795.7875366210938,794.981689453125,789.3406372070312
97,799.8168334960938,799.010986328125,796.996337890625,780.4761962890625
98,800.6226806640625,799.4139404296875,798.2051391601562,780.4761962890625
99,799.8168334960938,799.4139404296875,796.5933837890625,784.5054931640625
100,793.3699340820312,798.6080322265625,796.996337890625,784.5054931640625
101,786.923095703125,797.3992919921875,795.3846435546875,778.8644409179688
102,790.1465454101562,793.3699340820312,787.3259887695312,776.8497924804688
103,796.5933837890625,795.3846435546875,784.908447265625,786.1171875
104,794.5787353515625,799.4139404296875,782.087890625,786.923095703125
105,787.7289428710938,800.2197875976562,776.4468994140625,776.4468994140625
106,792.1611938476562,800.6226806640625,776.0439453125,775.2380981445312
107,798.6080322265625,799.010986328125,774.8351440429688,782.087890625
108,795.3846435546875,796.1904907226562,779.2673950195312,780.879150390625
109,786.923095703125,794.5787353515625,788.1318969726562,774.4322509765625
110,778.8644409179688,793.7728881835938,783.6996459960938,766.3735961914062
111,784.908447265625,793.3699340820312,782.893798828125,775.2380981445312
112,789.3406372070312,794.981689453125,787.7289428710938,778.8644409179688
113,789.3406372070312,798.6080322265625,788.937744140625,774.029296875
114,789.3406372070312,797.8021850585938,790.1465454101562,772.4176025390625
115,786.5201416015625,796.996337890625,788.1318969726562,770.8058471679688
116,784.5054931640625,796.996337890625,789.7435913085938,770.0
117,786.923095703125,794.981689453125,795.3846435546875,773.6264038085938
118,795.7875366210938,793.3699340820312,801.8314819335938,785.3113403320312
119,796.1904907226562,792.967041015625,804.2490844726562,785.7142944335938
120,789.3406372070312,792.1611938476562,802.2344360351562,782.893798828125
121,786.5201416015625,788.1318969726562,801.4285888671875,782.4908447265625
122,784.1025390625,781.6849975585938,797.8021850585938,784.5054931640625
123,787.7289428710938,782.893798828125,796.5933837890625,787.3259887695312
124,790.1465454101562,788.1318969726562,795.3846435546875,784.5054931640625
125,788.1318969726562,788.1318969726562,794.981689453125,784.5054931640625
126,787.3259887695312,786.5201416015625,799.8168334960938,794.981689453125
127,784.908447265625,784.5054931640625,801.8314819335938,796.1904907226562
128,787.3259887695312,789.3406372070312,805.8607788085938,790.952392578125
129,788.1318969726562,786.5201416015625,806.6666870117188,790.952392578125
130,791.7582397460938,788.5347900390625,803.8461303710938,792.1611938476562
131,786.5201416015625,790.1465454101562,801.025634765625,786.5201416015625
132,780.4761962890625,793.7728881835938,801.4285888671875,782.087890625
133,787.7289428710938,796.1904907226562,800.2197875976562,786.1171875
134,789.3406372070312,790.1465454101562,794.981689453125,787.3259887695312
135,787.7289428710938,794.5787353515625,794.5787353515625,788.1318969726562
136,790.5494384765625,796.996337890625,796.1904907226562,791.7582397460938
137,790.1465454101562,797.8021850585938,791.7582397460938,787.7289428710938
138,786.5201416015625,795.3846435546875,787.7289428710938,787.7289428710938
139,789.7435913085938,794.5787353515625,788.1318969726562,790.1465454101562
140,794.981689453125,794.5787353515625,788.937744140625,787.7289428710938
141,794.981689453125,794.5787353515625,787.7289428710938,784.5054931640625
142,798.2051391601562,799.8168334960938,784.1025390625,796.5933837890625
143,802.6373901367188,801.8314819335938,783.2966918945312,801.025634765625
144,802.6373901367188,798.6080322265625,787.7289428710938,793.7728881835938
145,802.2344360351562,797.3992919921875,791.7582397460938,801.4285888671875
146,794.981689453125,792.1611938476562,794.1758422851562,799.010986328125
147,790.5494384765625,787.7289428710938,792.5640869140625,791.3552856445312
148,795.3846435546875,792.967041015625,790.952392578125,795.7875366210938
149,799.4139404296875,796.5933837890625,793.3699340820312,794.1758422851562
150,794.981689453125,798.6080322265625,793.3699340820312,794.981689453125
151,789.7435913085938,796.996337890625,791.7582397460938,797.3992919921875
152,786.923095703125,794.981689453125,792.5640869140625,794.5787353515625
153,785.7142944335938,790.5494384765625,795.7875366210938,791.3552856445312
154,792.967041015625,791.3552856445312,797.8021850585938,795.7875366210938
155,793.3699340820312,791.7582397460938,798.2051391601562,795.7875366210938
156,786.5201416015625,784.5054931640625,800.2197875976562,788.5347900390625
157,787.7289428710938,790.5494384765625,804.2490844726562,790.5494384765625
158,794.1758422851562,795.7875366210938,804.6520385742188,794.5787353515625
159,792.967041015625,788.5347900390625,797.8021850585938,786.1171875
160,789.3406372070312,784.5054931640625,797.3992919921875,782.4908447265625
161,794.5787353515625,786.5201416015625,800.2197875976562,790.5494384765625
162,791.7582397460938,789.3406372070312,796.996337890625,792.5640869140625
163,786.923095703125,790.952392578125,792.967041015625,785.7142944335938
164,794.1758422851562,789.3406372070312,791.3552856445312,782.4908447265625
165,799.010986328125,790.5494384765625,792.1611938476562,790.5494384765625
166,797.3992919921875,792.1611938476562,792.5640869140625,793.3699340820312
167,793.3699340820312,789.7435913085938,793.3699340820312,789.7435913085938
168,788.1318969726562,795.7875366210938,793.7728881835938,791.3552856445312
169,788.1318969726562,794.5787353515625,794.981689453125,793.3699340820312
170,796.5933837890625,788.5347900390625,798.6080322265625,794.981689453125
171,794.981689453125,790.1465454101562,800.2197875976562,791.3552856445312
172,782.4908447265625,786.1171875,798.6080322265625,789.7435913085938
173,781.2820434570312,785.7142944335938,796.5933837890625,788.937744140625
174,789.3406372070312,789.7435913085938,799.8168334960938,790.1465454101562
175,793.7728881835938,786.1171875,800.6226806640625,789.7435913085938
176,792.967041015625,781.6849975585938,797.8021850585938,789.7435913085938
177,793.7728881835938,781.2820434570312,797.3992919921875,793.7728881835938
178,789.7435913085938,786.1171875,798.6080322265625,788.1318969726562
179,789.3406372070312,784.5054931640625,800.6226806640625,786.1171875
180,794.5787353515625,787.7289428710938,803.4432373046875,790.5494384765625
181,789.7435913085938,789.7435913085938,801.025634765625,790.1465454101562
182,788.5347900390625,786.1171875,799.010986328125,788.5347900390625
183,789.7435913085938,792.967041015625,801.4285888671875,784.1025390625
184,791.3552856445312,792.967041015625,800.6226806640625,786.1171875
185,789.3406372070312,787.3259887695312,801.4285888671875,787.3259887695312
186,779.2673950195312,784.5054931640625,799.4139404296875,783.6996459960938
187,776.4468994140625,783.2966918945312,792.5640869140625,780.879150390625
188,777.2527465820312,785.3113403320312,796.1904907226562,780.0732421875
189,780.0732421875,788.5347900390625,804.2490844726562,787.3259887695312
190,788.5347900390625,787.3259887695312,800.6226806640625,789.3406372070312
191,791.7582397460938,788.1318969726562,799.4139404296875,783.6996459960938
192,792.5640869140625,786.5201416015625,800.6226806640625,782.087890625
193,792.5640869140625,784.908447265625,796.996337890625,778.8644409179688
194,792.5640869140625,782.087890625,793.7728881835938,777.6557006835938
195,799.4139404296875,777.2527465820312,793.3699340820312,784.5054931640625
196,799.010986328125,781.6849975585938,793.7728881835938,787.7289428710938
197,790.1465454101562,785.3113403320312,791.3552856445312,785.7142944335938
198,786.5201416015625,785.7142944335938,792.1611938476562,782.893798828125
199,788.937744140625,785.7142944335938,792.5640869140625,784.1025390625
200,792.967041015625,787.3259887695312,795.7875366210938,790.952392578125
201,795.3846435546875,791.3552856445312,799.010986328125,788.937744140625
202,786.923095703125,788.937744140625,794.981689453125,782.4908447265625
203,780.879150390625,786.5201416015625,794.5787353515625,782.4908447265625
204,784.908447265625,787.7289428710938,793.3699340820312,782.893798828125
205,782.893798828125,782.087890625,793.7728881835938,780.879150390625
206,778.8644409179688,780.4761962890625,792.967041015625,782.893798828125
207,776.8497924804688,785.3113403320312,791.7582397460938,783.2966918945312
208,778.8644409179688,787.7289428710938,792.967041015625,779.6703491210938
209,781.6849975585938,787.7289428710938,792.967041015625,778.4615478515625
210,784.5054931640625,790.5494384765625,789.3406372070312,778.8644409179688
211,786.1171875,790.952392578125,792.1611938476562,786.5201416015625
212,786.1171875,786.5201416015625,799.010986328125,791.3552856445312
213,785.7142944335938,781.2820434570312,797.3992919921875,780.4761962890625
214,782.087890625,778.8644409179688,796.5933837890625,778.05859375
215,782.4908447265625,780.0732421875,793.7728881835938,780.879150390625
216,786.1171875,780.879150390625,789.3406372070312,782.893798828125
217,786.1171875,780.879150390625,793.3699340820312,784.908447265625
218,786.5201416015625,787.3259887695312,794.981689453125,779.2673950195312
219,787.3259887695312,794.981689453125,793.7728881835938,776.0439453125
220,788.5347900390625,794.1758422851562,792.5640869140625,776.8497924804688
221,791.3552856445312,793.7728881835938,789.7435913085938,782.087890625
222,795.7875366210938,797.3992919921875,792.1611938476562,788.1318969726562
223,794.1758422851562,794.981689453125,795.7875366210938,789.7435913085938
224,789.7435913085938,792.5640869140625,791.7582397460938,783.6996459960938
225,790.1465454101562,793.3699340820312,790.5494384765625,782.893798828125
226,800.6226806640625,795.3846435546875,796.5933837890625,793.3699340820312
227,802.2344360351562,795.7875366210938,799.010986328125,791.7582397460938
228,795.7875366210938,793.3699340820312,803.040283203125,781.2820434570312
229,796.5933837890625,791.3552856445312,805.8607788085938,781.2820434570312
230,797.8021850585938,792.5640869140625,801.4285888671875,789.3406372070312
231,799.8168334960938,793.3699340820312,801.8314819335938,795.7875366210938
232,800.2197875976562,792.5640869140625,804.6520385742188,791.7582397460938
233,796.1904907226562,791.7582397460938,804.2490844726562,788.5347900390625
234,789.7435913085938,790.1465454101562,802.2344360351562,791.7582397460938
235,790.952392578125,790.1465454101562,802.2344360351562,791.3552856445312
236,792.967041015625,790.5494384765625,803.040283203125,793.3699340820312
237,786.923095703125,789.7435913085938,801.8314819335938,794.981689453125
238,788.1318969726562,792.967041015625,802.2344360351562,799.4139404296875
239,786.5201416015625,795.3846435546875,803.040283203125,795.7875366210938
240,782.087890625,790.952392578125,796.996337890625,782.893798828125
241,779.6703491210938,787.3259887695312,790.1465454101562,778.4615478515625
242,777.6557006835938,785.7142944335938,792.5640869140625,780.879150390625
243,776.0439453125,782.893798828125,793.3699340820312,781.2820434570312
244,770.8058471679688,784.1025390625,795.7875366210938,776.8497924804688
245,772.4176025390625,783.2966918945312,793.7728881835938,780.879150390625
246,774.029296875,781.2820434570312,791.3552856445312,784.1025390625
247,773.2234497070312,787.3259887695312,790.5494384765625,784.908447265625
248,774.4322509765625,790.952392578125,792.967041015625,784.1025390625
249,773.6264038085938,790.1465454101562,792.5640869140625,781.6849975585938
250,775.2380981445312,791.3552856445312,789.7435913085938,783.6996459960938
251,779.6703491210938,793.3699340820312,795.7875366210938,782.893798828125
252,783.2966918945312,797.3992919921875,796.996337890625,777.2527465820312
253,778.8644409179688,797.8021850585938,795.3846435546875,774.029296875
254,778.8644409179688,795.3846435546875,792.1611938476562,776.8497924804688
255,779.2673950195312,797.3992919921875,790.5494384765625,777.6557006835938
256,778.8644409179688,793.7728881835938,791.7582397460938,775.2380981445312
257,786.1171875,793.3699340820312,793.7728881835938,778.8644409179688
258,785.7142944335938,796.996337890625,795.3846435546875,784.1025390625
259,789.3406372070312,801.025634765625,796.996337890625,787.7289428710938
260,794.5787353515625,805.4578857421875,798.2051391601562,790.5494384765625
261,796.996337890625,805.054931640625,799.8168334960938,794.5787353515625
262,797.8021850585938,801.025634765625,796.5933837890625,789.3406372070312
263,796.996337890625,798.6080322265625,791.7582397460938,784.5054931640625
264,796.5933837890625,798.6080322265625,794.981689453125,784.908447265625
265,791.7582397460938,797.8021850585938,798.6080322265625,786.5201416015625
266,792.5640869140625,798.6080322265625,797.3992919921875,792.967041015625
267,801.025634765625,800.2197875976562,800.6226806640625,797.8021850585938
268,801.4285888671875,798.2051391601562,799.4139404296875,797.3992919921875
269,792.967041015625,794.5787353515625,794.981689453125,793.7728881835938
270,795.7875366210938,793.3699340820312,796.1904907226562,792.1611938476562
271,802.6373901367188,794.1758422851562,795.3846435546875,795.3846435546875
272,809.084228515625,798.2051391601562,792.967041015625,800.6226806640625
273,805.4578857421875,796.1904907226562,788.937744140625,792.967041015625
274,794.1758422851562,791.7582397460938,788.1318969726562,781.6849975585938
275,792.5640869140625,792.967041015625,791.3552856445312,780.879150390625
276,789.7435913085938,788.937744140625,787.7289428710938,779.6703491210938
277,788.5347900390625,787.7289428710938,786.1171875,775.2380981445312
278,789.3406372070312,790.1465454101562,787.3259887695312,776.4468994140625
279,786.5201416015625,788.937744140625,786.5201416015625,780.0732421875
280,783.2966918945312,786.923095703125,786.5201416015625,782.893798828125
281,782.4908447265625,784.1025390625,787.7289428710938,782.087890625
282,782.4908447265625,778.8644409179688,790.1465454101562,777.6557006835938
283,778.4615478515625,780.0732421875,783.2966918945312,772.4176025390625
284,771.6116943359375,780.0732421875,779.6703491210938,773.2234497070312
285,770.0,782.4908447265625,784.5054931640625,776.4468994140625
286,775.6410522460938,789.3406372070312,787.3259887695312,780.4761962890625
287,782.087890625,788.1318969726562,788.5347900390625,784.1025390625
288,782.893798828125,785.3113403320312,790.952392578125,782.087890625
289,785.3113403320312,787.7289428710938,789.3406372070312,784.5054931640625
290,792.1611938476562,791.3552856445312,788.1318969726562,786.5201416015625
291,800.6226806640625,793.3699340820312,794.5787353515625,788.5347900390625
292,807.069580078125,795.7875366210938,798.2051391601562,792.1611938476562
293,801.025634765625,792.1611938476562,792.967041015625,786.5201416015625
294,794.981689453125,784.5054931640625,790.952392578125,782.4908447265625
295,787.7289428710938,784.5054931640625,790.952392578125,778.8644409179688
296,786.923095703125,788.5347900390625,787.3259887695312,776.0439453125
297,791.3552856445312,787.3259887695312,786.923095703125,782.4908447265625
298,787.7289428710938,785.7142944335938,788.5347900390625,784.5054931640625
299,782.4908447265625,788.937744140625,787.7289428710938,780.879150390625
300,781.6849975585938,788.1318969726562,789.3406372070312,782.893798828125
301,785.7142944335938,786.923095703125,790.5494384765625,788.1318969726562
302,796.996337890625,781.2820434570312,789.3406372070312,801.8314819335938
303,799.010986328125,776.0439453125,790.1465454101562,804.6520385742188
304,787.3259887695312,784.1025390625,787.7289428710938,795.3846435546875
305,770.8058471679688,792.967041015625,783.2966918945312,774.4322509765625
306,767.1795043945312,791.7582397460938,783.6996459960938,766.7765502929688
307,772.0146484375,792.1611938476562,789.3406372070312,780.0732421875
308,772.8204956054688,789.7435913085938,787.7289428710938,778.4615478515625
309,775.2380981445312,790.1465454101562,786.1171875,772.4176025390625
310,779.2673950195312,790.5494384765625,788.937744140625,774.8351440429688
311,781.2820434570312,786.923095703125,790.1465454101562,778.8644409179688
312,786.923095703125,785.3113403320312,788.1318969726562,782.087890625
313,790.1465454101562,783.6996459960938,786.923095703125,780.0732421875
314,793.7728881835938,788.937744140625,787.3259887695312,782.4908447265625
315,793.3699340820312,792.1611938476562,790.5494384765625,785.3113403320312
316,799.010986328125,790.1465454101562,792.967041015625,783.2966918945312
317,805.054931640625,792.1611938476562,792.1611938476562,788.937744140625
318,799.8168334960938,794.5787353515625,793.3699340820312,794.5787353515625
319,800.2197875976562,792.967041015625,793.3699340820312,786.923095703125
320,796.1904907226562,789.3406372070312,792.967041015625,776.4468994140625
321,790.952392578125,786.1171875,794.5787353515625,777.6557006835938
322,792.967041015625,791.3552856445312,794.1758422851562,778.4615478515625
323,794.1758422851562,795.7875366210938,797.8021850585938,785.7142944335938
324,793.3699340820312,793.7728881835938,801.025634765625,786.923095703125
325,789.7435913085938,792.1611938476562,798.6080322265625,785.3113403320312
326,788.937744140625,793.3699340820312,799.4139404296875,793.3699340820312
327,791.7582397460938,794.1758422851562,800.6226806640625,794.5787353515625
328,791.3552856445312,790.5494384765625,797.3992919921875,786.5201416015625
329,786.923095703125,786.5201416015625,795.7875366210938,786.923095703125
330,780.4761962890625,786.1171875,798.6080322265625,792.5640869140625
331,775.6410522460938,784.908447265625,794.1758422851562,789.7435913085938
332,779.6703491210938,784.5054931640625,795.3846435546875,787.7289428710938
333,786.5201416015625,788.937744140625,797.8021850585938,796.5933837890625
334,783.2966918945312,787.7289428710938,794.981689453125,794.5787353515625
335,780.879150390625,782.893798828125,794.1758422851562,788.5347900390625
336,781.6849975585938,784.908447265625,798.2051391601562,787.7289428710938
337,779.2673950195312,788.1318969726562,797.8021850585938,780.0732421875
338,784.5054931640625,788.1318969726562,794.981689453125,780.0732421875
339,796.996337890625,788.937744140625,796.5933837890625,782.893798828125
340,794.1758422851562,795.7875366210938,798.2051391601562,784.5054931640625
341,789.7435913085938,797.8021850585938,799.4139404296875,788.5347900390625
342,796.1904907226562,788.5347900390625,797.8021850585938,786.5201416015625
343,793.3699340820312,785.3113403320312,794.1758422851562,785.7142944335938
344,792.5640869140625,788.1318969726562,796.996337890625,788.937744140625
345,794.5787353515625,791.7582397460938,800.2197875976562,796.1904907226562
346,791.3552856445312,794.981689453125,792.967041015625,795.7875366210938
347,793.7728881835938,795.3846435546875,794.981689453125,789.7435913085938
348,798.2051391601562,794.5787353515625,797.3992919921875,790.5494384765625
349,794.981689453125,792.967041015625,792.1611938476562,790.1465454101562
350,789.7435913085938,794.1758422851562,791.3552856445312,788.1318969726562
351,790.1465454101562,796.5933837890625,792.1611938476562,788.5347900390625
352,794.981689453125,796.5933837890625,795.7875366210938,786.923095703125
353,793.3699340820312,799.010986328125,797.8021850585938,792.5640869140625
354,795.7875366210938,803.8461303710938,799.4139404296875,799.010986328125
355,800.2197875976562,798.6080322265625,797.3992919921875,792.967041015625
356,796.996337890625,794.1758422851562,796.5933837890625,787.3259887695312
357,794.1758422851562,794.981689453125,797.3992919921875,789.3406372070312
358,790.1465454101562,795.3846435546875,794.5787353515625,787.3259887695312
359,788.937744140625,798.2051391601562,792.967041015625,784.5054931640625
360,791.7582397460938,797.3992919921875,796.996337890625,786.923095703125
361,793.3699340820312,793.3699340820312,799.010986328125,788.937744140625
362,794.981689453125,792.967041015625,798.6080322265625,791.7582397460938
363,796.5933837890625,792.1611938476562,801.4285888671875,788.937744140625
364,799.4139404296875,796.1904907226562,803.4432373046875,786.5201416015625
365,793.3699340820312,797.3992919921875,802.2344360351562,784.908447265625
366,794.981689453125,796.5933837890625,798.2051391601562,784.908447265625
367,799.4139404296875,795.7875366210938,799.010986328125,786.5201416015625
368,803.4432373046875,792.1611938476562,795.3846435546875,791.3552856445312
369,807.87548828125,792.1611938476562,794.1758422851562,799.8168334960938
370,800.2197875976562,794.1758422851562,796.5933837890625,795.7875366210938
371,798.6080322265625,793.3699340820312,796.996337890625,794.5787353515625
372,800.2197875976562,792.1611938476562,795.3846435546875,798.6080322265625
373,793.3699340820312,786.923095703125,793.7728881835938,791.3552856445312
374,794.1758422851562,785.7142944335938,791.7582397460938,792.1611938476562
375,795.3846435546875,789.7435913085938,792.5640869140625,794.981689453125
376,789.7435913085938,789.3406372070312,791.7582397460938,792.1611938476562
377,787.3259887695312,787.7289428710938,788.1318969726562,791.3552856445312
378,791.7582397460938,788.937744140625,787.3259887695312,783.2966918945312
379,795.7875366210938,792.967041015625,784.1025390625,778.4615478515625
380,792.5640869140625,796.5933837890625,781.6849975585938,784.1025390625
381,785.7142944335938,794.1758422851562,785.7142944335938,787.3259887695312
382,782.4908447265625,792.1611938476562,786.1171875,777.2527465820312
383,790.1465454101562,791.7582397460938,787.3259887695312,778.05859375
384,790.952392578125,791.3552856445312,788.937744140625,781.2820434570312
385,789.3406372070312,790.952392578125,790.1465454101562,780.4761962890625
386,792.1611938476562,782.893798828125,791.3552856445312,779.6703491210938
387,791.3552856445312,786.1171875,790.1465454101562,782.4908447265625
388,788.937744140625,790.952392578125,788.937744140625,785.7142944335938
389,795.3846435546875,788.5347900390625,782.4908447265625,791.3552856445312
390,801.4285888671875,789.3406372070312,782.087890625,799.010986328125
391,797.8021850585938,794.5787353515625,787.7289428710938,795.7875366210938
392,799.4139404296875,795.3846435546875,790.952392578125,791.7582397460938
393,800.6226806640625,795.7875366210938,786.923095703125,788.5347900390625
394,798.6080322265625,795.3846435546875,787.7289428710938,786.5201416015625
395,805.054931640625,792.5640869140625,792.1611938476562,788.1318969726562
396,803.4432373046875,790.5494384765625,790.5494384765625,787.3259887695312
397,791.3552856445312,787.3259887695312,788.1318969726562,788.5347900390625
398,783.6996459960938,788.937744140625,791.3552856445312,790.952392578125
399,785.7142944335938,790.5494384765625,793.3699340820312,786.923095703125
400,784.908447265625,786.1171875,790.5494384765625,783.2966918945312
401,781.6849975585938,790.1465454101562,786.923095703125,784.908447265625
402,788.937744140625,792.1611938476562,787.3259887695312,786.923095703125
403,786.5201416015625,784.1025390625,791.7582397460938,786.1171875
404,784.908447265625,784.908447265625,792.5640869140625,786.1171875
405,793.7728881835938,794.5787353515625,794.1758422851562,784.908447265625
406,791.3552856445312,792.5640869140625,792.5640869140625,784.908447265625
407,785.7142944335938,787.7289428710938,790.5494384765625,788.1318969726562
408,789.3406372070312,788.937744140625,792.5640869140625,797.8021850585938
409,797.3992919921875,790.1465454101562,795.3846435546875,803.4432373046875
410,799.8168334960938,792.5640869140625,796.5933837890625,804.6520385742188
411,800.6226806640625,794.5787353515625,797.3992919921875,807.069580078125
412,803.040283203125,792.967041015625,799.010986328125,806.6666870117188
413,804.2490844726562,793.3699340820312,794.5787353515625,799.8168334960938
414,805.4578857421875,790.952392578125,791.3552856445312,796.5933837890625
415,803.040283203125,788.5347900390625,791.3552856445312,796.996337890625
416,796.996337890625,792.5640869140625,789.7435913085938,792.1611938476562
417,792.5640869140625,791.7582397460938,787.3259887695312,781.6849975585938
418,792.5640869140625,792.967041015625,788.5347900390625,782.4908447265625
419,790.952392578125,792.1611938476562,792.1611938476562,789.7435913085938
420,790.5494384765625,787.3259887695312,794.1758422851562,788.5347900390625
421,792.967041015625,792.5640869140625,796.1904907226562,788.5347900390625
422,788.5347900390625,794.981689453125,796.996337890625,790.5494384765625
423,783.6996459960938,800.6226806640625,793.3699340820312,784.908447265625
424,785.3113403320312,799.8168334960938,788.1318969726562,779.2673950195312
425,787.7289428710938,792.5640869140625,785.7142944335938,780.4761962890625
426,788.937744140625,795.3846435546875,788.1318969726562,782.087890625
427,780.4761962890625,793.7728881835938,787.7289428710938,775.6410522460938
428,775.6410522460938,793.7728881835938,787.3259887695312,772.0146484375
429,778.05859375,793.7728881835938,787.7289428710938,772.0146484375
430,782.893798828125,788.1318969726562,784.908447265625,780.4761962890625
431,785.7142944335938,789.3406372070312,788.5347900390625,778.4615478515625
432,780.879150390625,788.5347900390625,788.937744140625,771.2088012695312
433,783.2966918945312,788.1318969726562,788.937744140625,775.2380981445312
434,787.3259887695312,789.3406372070312,792.1611938476562,783.2966918945312
435,792.1611938476562,792.1611938476562,794.1758422851562,792.1611938476562
436,798.6080322265625,792.967041015625,797.3992919921875,798.6080322265625
437,793.7728881835938,790.952392578125,794.5787353515625,796.996337890625
438,794.5787353515625,791.3552856445312,794.981689453125,800.2197875976562
439,799.010986328125,787.7289428710938,800.2197875976562,803.4432373046875
440,801.025634765625,788.5347900390625,800.6226806640625,801.025634765625
441,803.040283203125,792.967041015625,801.8314819335938,798.2051391601562
442,798.6080322265625,792.5640869140625,803.040283203125,800.2197875976562
443,796.5933837890625,796.1904907226562,800.6226806640625,792.5640869140625
444,799.8168334960938,799.010986328125,798.6080322265625,787.7289428710938
445,799.010986328125,794.5787353515625,794.5787353515625,782.4908447265625
446,792.967041015625,791.3552856445312,790.5494384765625,776.0439453125
447,788.937744140625,786.923095703125,789.3406372070312,778.8644409179688
448,783.6996459960938,788.1318969726562,788.937744140625,778.05859375
449,780.879150390625,790.1465454101562,792.5640869140625,775.2380981445312
450,784.1025390625,790.1465454101562,793.7728881835938,776.8497924804688
451,792.5640869140625,792.5640869140625,793.7728881835938,776.4468994140625
452,796.1904907226562,792.1611938476562,789.7435913085938,774.8351440429688
453,791.7582397460938,788.937744140625,787.7289428710938,782.087890625
454,786.1171875,786.923095703125,790.952392578125,786.1171875
455,784.908447265625,786.5201416015625,792.967041015625,780.4761962890625
456,789.7435913085938,784.5054931640625,792.5640869140625,783.2966918945312
457,787.7289428710938,783.2966918945312,790.1465454101562,780.879150390625
458,785.7142944335938,788.1318969726562,790.5494384765625,785.3113403320312
459,792.5640869140625,790.952392578125,795.3846435546875,797.3992919921875
460,799.8168334960938,792.1611938476562,796.996337890625,797.8021850585938
461,799.4139404296875,793.7728881835938,795.3846435546875,791.3552856445312
462,803.4432373046875,792.5640869140625,799.8168334960938,793.7728881835938
463,801.8314819335938,795.3846435546875,798.6080322265625,792.1611938476562
464,797.3992919921875,799.010986328125,797.3992919921875,794.981689453125
465,802.6373901367188,796.996337890625,797.8021850585938,806.6666870117188
466,805.8607788085938,793.7728881835938,794.1758422851562,799.010986328125
467,801.4285888671875,792.1611938476562,792.967041015625,789.3406372070312
468,798.6080322265625,794.1758422851562,798.6080322265625,790.952392578125
469,798.2051391601562,798.2051391601562,801.8314819335938,790.5494384765625
470,795.3846435546875,796.1904907226562,795.3846435546875,786.1171875
471,802.6373901367188,792.967041015625,800.2197875976562,792.967041015625
472,810.2930297851562,793.3699340820312,805.4578857421875,799.8168334960938
473,804.2490844726562,793.7728881835938,803.040283203125,793.3699340820312
474,798.2051391601562,792.5640869140625,802.2344360351562,792.5640869140625
475,796.1904907226562,791.3552856445312,798.6080322265625,788.937744140625
476,798.6080322265625,788.1318969726562,799.8168334960938,786.923095703125
477,799.8168334960938,789.3406372070312,801.8314819335938,788.937744140625
478,792.967041015625,789.7435913085938,805.4578857421875,785.7142944335938
479,787.7289428710938,786.923095703125,805.4578857421875,785.3113403320312
480,788.937744140625,786.923095703125,803.4432373046875,794.981689453125
481,789.7435913085938,792.1611938476562,803.4432373046875,795.7875366210938
482,789.7435913085938,794.981689453125,805.4578857421875,791.7582397460938
483,790.5494384765625,795.3846435546875,807.4725341796875,792.967041015625
484,791.7582397460938,795.7875366210938,801.8314819335938,790.952392578125
485,786.923095703125,790.952392578125,796.996337890625,789.3406372070312
486,779.2673950195312,788.5347900390625,794.981689453125,784.5054931640625
487,782.4908447265625,786.1171875,792.5640869140625,785.3113403320312
488,787.7289428710938,782.087890625,792.967041015625,793.3699340820312
489,787.3259887695312,785.7142944335938,796.1904907226562,790.1465454101562
490,788.1318969726562,787.3259887695312,800.2197875976562,788.1318969726562
491,791.7582397460938,786.5201416015625,799.010986328125,785.7142944335938
492,792.5640869140625,786.1171875,799.8168334960938,783.6996459960938
493,789.7435913085938,791.7582397460938,801.8314819335938,786.923095703125
494,792.967041015625,793.7728881835938,801.8314819335938,791.3552856445312
495,797.8021850585938,792.5640869140625,798.2051391601562,792.5640869140625
496,800.6226806640625,794.1758422851562,797.8021850585938,799.4139404296875
497,807.87548828125,793.7728881835938,800.6226806640625,799.4139404296875
498,807.4725341796875,793.3699340820312,800.2197875976562,797.3992919921875
499,802.2344360351562,796.5933837890625,804.6520385742188,804.2490844726562
500,800.2197875976562,796.1904907226562,805.4578857421875,799.010986328125
501,802.2344360351562,791.3552856445312,801.4285888671875,792.1611938476562
502,807.4725341796875,791.7582397460938,799.4139404296875,798.2051391601562
503,799.010986328125,791.7582397460938,793.3699340820312,796.1904907226562
504,789.3406372070312,789.3406372070312,792.967041015625,789.7435913085938
505,788.1318969726562,787.3259887695312,796.5933837890625,790.5494384765625
506,787.7289428710938,787.7289428710938,795.7875366210938,791.3552856445312
507,790.952392578125,788.937744140625,793.3699340820312,788.937744140625
508,799.8168334960938,789.7435913085938,797.3992919921875,792.5640869140625
509,801.4285888671875,788.5347900390625,797.8021850585938,803.040283203125
510,796.996337890625,788.937744140625,795.7875366210938,801.8314819335938
511,791.3552856445312,789.7435913085938,801.025634765625,791.3552856445312
512,786.923095703125,785.3113403320312,795.3846435546875,785.7142944335938
513,797.8021850585938,783.2966918945312,792.967041015625,791.7582397460938
514,798.2051391601562,785.3113403320312,795.7875366210938,795.3846435546875
515,798.2051391601562,786.1171875,795.7875366210938,796.996337890625
516,795.3846435546875,788.937744140625,792.1611938476562,787.7289428710938
517,793.7728881835938,788.937744140625,787.3259887695312,784.5054931640625
518,801.025634765625,788.937744140625,789.3406372070312,790.952392578125
519,801.025634765625,785.3113403320312,790.952392578125,784.1025390625
520,801.025634765625,782.893798828125,792.5640869140625,781.2820434570312
521,801.8314819335938,787.3259887695312,796.5933837890625,791.3552856445312
522,805.8607788085938,790.952392578125,797.8021850585938,801.4285888671875
523,800.2197875976562,789.7435913085938,796.996337890625,797.8021850585938
524,791.7582397460938,786.5201416015625,794.981689453125,788.5347900390625
525,787.7289428710938,782.4908447265625,790.5494384765625,787.7289428710938
526,786.923095703125,782.087890625,792.5640869140625,797.3992919921875
527,792.967041015625,788.937744140625,798.6080322265625,799.4139404296875
528,794.1758422851562,790.5494384765625,796.1904907226562,796.5933837890625
529,795.3846435546875,790.5494384765625,799.8168334960938,799.8168334960938
530,792.5640869140625,794.981689453125,801.8314819335938,790.952392578125
531,792.1611938476562,797.8021850585938,797.8021850585938,785.3113403320312
532,798.2051391601562,797.3992919921875,796.1904907226562,791.3552856445312
533,796.1904907226562,794.1758422851562,795.7875366210938,790.952392578125
534,795.3846435546875,794.5787353515625,794.1758422851562,788.937744140625
535,796.1904907226562,796.5933837890625,795.3846435546875,790.5494384765625
536,799.4139404296875,795.7875366210938,799.010986328125,792.967041015625
537,801.025634765625,791.7582397460938,800.6226806640625,794.5787353515625
538,800.2197875976562,795.7875366210938,797.8021850585938,801.025634765625
539,802.2344360351562,796.5933837890625,797.3992919921875,795.7875366210938
540,801.8314819335938,792.5640869140625,803.8461303710938,788.1318969726562
541,799.4139404296875,799.8168334960938,808.6813354492188,790.1465454101562
542,800.6226806640625,800.2197875976562,807.4725341796875,797.3992919921875
543,805.8607788085938,797.8021850585938,806.2637329101562,802.2344360351562
544,807.069580078125,795.7875366210938,803.4432373046875,801.8314819335938
545,803.4432373046875,799.8168334960938,803.8461303710938,801.4285888671875
546,804.6520385742188,803.040283203125,809.4871826171875,801.025634765625
547,806.2637329101562,801.8314819335938,808.2783813476562,803.040283203125
548,801.8314819335938,797.8021850585938,801.8314819335938,803.4432373046875
549,798.2051391601562,796.1904907226562,795.7875366210938,800.6226806640625
550,796.1904907226562,797.8021850585938,791.3552856445312,795.7875366210938
551,795.3846435546875,794.981689453125,793.3699340820312,793.7728881835938
552,796.5933837890625,795.7875366210938,800.2197875976562,796.1904907226562
553,794.5787353515625,796.1904907226562,802.2344360351562,795.3846435546875
554,791.7582397460938,788.937744140625,799.4139404296875,793.3699340820312
555,792.967041015625,783.6996459960938,794.5787353515625,784.5054931640625
556,789.3406372070312,784.5054931640625,791.7582397460938,776.4468994140625
557,788.5347900390625,788.5347900390625,791.7582397460938,775.6410522460938
558,798.6080322265625,792.1611938476562,793.3699340820312,782.4908447265625
559,796.996337890625,792.5640869140625,792.1611938476562,783.2966918945312
560,786.5201416015625,790.1465454101562,790.1465454101562,779.2673950195312
561,786.5201416015625,789.3406372070312,794.981689453125,786.923095703125
562,792.5640869140625,792.5640869140625,799.010986328125,780.879150390625
563,796.1904907226562,789.7435913085938,794.5787353515625,771.2088012695312
564,796.1904907226562,789.7435913085938,794.1758422851562,774.4322509765625
565,792.967041015625,793.7728881835938,796.996337890625,778.05859375
566,790.952392578125,792.1611938476562,795.7875366210938,782.4908447265625
567,786.1171875,794.1758422851562,795.7875366210938,782.4908447265625
568,786.1171875,794.5787353515625,794.5787353515625,784.908447265625
569,788.937744140625,789.7435913085938,796.1904907226562,788.937744140625
570,789.7435913085938,790.952392578125,801.025634765625,790.1465454101562
571,789.3406372070312,792.1611938476562,802.2344360351562,788.1318969726562
572,787.3259887695312,792.1611938476562,801.4285888671875,790.1465454101562
573,781.6849975585938,790.952392578125,797.8021850585938,790.5494384765625
574,780.879150390625,790.5494384765625,793.7728881835938,788.937744140625
575,782.893798828125,792.5640869140625,798.2051391601562,792.1611938476562
576,782.087890625,791.7582397460938,797.8021850585938,790.5494384765625
577,783.2966918945312,789.3406372070312,790.5494384765625,786.923095703125
578,782.893798828125,786.5201416015625,794.5787353515625,786.923095703125
579,782.4908447265625,786.923095703125,794.5787353515625,783.2966918945312
580,779.2673950195312,790.1465454101562,793.7728881835938,776.8497924804688
581,778.8644409179688,792.967041015625,796.5933837890625,778.05859375
582,782.4908447265625,793.3699340820312,797.3992919921875,784.1025390625
583,786.1171875,788.937744140625,794.981689453125,786.5201416015625
584,790.952392578125,789.7435913085938,791.3552856445312,786.923095703125
585,790.1465454101562,787.7289428710938,789.3406372070312,780.879150390625
586,788.1318969726562,788.1318969726562,789.7435913085938,782.4908447265625
587,789.3406372070312,790.952392578125,791.3552856445312,784.5054931640625
588,788.5347900390625,785.7142944335938,794.1758422851562,787.7289428710938
589,792.967041015625,784.908447265625,796.5933837890625,786.923095703125
590,799.010986328125,788.937744140625,794.981689453125,786.1171875
591,796.1904907226562,792.5640869140625,794.1758422851562,794.1758422851562
592,792.5640869140625,794.5787353515625,792.967041015625,788.937744140625
593,794.1758422851562,792.1611938476562,792.967041015625,786.923095703125
594,796.5933837890625,787.3259887695312,790.952392578125,794.1758422851562
595,797.8021850585938,792.1611938476562,793.3699340820312,802.2344360351562
596,792.967041015625,798.2051391601562,793.3699340820312,802.6373901367188
597,786.5201416015625,791.7582397460938,792.1611938476562,792.1611938476562
598,786.5201416015625,784.908447265625,792.5640869140625,790.952392578125
599,792.1611938476562,790.1465454101562,794.5787353515625,796.996337890625
600,784.1025390625,790.952392578125,793.7728881835938,786.5201416015625
601,775.2380981445312,787.7289428710938,786.923095703125,774.4322509765625
602,779.6703491210938,790.1465454101562,789.3406372070312,772.0146484375
603,784.1025390625,790.952392578125,793.3699340820312,771.6116943359375
604,790.952392578125,786.5201416015625,791.7582397460938,777.2527465820312
605,795.3846435546875,793.3699340820312,792.1611938476562,783.6996459960938
606,792.1611938476562,799.010986328125,786.5201416015625,782.087890625
607,788.937744140625,793.3699340820312,790.1465454101562,789.7435913085938
608,786.5201416015625,791.7582397460938,794.1758422851562,787.7289428710938
609,789.7435913085938,793.3699340820312,790.952392578125,783.2966918945312
610,797.3992919921875,796.996337890625,792.1611938476562,788.5347900390625
611,796.5933837890625,800.6226806640625,790.5494384765625,787.3259887695312
612,794.1758422851562,797.3992919921875,788.5347900390625,785.7142944335938
613,793.3699340820312,797.3992919921875,788.937744140625,792.5640869140625
614,796.1904907226562,795.3846435546875,788.5347900390625,794.1758422851562
615,798.6080322265625,789.7435913085938,788.5347900390625,787.3259887695312
616,789.3406372070312,788.1318969726562,788.937744140625,780.879150390625
617,789.7435913085938,790.1465454101562,795.7875366210938,786.1171875
618,792.5640869140625,789.3406372070312,795.3846435546875,788.1318969726562
619,792.1611938476562,789.3406372070312,791.7582397460938,785.7142944335938
620,791.7582397460938,789.3406372070312,791.7582397460938,786.5201416015625
621,793.7728881835938,796.1904907226562,794.981689453125,789.7435913085938
622,785.7142944335938,794.1758422851562,794.981689453125,795.7875366210938
623,778.8644409179688,787.3259887695312,789.3406372070312,796.1904907226562
624,788.937744140625,792.1611938476562,788.5347900390625,796.996337890625
625,793.7728881835938,792.1611938476562,793.7728881835938,794.5787353515625
626,791.7582397460938,790.1465454101562,799.010986328125,789.7435913085938
627,789.3406372070312,789.7435913085938,797.3992919921875,786.1171875
628,788.1318969726562,790.5494384765625,792.5640869140625,782.4908447265625
629,789.7435913085938,790.1465454101562,789.3406372070312,783.2966918945312
630,790.5494384765625,791.3552856445312,793.7728881835938,784.5054931640625
631,786.1171875,792.967041015625,793.3699340820312,781.6849975585938
632,781.6849975585938,792.1611938476562,791.3552856445312,777.6557006835938
633,780.879150390625,791.3552856445312,793.7728881835938,784.1025390625
634,782.4908447265625,790.5494384765625,794.981689453125,796.5933837890625
635,782.4908447265625,790.952392578125,795.3846435546875,796.996337890625
636,780.4761962890625,788.937744140625,797.3992919921875,790.952392578125
637,784.1025390625,791.7582397460938,802.2344360351562,789.7435913085938
638,783.6996459960938,791.7582397460938,800.2197875976562,788.1318969726562
639,781.6849975585938,788.1318969726562,796.1904907226562,789.3406372070312
640,782.087890625,788.1318969726562,792.1611938476562,789.7435913085938
641,788.937744140625,791.3552856445312,792.1611938476562,792.1611938476562
642,785.3113403320312,793.7728881835938,793.7728881835938,788.937744140625
643,778.4615478515625,793.3699340820312,788.937744140625,785.3113403320312
644,786.1171875,793.7728881835938,790.5494384765625,786.5201416015625
645,791.7582397460938,795.7875366210938,790.952392578125,788.937744140625
646,793.3699340820312,792.5640869140625,787.7289428710938,792.5640869140625
647,792.5640869140625,788.937744140625,785.7142944335938,787.3259887695312
648,791.3552856445312,790.5494384765625,782.893798828125,783.6996459960938
649,792.5640869140625,790.5494384765625,786.1171875,783.2966918945312
650,793.3699340820312,792.1611938476562,788.1318969726562,785.3113403320312
651,794.981689453125,792.5640869140625,785.3113403320312,788.5347900390625
652,796.1904907226562,791.7582397460938,785.7142944335938,788.1318969726562
653,794.5787353515625,794.5787353515625,787.7289428710938,788.937744140625
654,794.5787353515625,798.6080322265625,781.6849975585938,786.923095703125
655,800.2197875976562,794.5787353515625,778.4615478515625,787.7289428710938
656,800.6226806640625,791.3552856445312,778.8644409179688,789.3406372070312
657,799.8168334960938,788.937744140625,779.2673950195312,788.5347900390625
658,794.981689453125,787.3259887695312,784.1025390625,785.3113403320312
659,794.1758422851562,791.7582397460938,785.7142944335938,790.952392578125
660,794.1758422851562,789.7435913085938,786.5201416015625,787.3259887695312
661,788.1318969726562,788.1318969726562,787.7289428710938,779.2673950195312
662,782.4908447265625,789.7435913085938,784.5054931640625,779.6703491210938
663,778.8644409179688,788.5347900390625,786.5201416015625,779.2673950195312
664,778.8644409179688,791.3552856445312,788.937744140625,781.2820434570312
665,782.4908447265625,793.3699340820312,788.5347900390625,780.4761962890625
666,780.879150390625,793.7728881835938,788.1318969726562,777.6557006835938
667,778.8644409179688,790.1465454101562,785.7142944335938,780.4761962890625
668,779.6703491210938,789.7435913085938,788.1318969726562,787.7289428710938
669,781.2820434570312,792.1611938476562,792.1611938476562,787.7289428710938
670,788.5347900390625,790.5494384765625,791.3552856445312,787.7289428710938
671,794.5787353515625,789.7435913085938,788.1318969726562,788.5347900390625
672,799.4139404296875,786.923095703125,788.937744140625,787.3259887695312
673,793.7728881835938,784.908447265625,786.5201416015625,787.3259887695312
674,790.952392578125,788.1318969726562,785.7142944335938,786.1171875
675,800.2197875976562,785.3113403320312,790.1465454101562,790.1465454101562
676,794.981689453125,781.2820434570312,788.1318969726562,790.952392578125
677,790.1465454101562,786.5201416015625,786.923095703125,783.2966918945312
678,796.996337890625,790.5494384765625,790.952392578125,784.1025390625
679,796.1904907226562,787.7289428710938,793.3699340820312,790.952392578125
680,791.7582397460938,786.5201416015625,792.1611938476562,791.7582397460938
681,799.8168334960938,789.7435913085938,793.3699340820312,793.7728881835938
682,801.4285888671875,790.952392578125,793.3699340820312,795.3846435546875
683,798.2051391601562,790.5494384765625,794.1758422851562,797.3992919921875
684,796.996337890625,789.7435913085938,798.2051391601562,794.981689453125
685,795.3846435546875,795.7875366210938,802.2344360351562,792.1611938476562
686,797.3992919921875,799.8168334960938,800.6226806640625,792.1611938476562
687,794.1758422851562,796.1904907226562,795.3846435546875,792.967041015625
688,786.923095703125,795.7875366210938,791.3552856445312,790.5494384765625
689,782.893798828125,796.1904907226562,791.3552856445312,783.6996459960938
690,784.908447265625,794.5787353515625,789.7435913085938,786.1171875
691,791.3552856445312,790.1465454101562,788.937744140625,792.5640869140625
692,791.3552856445312,786.923095703125,791.3552856445312,794.5787353515625
693,785.7142944335938,790.5494384765625,792.967041015625,786.923095703125
694,782.087890625,788.1318969726562,792.967041015625,781.2820434570312
695,787.7289428710938,786.5201416015625,791.3552856445312,786.5201416015625
696,788.937744140625,791.3552856445312,790.952392578125,784.1025390625
697,789.3406372070312,788.5347900390625,788.937744140625,780.0732421875
698,792.967041015625,788.937744140625,784.908447265625,781.6849975585938
699,795.3846435546875,793.7728881835938,786.1171875,783.2966918945312
700,799.010986328125,793.7728881835938,784.5054931640625,790.1465454101562
701,804.6520385742188,792.1611938476562,786.5201416015625,796.996337890625
702,806.6666870117188,790.5494384765625,792.967041015625,799.4139404296875
703,801.025634765625,790.1465454101562,793.7728881835938,796.1904907226562
704,787.3259887695312,788.1318969726562,790.5494384765625,784.908447265625
705,782.4908447265625,786.923095703125,784.908447265625,782.893798828125
706,786.923095703125,789.3406372070312,784.1025390625,792.967041015625
707,785.3113403320312,788.937744140625,783.6996459960938,796.5933837890625
708,784.908447265625,790.952392578125,784.1025390625,783.6996459960938
709,782.893798828125,797.3992919921875,789.3406372070312,778.8644409179688
710,784.5054931640625,799.4139404296875,791.3552856445312,780.879150390625
711,792.967041015625,795.7875366210938,787.7289428710938,782.4908447265625
712,798.2051391601562,790.952392578125,789.3406372070312,785.3113403320312
713,794.1758422851562,788.5347900390625,788.1318969726562,787.7289428710938
714,784.908447265625,784.5054931640625,781.2820434570312,786.923095703125
715,785.3113403320312,786.5201416015625,778.8644409179688,784.908447265625
716,792.1611938476562,788.937744140625,779.6703491210938,786.923095703125
717,798.2051391601562,790.952392578125,784.1025390625,792.967041015625
718,799.010986328125,792.5640869140625,789.7435913085938,796.1904907226562
719,799.8168334960938,792.5640869140625,789.7435913085938,798.6080322265625
720,799.8168334960938,792.967041015625,787.7289428710938,795.7875366210938
721,799.4139404296875,790.5494384765625,790.5494384765625,793.7728881835938
722,799.010986328125,786.5201416015625,787.7289428710938,794.981689453125
723,797.3992919921875,788.1318969726562,787.3259887695312,790.1465454101562
724,794.981689453125,790.952392578125,786.5201416015625,788.1318969726562
725,791.7582397460938,792.967041015625,785.3113403320312,788.5347900390625
726,791.7582397460938,791.7582397460938,786.1171875,782.4908447265625
727,792.1611938476562,792.967041015625,786.923095703125,782.087890625
728,793.7728881835938,793.3699340820312,789.7435913085938,784.5054931640625
729,794.5787353515625,791.3552856445312,791.3552856445312,786.923095703125
730,784.5054931640625,788.5347900390625,788.1318969726562,787.3259887695312
731,782.4908447265625,788.5347900390625,785.3113403320312,781.2820434570312
732,788.5347900390625,791.3552856445312,784.908447265625,782.4908447265625
733,788.5347900390625,792.1611938476562,786.923095703125,787.3259887695312
734,786.923095703125,796.5933837890625,793.7728881835938,789.7435913085938
735,788.937744140625,799.010986328125,794.5787353515625,790.1465454101562
736,788.937744140625,795.3846435546875,792.967041015625,790.952392578125
737,786.5201416015625,790.952392578125,793.7728881835938,795.7875366210938
738,790.1465454101562,793.3699340820312,795.7875366210938,798.2051391601562
739,790.952392578125,793.7728881835938,798.2051391601562,794.5787353515625
740,788.1318969726562,790.952392578125,792.5640869140625,791.3552856445312
741,783.6996459960938,787.7289428710938,787.7289428710938,788.937744140625
742,783.6996459960938,784.908447265625,788.5347900390625,782.4908447265625
743,785.7142944335938,784.5054931640625,786.1171875,774.4322509765625
744,785.7142944335938,783.2966918945312,784.1025390625,774.8351440429688
745,786.5201416015625,790.5494384765625,790.5494384765625,776.8497924804688
746,794.981689453125,795.7875366210938,792.5640869140625,782.893798828125
747,803.4432373046875,796.1904907226562,788.1318969726562,789.3406372070312
748,810.2930297851562,798.6080322265625,791.7582397460938,791.3552856445312
749,809.89013671875,799.4139404296875,796.5933837890625,796.1904907226562
750,813.91943359375,801.025634765625,800.2197875976562,799.8168334960938
751,811.5018310546875,801.025634765625,797.8021850585938,798.6080322265625
752,808.2783813476562,801.4285888671875,798.6080322265625,796.1904907226562
753,810.6959838867188,796.996337890625,799.010986328125,796.5933837890625
754,804.6520385742188,795.7875366210938,795.3846435546875,792.967041015625
755,796.5933837890625,797.3992919921875,795.7875366210938,790.5494384765625
756,792.967041015625,794.1758422851562,792.967041015625,787.7289428710938
757,795.3846435546875,797.3992919921875,799.4139404296875,791.3552856445312
758,790.5494384765625,799.4139404296875,803.8461303710938,791.3552856445312
759,785.3113403320312,796.1904907226562,798.6080322265625,785.3113403320312
760,782.893798828125,794.981689453125,795.3846435546875,786.1171875
761,782.087890625,794.5787353515625,798.6080322265625,789.7435913085938
762,785.7142944335938,791.3552856445312,800.2197875976562,793.7728881835938
763,787.3259887695312,788.1318969726562,798.6080322265625,789.3406372070312
764,790.1465454101562,790.952392578125,799.4139404296875,791.3552856445312
765,791.7582397460938,789.7435913085938,798.6080322265625,796.5933837890625
766,790.5494384765625,784.908447265625,797.3992919921875,790.5494384765625
767,790.952392578125,786.923095703125,793.7728881835938,790.1465454101562
768,791.3552856445312,789.3406372070312,793.7728881835938,793.7728881835938
769,794.981689453125,787.7289428710938,796.1904907226562,796.1904907226562
770,801.025634765625,791.3552856445312,796.996337890625,798.2051391601562
771,796.996337890625,788.5347900390625,792.5640869140625,789.3406372070312
772,798.2051391601562,784.5054931640625,790.5494384765625,790.5494384765625
773,802.6373901367188,788.937744140625,790.952392578125,795.3846435546875
774,801.025634765625,793.7728881835938,791.7582397460938,792.5640869140625
775,797.3992919921875,790.5494384765625,792.1611938476562,788.937744140625
776,796.996337890625,788.1318969726562,788.5347900390625,789.3406372070312
777,800.6226806640625,794.1758422851562,792.967041015625,793.3699340820312
778,805.8607788085938,799.010986328125,798.6080322265625,799.010986328125
779,806.2637329101562,795.3846435546875,795.7875366210938,797.8021850585938
780,800.2197875976562,794.981689453125,789.7435913085938,789.7435913085938
781,797.8021850585938,794.5787353515625,790.1465454101562,791.3552856445312
782,798.6080322265625,792.5640869140625,793.3699340820312,791.7582397460938
783,798.2051391601562,792.5640869140625,794.981689453125,788.937744140625
784,796.996337890625,795.3846435546875,800.2197875976562,790.952392578125
785,792.967041015625,794.981689453125,799.4139404296875,785.3113403320312
786,784.908447265625,792.967041015625,794.981689453125,781.6849975585938
787,781.6849975585938,794.5787353515625,797.3992919921875,793.3699340820312
788,784.908447265625,795.3846435546875,797.3992919921875,794.981689453125
789,789.3406372070312,795.3846435546875,800.6226806640625,790.5494384765625
790,785.7142944335938,795.7875366210938,801.4285888671875,795.7875366210938
791,778.05859375,791.7582397460938,798.6080322265625,795.7875366210938
792,780.879150390625,785.7142944335938,798.2051391601562,794.981689453125
793,790.5494384765625,789.7435913085938,801.025634765625,796.1904907226562
794,794.5787353515625,791.7582397460938,802.2344360351562,792.1611938476562
795,790.5494384765625,788.5347900390625,799.010986328125,790.1465454101562
796,785.3113403320312,792.967041015625,796.996337890625,786.923095703125
797,788.1318969726562,800.2197875976562,799.4139404296875,786.923095703125
798,799.8168334960938,805.054931640625,807.069580078125,803.040283203125
799,801.4285888671875,804.6520385742188,802.2344360351562,808.2783813476562
800,795.3846435546875,802.6373901367188,798.2051391601562,796.1904907226562
801,787.7289428710938,795.3846435546875,798.2051391601562,791.3552856445312
802,772.0146484375,788.937744140625,789.7435913085938,782.087890625
803,774.4322509765625,789.3406372070312,805.4578857421875,776.8497924804688
804,773.2234497070312,786.923095703125,811.5018310546875,767.5823974609375
805,759.5238037109375,784.5054931640625,802.6373901367188,751.062255859375
806,749.8534545898438,787.3259887695312,809.4871826171875,749.4505615234375
807,745.4212646484375,789.7435913085938,813.5164794921875,746.2271118164062
808,736.5567626953125,788.5347900390625,815.93408203125,732.12451171875
809,722.4542236328125,791.3552856445312,820.3662719726562,711.97802734375
810,711.1721801757812,796.996337890625,820.3662719726562,696.2637329101562
811,685.3846435546875,800.6226806640625,826.00732421875,674.908447265625
812,668.05859375,801.025634765625,836.886474609375,657.9853515625
813,661.6116943359375,800.6226806640625,839.3040161132812,646.3003540039062
814,653.5531005859375,797.3992919921875,838.4981689453125,637.4359130859375
815,647.106201171875,805.054931640625,840.10986328125,632.1978149414062
816,636.2271118164062,807.4725341796875,844.1392211914062,627.7655639648438
817,628.1685180664062,800.2197875976562,847.3626098632812,631.3919677734375
818,629.3773193359375,799.8168334960938,856.2271118164062,632.1978149414062
819,627.3626098632812,799.4139404296875,859.047607421875,632.1978149414062
820,624.945068359375,797.3992919921875,857.4359130859375,632.6007080078125
821,627.3626098632812,795.3846435546875,855.8241577148438,642.2710571289062
822,634.2124633789062,787.7289428710938,856.2271118164062,662.0146484375
823,645.091552734375,785.7142944335938,857.032958984375,677.7289428710938
824,654.7619018554688,791.7582397460938,852.1978149414062,684.1758422851562
825,660.0,792.5640869140625,843.7362670898438,681.3552856445312
826,669.6703491210938,786.5201416015625,842.930419921875,691.4285888671875
827,676.5201416015625,787.7289428710938,839.7069702148438,691.4285888671875
828,692.6373901367188,791.7582397460938,835.6776733398438,699.084228515625
829,712.3809814453125,794.1758422851562,838.4981689453125,716.00732421875
830,718.8278198242188,796.1904907226562,834.8717651367188,718.02197265625
831,721.6483764648438,796.5933837890625,831.2454223632812,724.4688720703125
832,728.901123046875,796.1904907226562,829.6337280273438,735.3479614257812
833,748.2417602539062,797.3992919921875,825.2014770507812,751.8681030273438
834,763.1502075195312,799.4139404296875,816.7399291992188,763.1502075195312
835,764.7619018554688,799.010986328125,808.6813354492188,757.5091552734375
836,770.4029541015625,799.4139404296875,803.8461303710938,757.5091552734375
837,774.8351440429688,797.3992919921875,799.010986328125,769.5970458984375
838,784.908447265625,794.5787353515625,796.996337890625,780.0732421875
839,804.6520385742188,791.7582397460938,792.1611938476562,794.1758422851562
840,793.3699340820312,787.7289428710938,784.5054931640625,784.5054931640625
841,784.908447265625,786.1171875,776.0439453125,774.029296875
842,792.1611938476562,786.1171875,776.0439453125,780.0732421875
843,787.3259887695312,782.087890625,782.4908447265625,774.4322509765625
844,794.5787353515625,782.4908447265625,780.4761962890625,780.0732421875
845,799.4139404296875,783.6996459960938,780.4761962890625,790.952392578125
846,793.3699340820312,780.4761962890625,777.2527465820312,790.1465454101562
847,796.5933837890625,779.2673950195312,770.8058471679688,796.1904907226562
848,805.8607788085938,776.0439453125,769.1941528320312,811.90478515625
849,810.6959838867188,773.2234497070312,772.8204956054688,817.94873046875
850,811.098876953125,779.2673950195312,772.8204956054688,816.3369750976562
851,816.7399291992188,784.1025390625,770.0,822.3809814453125
852,819.5604248046875,781.2820434570312,764.7619018554688,824.7985229492188
853,818.7545776367188,781.2820434570312,767.1795043945312,828.4249267578125
854,826.8131713867188,780.4761962890625,768.7911987304688,836.4835205078125
855,836.886474609375,779.6703491210938,763.5531005859375,842.12451171875
856,842.930419921875,781.6849975585938,762.3442993164062,840.915771484375
857,843.3333129882812,785.3113403320312,761.1355590820312,839.3040161132812
858,843.3333129882812,786.923095703125,758.3150024414062,839.7069702148438
859,844.5421142578125,785.7142944335938,755.4945068359375,838.09521484375
860,846.1538696289062,787.3259887695312,757.106201171875,842.5274658203125
861,846.5567626953125,788.5347900390625,764.3589477539062,842.930419921875
862,841.3186645507812,786.1171875,763.9560546875,842.12451171875
863,841.7216186523438,784.5054931640625,759.5238037109375,836.08056640625
864,851.3919677734375,788.1318969726562,761.1355590820312,832.8571166992188
865,861.8681030273438,795.3846435546875,766.7765502929688,834.8717651367188
866,859.4505615234375,796.996337890625,761.94140625,828.4249267578125
867,853.4066162109375,795.7875366210938,761.1355590820312,826.00732421875
868,853.8095092773438,796.996337890625,764.3589477539062,824.3956298828125
869,852.6007080078125,796.1904907226562,761.5384521484375,823.1868286132812
870,856.2271118164062,792.1611938476562,757.106201171875,821.5750732421875
871,855.018310546875,790.952392578125,751.4652099609375,821.97802734375
872,852.6007080078125,789.7435913085938,757.106201171875,826.8131713867188
873,850.989013671875,786.5201416015625,760.3296508789062,823.99267578125
874,853.4066162109375,789.3406372070312,758.7179565429688,820.7692260742188
875,857.8388061523438,791.7582397460938,759.5238037109375,825.2014770507812
876,853.4066162109375,787.7289428710938,757.912109375,826.8131713867188
877,848.1685180664062,790.1465454101562,762.3442993164062,823.99267578125
878,844.5421142578125,792.1611938476562,768.3883056640625,820.7692260742188
879,840.10986328125,792.1611938476562,768.3883056640625,820.3662719726562
880,838.4981689453125,794.5787353515625,770.4029541015625,824.7985229492188
881,842.930419921875,790.1465454101562,776.8497924804688,837.6923217773438
882,838.09521484375,785.7142944335938,779.6703491210938,837.6923217773438
883,833.6630249023438,787.7289428710938,779.6703491210938,841.3186645507812
884,832.05126953125,788.1318969726562,780.879150390625,844.5421142578125
885,829.2307739257812,787.3259887695312,779.2673950195312,836.886474609375
886,828.02197265625,787.3259887695312,779.2673950195312,837.6923217773438
887,826.4102783203125,786.5201416015625,782.087890625,839.3040161132812
888,823.5897216796875,785.3113403320312,784.908447265625,840.5128173828125
889,823.1868286132812,787.3259887695312,784.1025390625,836.08056640625
890,823.1868286132812,787.3259887695312,785.7142944335938,830.8424682617188
891,825.6043701171875,786.5201416015625,791.3552856445312,829.6337280273438
892,826.4102783203125,786.923095703125,796.1904907226562,826.00732421875
893,827.6190185546875,788.937744140625,796.1904907226562,825.6043701171875
894,827.2161254882812,793.3699340820312,790.5494384765625,819.96337890625
895,828.02197265625,796.1904907226562,786.1171875,820.7692260742188
896,825.6043701171875,794.981689453125,788.1318969726562,813.5164794921875
897,822.3809814453125,792.1611938476562,787.7289428710938,803.8461303710938
898,821.1721801757812,787.7289428710938,784.908447265625,810.2930297851562
899,812.3076782226562,789.7435913085938,784.5054931640625,805.4578857421875
900,811.098876953125,792.967041015625,778.05859375,798.2051391601562
901,815.5311279296875,789.3406372070312,775.6410522460938,800.6226806640625
902,814.3223266601562,788.5347900390625,774.8351440429688,799.8168334960938
903,809.89013671875,788.937744140625,774.029296875,801.8314819335938
904,810.6959838867188,789.3406372070312,776.8497924804688,805.4578857421875
905,813.91943359375,790.5494384765625,780.0732421875,809.4871826171875
906,818.7545776367188,790.1465454101562,784.1025390625,814.3223266601562
907,823.99267578125,791.3552856445312,786.1171875,816.3369750976562
908,823.1868286132812,793.7728881835938,784.5054931640625,814.7252807617188
909,823.5897216796875,794.1758422851562,784.908447265625,815.93408203125
910,826.8131713867188,793.3699340820312,790.5494384765625,819.96337890625
911,821.5750732421875,790.5494384765625,782.4908447265625,815.93408203125
912,817.5457763671875,790.1465454101562,777.6557006835938,815.5311279296875
913,817.5457763671875,787.3259887695312,784.5054931640625,821.5750732421875
914,811.90478515625,788.5347900390625,787.3259887695312,815.1282348632812
915,808.2783813476562,787.7289428710938,792.1611938476562,805.8607788085938
916,803.4432373046875,785.7142944335938,792.1611938476562,803.040283203125
917,801.025634765625,787.3259887695312,794.1758422851562,800.2197875976562
918,799.010986328125,788.937744140625,787.7289428710938,796.996337890625
919,792.967041015625,787.3259887695312,780.0732421875,794.1758422851562
920,795.7875366210938,786.1171875,782.893798828125,792.967041015625
921,801.4285888671875,789.7435913085938,784.5054931640625,790.952392578125
922,795.7875366210938,788.5347900390625,787.7289428710938,798.6080322265625
923,789.7435913085938,786.1171875,785.7142944335938,799.010986328125
924,792.967041015625,787.7289428710938,782.893798828125,793.7728881835938
925,796.996337890625,787.7289428710938,784.1025390625,799.8168334960938
926,794.1758422851562,787.7289428710938,786.1171875,794.981689453125
927,795.3846435546875,788.937744140625,788.1318969726562,789.3406372070312
928,797.8021850585938,788.5347900390625,786.1171875,792.967041015625
929,794.5787353515625,787.7289428710938,782.087890625,796.996337890625
930,792.967041015625,785.7142944335938,784.1025390625,799.8168334960938
931,799.8168334960938,788.1318969726562,787.3259887695312,801.025634765625
932,802.6373901367188,792.1611938476562,785.7142944335938,800.6226806640625
933,802.6373901367188,787.7289428710938,786.5201416015625,801.8314819335938
934,802.2344360351562,784.5054931640625,785.7142944335938,803.4432373046875
935,793.7728881835938,780.879150390625,783.2966918945312,793.3699340820312
936,794.5787353515625,781.2820434570312,784.5054931640625,791.3552856445312
937,799.8168334960938,789.3406372070312,789.7435913085938,795.7875366210938
938,795.7875366210938,789.7435913085938,791.7582397460938,791.3552856445312
939,792.5640869140625,787.3259887695312,790.1465454101562,788.5347900390625
940,797.3992919921875,789.3406372070312,791.3552856445312,793.7728881835938
941,796.5933837890625,790.5494384765625,793.3699340820312,796.1904907226562
942,799.4139404296875,790.1465454101562,795.3846435546875,795.3846435546875
943,799.8168334960938,789.7435913085938,794.5787353515625,790.952392578125
944,791.3552856445312,787.7289428710938,784.5054931640625,784.5054931640625
945,789.7435913085938,788.937744140625,778.4615478515625,786.1171875
946,786.5201416015625,785.3113403320312,779.2673950195312,779.6703491210938
947,784.5054931640625,782.4908447265625,779.2673950195312,777.2527465820312
948,784.5054931640625,784.5054931640625,783.2966918945312,784.908447265625
949,786.5201416015625,785.3113403320312,785.3113403320312,789.7435913085938
950,790.5494384765625,786.923095703125,788.1318969726562,784.908447265625
951,792.1611938476562,791.7582397460938,791.7582397460938,788.1318969726562
952,795.3846435546875,789.7435913085938,791.3552856445312,790.5494384765625
953,797.3992919921875,788.5347900390625,791.3552856445312,789.7435913085938
954,788.5347900390625,784.5054931640625,785.7142944335938,787.7289428710938
955,786.1171875,781.6849975585938,777.6557006835938,787.3259887695312
956,795.7875366210938,786.923095703125,782.4908447265625,795.7875366210938
957,798.2051391601562,788.5347900390625,792.1611938476562,794.981689453125
958,799.4139404296875,789.7435913085938,790.5494384765625,785.7142944335938
959,795.7875366210938,786.923095703125,785.7142944335938,785.7142944335938
960,790.5494384765625,786.923095703125,787.3259887695312,787.3259887695312
961,795.3846435546875,790.952392578125,789.7435913085938,787.3259887695312
962,798.6080322265625,792.5640869140625,794.1758422851562,789.7435913085938
963,803.4432373046875,794.981689453125,792.967041015625,794.5787353515625
964,804.6520385742188,796.1904907226562,791.7582397460938,793.3699340820312
965,796.5933837890625,798.2051391601562,792.5640869140625,790.5494384765625
966,803.4432373046875,799.8168334960938,792.967041015625,792.5640869140625
967,805.054931640625,792.1611938476562,791.7582397460938,790.952392578125
968,799.8168334960938,787.7289428710938,791.7582397460938,795.7875366210938
969,798.6080322265625,790.952392578125,790.1465454101562,795.7875366210938
970,792.967041015625,788.1318969726562,790.5494384765625,790.5494384765625
971,794.5787353515625,787.7289428710938,792.5640869140625,788.1318969726562
972,797.3992919921875,786.1171875,790.952392578125,783.6996459960938
973,795.7875366210938,784.1025390625,786.5201416015625,784.5054931640625
974,791.3552856445312,783.6996459960938,785.3113403320312,780.879150390625
975,780.4761962890625,781.6849975585938,784.1025390625,772.0146484375
976,780.879150390625,788.1318969726562,783.6996459960938,772.8204956054688
977,784.5054931640625,788.1318969726562,786.1171875,779.6703491210938
978,784.908447265625,784.5054931640625,784.5054931640625,782.893798828125
979,790.1465454101562,783.2966918945312,790.1465454101562,790.5494384765625
980,787.7289428710938,788.1318969726562,792.1611938476562,792.1611938476562
981,789.7435913085938,790.952392578125,789.7435913085938,784.908447265625
982,793.3699340820312,786.923095703125,792.967041015625,784.5054931640625
983,787.7289428710938,786.1171875,795.3846435546875,784.1025390625
984,788.5347900390625,786.5201416015625,797.8021850585938,786.923095703125
985,790.1465454101562,790.5494384765625,797.8021850585938,793.7728881835938
986,784.5054931640625,790.1465454101562,792.1611938476562,792.967041015625
987,784.908447265625,782.4908447265625,789.7435913085938,794.1758422851562
988,794.5787353515625,780.879150390625,796.1904907226562,794.5787353515625
989,795.3846435546875,786.5201416015625,790.5494384765625,792.1611938476562
990,791.7582397460938,792.967041015625,781.6849975585938,797.3992919921875
991,790.5494384765625,794.5787353515625,780.4761962890625,803.040283203125
992,797.8021850585938,796.1904907226562,781.6849975585938,798.6080322265625
993,804.2490844726562,797.8021850585938,784.908447265625,796.1904907226562
994,805.4578857421875,794.1758422851562,782.087890625,799.010986328125
995,807.4725341796875,796.996337890625,784.1025390625,803.040283203125
996,800.6226806640625,798.2051391601562,785.7142944335938,805.054931640625
997,801.4285888671875,797.3992919921875,784.5054931640625,797.8021850585938
998,803.040283203125,795.3846435546875,785.3113403320312,789.7435913085938
999,799.4139404296875,794.981689453125,785.7142944335938,793.3699340820312
1000,800.2197875976562,796.5933837890625,784.908447265625,788.937744140625
1001,794.1758422851562,792.1611938476562,782.893798828125,779.6703491210938
1002,792.1611938476562,785.3113403320312,781.2820434570312,782.4908447265625
1003,794.1758422851562,787.3259887695312,780.879150390625,787.7289428710938
1004,791.7582397460938,790.1465454101562,777.2527465820312,786.1171875
1005,789.3406372070312,786.5201416015625,775.2380981445312,784.1025390625
1006,785.3113403320312,784.5054931640625,780.4761962890625,789.7435913085938
1007,778.05859375,782.893798828125,783.2966918945312,791.7582397460938
1008,776.4468994140625,780.879150390625,786.5201416015625,790.952392578125
1009,780.879150390625,778.8644409179688,790.5494384765625,794.981689453125
1010,779.6703491210938,776.0439453125,794.1758422851562,795.7875366210938
1011,772.8204956054688,783.6996459960938,797.8021850585938,790.1465454101562
1012,774.4322509765625,787.7289428710938,794.1758422851562,789.7435913085938
1013,775.2380981445312,784.5054931640625,791.3552856445312,792.5640869140625
1014,772.4176025390625,785.7142944335938,793.3699340820312,788.1318969726562
1015,776.0439453125,790.1465454101562,795.7875366210938,785.7142944335938
1016,774.029296875,793.3699340820312,792.5640869140625,786.1171875
1017,781.6849975585938,790.1465454101562,787.3259887695312,789.3406372070312
1018,790.1465454101562,789.3406372070312,786.5201416015625,788.1318969726562
1019,783.6996459960938,788.1318969726562,785.7142944335938,778.4615478515625
1020,783.2966918945312,785.3113403320312,782.893798828125,774.4322509765625
1021,786.923095703125,785.7142944335938,782.4908447265625,777.6557006835938
1022,794.1758422851562,789.7435913085938,784.1025390625,780.0732421875
1023,806.6666870117188,788.1318969726562,786.923095703125,784.908447265625
1024,808.2783813476562,788.937744140625,782.893798828125,785.7142944335938
1025,803.4432373046875,786.5201416015625,782.893798828125,785.3113403320312
1026,800.6226806640625,782.893798828125,782.4908447265625,791.3552856445312
1027,798.2051391601562,783.2966918945312,783.2966918945312,797.8021850585938
1028,797.8021850585938,780.4761962890625,792.1611938476562,799.8168334960938
1029,798.2051391601562,781.6849975585938,791.7582397460938,801.4285888671875
1030,798.6080322265625,785.3113403320312,794.5787353515625,807.069580078125
1031,792.1611938476562,787.3259887695312,797.8021850585938,799.8168334960938
1032,787.7289428710938,786.1171875,804.6520385742188,794.5787353515625
1033,792.1611938476562,781.2820434570312,804.2490844726562,797.8021850585938
1034,785.7142944335938,780.879150390625,795.3846435546875,795.3846435546875
1035,776.4468994140625,783.2966918945312,792.967041015625,794.5787353515625
1036,774.8351440429688,781.6849975585938,792.5640869140625,786.5201416015625
1037,770.4029541015625,782.4908447265625,793.7728881835938,781.6849975585938
1038,769.1941528320312,784.1025390625,791.7582397460938,782.893798828125
1039,771.2088012695312,782.087890625,790.1465454101562,778.4615478515625
1040,776.8497924804688,784.1025390625,792.1611938476562,782.4908447265625
1041,784.1025390625,790.1465454101562,792.5640869140625,791.7582397460938
1042,788.5347900390625,792.5640869140625,790.952392578125,789.3406372070312
1043,792.967041015625,792.1611938476562,790.5494384765625,790.1465454101562
1044,795.3846435546875,789.7435913085938,791.3552856445312,795.3846435546875
1045,798.6080322265625,792.1611938476562,791.7582397460938,794.981689453125
1046,799.8168334960938,790.952392578125,794.1758422851562,790.952392578125
1047,797.3992919921875,785.3113403320312,796.1904907226562,786.1171875
1048,799.010986328125,785.3113403320312,793.3699340820312,786.1171875
1049,798.6080322265625,783.6996459960938,789.7435913085938,785.3113403320312
1050,799.4139404296875,780.0732421875,793.7728881835938,787.3259887695312
1051,801.4285888671875,780.879150390625,796.1904907226562,787.3259887695312
1052,792.1611938476562,777.2527465820312,795.3846435546875,786.1171875
1053,787.7289428710938,777.2527465820312,793.7728881835938,790.5494384765625
1054,795.7875366210938,781.2820434570312,788.1318969726562,788.5347900390625
1055,790.952392578125,779.6703491210938,789.3406372070312,782.893798828125
1056,788.937744140625,778.8644409179688,792.5640869140625,782.893798828125
1057,792.1611938476562,784.5054931640625,792.5640869140625,785.3113403320312
1058,791.3552856445312,789.7435913085938,792.1611938476562,781.6849975585938
1059,794.981689453125,790.1465454101562,794.981689453125,783.2966918945312
1060,795.7875366210938,785.3113403320312,794.5787353515625,783.6996459960938
1061,782.893798828125,783.2966918945312,796.5933837890625,774.4322509765625
1062,773.6264038085938,783.6996459960938,799.010986328125,777.2527465820312
1063,777.2527465820312,784.5054931640625,795.7875366210938,786.1171875
1064,780.0732421875,787.7289428710938,794.5787353515625,790.952392578125
1065,783.6996459960938,791.3552856445312,797.3992919921875,790.5494384765625
1066,784.908447265625,790.5494384765625,797.8021850585938,780.4761962890625
1067,787.3259887695312,789.3406372070312,796.996337890625,782.087890625
1068,788.5347900390625,790.5494384765625,794.1758422851562,785.3113403320312
1069,787.3259887695312,787.7289428710938,785.7142944335938,779.2673950195312
1070,794.5787353515625,785.7142944335938,786.1171875,784.1025390625
1071,800.6226806640625,791.3552856445312,792.967041015625,787.7289428710938
1072,799.010986328125,794.981689453125,793.7728881835938,783.6996459960938
1073,796.996337890625,792.1611938476562,790.952392578125,780.0732421875
1074,801.8314819335938,792.5640869140625,793.3699340820312,784.5054931640625
1075,807.069580078125,793.7728881835938,796.1904907226562,792.967041015625
1076,806.6666870117188,793.7728881835938,792.5640869140625,790.952392578125
1077,806.2637329101562,795.7875366210938,793.7728881835938,788.937744140625
1078,806.2637329101562,794.5787353515625,796.1904907226562,794.981689453125
1079,803.8461303710938,792.1611938476562,799.8168334960938,794.981689453125
1080,805.054931640625,794.1758422851562,802.6373901367188,793.3699340820312
1081,801.8314819335938,792.5640869140625,798.2051391601562,790.952392578125
1082,797.3992919921875,787.7289428710938,797.8021850585938,786.5201416015625
1083,800.6226806640625,792.5640869140625,797.8021850585938,791.7582397460938
1084,799.8168334960938,796.5933837890625,796.1904907226562,796.5933837890625
1085,800.6226806640625,794.1758422851562,795.3846435546875,794.1758422851562
1086,801.025634765625,793.3699340820312,792.5640869140625,788.937744140625
1087,795.7875366210938,798.2051391601562,796.1904907226562,789.7435913085938
1088,787.3259887695312,796.996337890625,795.7875366210938,782.087890625
1089,788.1318969726562,792.967041015625,790.1465454101562,780.879150390625
1090,791.3552856445312,790.952392578125,797.3992919921875,796.1904907226562
1091,788.1318969726562,792.5640869140625,805.054931640625,807.069580078125
1092,787.7289428710938,796.996337890625,809.4871826171875,794.981689453125
1093,790.5494384765625,795.3846435546875,807.87548828125,784.5054931640625
1094,793.3699340820312,793.3699340820312,803.4432373046875,785.3113403320312
1095,796.996337890625,791.3552856445312,806.2637329101562,786.923095703125
1096,798.2051391601562,792.1611938476562,805.8607788085938,783.6996459960938
1097,804.2490844726562,796.1904907226562,809.084228515625,785.7142944335938
1098,801.4285888671875,797.8021850585938,815.1282348632812,786.923095703125
1099,799.010986328125,798.6080322265625,819.1575317382812,785.3113403320312
1100,808.6813354492188,797.3992919921875,824.3956298828125,793.7728881835938
1101,812.7106323242188,799.8168334960938,827.6190185546875,792.1611938476562
1102,810.2930297851562,803.4432373046875,828.02197265625,789.7435913085938
1103,808.6813354492188,798.6080322265625,828.02197265625,794.981689453125
1104,807.4725341796875,797.3992919921875,822.7838745117188,791.7582397460938
1105,806.6666870117188,797.3992919921875,818.3516235351562,790.1465454101562
1106,807.87548828125,791.3552856445312,818.3516235351562,792.5640869140625
1107,798.6080322265625,791.7582397460938,817.94873046875,786.1171875
1108,796.1904907226562,792.5640869140625,816.3369750976562,784.1025390625
1109,800.2197875976562,793.3699340820312,817.5457763671875,793.3699340820312
1110,799.8168334960938,796.1904907226562,817.94873046875,799.010986328125
1111,801.025634765625,797.3992919921875,810.2930297851562,793.7728881835938
1112,800.2197875976562,794.981689453125,808.6813354492188,790.952392578125
1113,795.3846435546875,790.1465454101562,814.7252807617188,792.5640869140625
1114,793.7728881835938,789.3406372070312,813.113525390625,800.6226806640625
1115,797.3992919921875,793.7728881835938,812.7106323242188,802.2344360351562
1116,792.1611938476562,794.1758422851562,811.098876953125,794.981689453125
1117,792.1611938476562,793.3699340820312,813.91943359375,795.7875366210938
1118,792.5640869140625,791.3552856445312,809.89013671875,798.2051391601562
1119,787.3259887695312,790.1465454101562,800.2197875976562,788.937744140625
1120,797.3992919921875,796.1904907226562,802.6373901367188,793.3699340820312
1121,805.4578857421875,799.4139404296875,805.4578857421875,806.2637329101562
1122,801.4285888671875,792.967041015625,801.4285888671875,802.6373901367188
1123,796.996337890625,789.7435913085938,793.7728881835938,790.952392578125
1124,793.3699340820312,788.5347900390625,793.7728881835938,786.5201416015625
1125,796.5933837890625,788.1318969726562,795.3846435546875,791.3552856445312
1126,802.6373901367188,796.1904907226562,801.8314819335938,796.1904907226562
1127,805.054931640625,798.6080322265625,799.4139404296875,791.7582397460938
1128,796.996337890625,794.981689453125,795.7875366210938,787.3259887695312
1129,793.3699340820312,796.5933837890625,798.6080322265625,786.5201416015625
1130,797.8021850585938,797.8021850585938,799.8168334960938,783.2966918945312
1131,802.2344360351562,796.996337890625,800.2197875976562,783.2966918945312
1132,801.8314819335938,797.3992919921875,800.2197875976562,785.3113403320312
1133,796.1904907226562,796.5933837890625,800.6226806640625,787.7289428710938
1134,792.1611938476562,799.8168334960938,796.5933837890625,786.923095703125
1135,788.1318969726562,797.8021850585938,794.981689453125,782.893798828125
1136,785.3113403320312,795.3846435546875,796.1904907226562,780.879150390625
1137,792.5640869140625,799.010986328125,796.996337890625,787.3259887695312
1138,794.981689453125,800.6226806640625,800.2197875976562,788.1318969726562
1139,793.7728881835938,800.2197875976562,801.4285888671875,787.7289428710938
1140,792.1611938476562,795.3846435546875,787.7289428710938,784.5054931640625
1141,796.996337890625,796.5933837890625,781.2820434570312,787.3259887695312
1142,796.1904907226562,795.3846435546875,785.3113403320312,787.7289428710938
1143,791.7582397460938,794.5787353515625,785.3113403320312,782.4908447265625
1144,794.981689453125,793.3699340820312,780.4761962890625,784.5054931640625
1145,792.967041015625,784.1025390625,774.029296875,780.879150390625
1146,790.5494384765625,783.6996459960938,773.2234497070312,778.4615478515625
1147,790.952392578125,787.3259887695312,777.2527465820312,777.6557006835938
1148,790.952392578125,789.3406372070312,778.05859375,782.4908447265625
1149,788.1318969726562,785.3113403320312,774.8351440429688,782.893798828125
1150,788.1318969726562,789.3406372070312,779.6703491210938,776.0439453125
1151,792.967041015625,795.7875366210938,784.908447265625,778.4615478515625
1152,795.7875366210938,792.967041015625,783.6996459960938,782.087890625
1153,792.5640869140625,787.7289428710938,780.0732421875,777.2527465820312
1154,786.923095703125,786.923095703125,774.4322509765625,774.4322509765625
1155,788.937744140625,789.7435913085938,774.029296875,780.879150390625
1156,797.3992919921875,790.5494384765625,784.1025390625,790.1465454101562
1157,796.5933837890625,790.952392578125,786.923095703125,790.952392578125
1158,791.3552856445312,793.3699340820312,781.6849975585938,786.5201416015625
1159,796.1904907226562,797.8021850585938,778.4615478515625,785.7142944335938
1160,793.3699340820312,794.5787353515625,778.05859375,785.7142944335938
1161,789.3406372070312,795.7875366210938,776.0439453125,786.5201416015625
1162,795.3846435546875,800.6226806640625,777.2527465820312,788.937744140625
1163,792.1611938476562,796.996337890625,776.4468994140625,787.3259887695312
1164,790.5494384765625,797.3992919921875,776.4468994140625,790.952392578125
1165,792.1611938476562,798.2051391601562,777.6557006835938,795.7875366210938
1166,791.7582397460938,794.5787353515625,777.2527465820312,787.7289428710938
1167,799.010986328125,794.5787353515625,778.8644409179688,786.1171875
1168,796.5933837890625,790.1465454101562,777.6557006835938,785.3113403320312
1169,787.7289428710938,785.3113403320312,780.879150390625,777.6557006835938
1170,788.937744140625,793.3699340820312,781.6849975585938,778.8644409179688
1171,793.3699340820312,796.996337890625,779.2673950195312,781.6849975585938
1172,798.2051391601562,794.1758422851562,781.6849975585938,783.2966918945312
1173,794.1758422851562,795.3846435546875,777.2527465820312,777.2527465820312
1174,789.3406372070312,794.1758422851562,776.8497924804688,772.8204956054688
1175,790.5494384765625,791.7582397460938,779.2673950195312,776.4468994140625
1176,790.5494384765625,790.5494384765625,776.8497924804688,774.029296875
1177,792.967041015625,793.3699340820312,782.893798828125,774.8351440429688
1178,795.7875366210938,797.3992919921875,786.5201416015625,779.2673950195312
1179,794.5787353515625,798.2051391601562,788.1318969726562,780.879150390625
1180,792.1611938476562,794.1758422851562,791.7582397460938,786.1171875
1181,793.3699340820312,790.1465454101562,794.1758422851562,784.908447265625
1182,797.3992919921875,792.967041015625,790.5494384765625,783.6996459960938
1183,797.3992919921875,795.3846435546875,786.923095703125,790.5494384765625
1184,791.7582397460938,791.7582397460938,789.7435913085938,788.5347900390625
1185,787.3259887695312,794.5787353515625,793.3699340820312,782.4908447265625
1186,791.7582397460938,794.981689453125,794.1758422851562,789.7435913085938
1187,800.6226806640625,790.952392578125,794.981689453125,801.025634765625
1188,802.6373901367188,790.1465454101562,792.967041015625,794.5787353515625
1189,803.8461303710938,787.3259887695312,787.7289428710938,787.7289428710938
1190,796.5933837890625,790.1465454101562,785.7142944335938,786.1171875
1191,792.1611938476562,790.5494384765625,787.7289428710938,784.908447265625
1192,790.1465454101562,785.7142944335938,788.937744140625,778.05859375
1193,789.7435913085938,785.7142944335938,786.923095703125,779.6703491210938
1194,795.7875366210938,792.967041015625,785.3113403320312,785.7142944335938
1195,792.5640869140625,793.3699340820312,782.4908447265625,774.029296875
1196,787.7289428710938,788.937744140625,783.2966918945312,771.2088012695312
1197,788.5347900390625,786.923095703125,789.7435913085938,775.6410522460938
1198,781.6849975585938,781.6849975585938,789.3406372070312,781.2820434570312
1199,777.2527465820312,779.2673950195312,787.7289428710938,781.6849975585938
1200,775.6410522460938,783.6996459960938,786.1171875,771.2088012695312
1201,776.8497924804688,786.5201416015625,783.6996459960938,770.4029541015625
1202,782.4908447265625,784.5054931640625,785.7142944335938,777.2527465820312
1203,780.879150390625,782.087890625,784.908447265625,776.0439453125
1204,782.4908447265625,785.7142944335938,779.2673950195312,772.0146484375
1205,780.879150390625,787.7289428710938,778.8644409179688,774.4322509765625
1206,784.5054931640625,787.7289428710938,784.908447265625,783.2966918945312
1207,790.1465454101562,783.6996459960938,789.7435913085938,784.908447265625
1208,788.5347900390625,782.087890625,792.1611938476562,783.2966918945312
1209,790.5494384765625,785.3113403320312,785.3113403320312,786.923095703125
1210,792.1611938476562,787.3259887695312,786.1171875,788.5347900390625
1211,793.3699340820312,787.3259887695312,794.981689453125,787.7289428710938
1212,800.2197875976562,786.1171875,787.3259887695312,785.7142944335938
1213,809.084228515625,789.3406372070312,781.2820434570312,791.7582397460938
1214,805.054931640625,792.967041015625,785.7142944335938,790.1465454101562
1215,794.1758422851562,792.5640869140625,783.6996459960938,782.087890625
1216,791.3552856445312,790.1465454101562,790.1465454101562,782.893798828125
1217,795.7875366210938,790.1465454101562,798.2051391601562,783.6996459960938
1218,798.6080322265625,788.937744140625,794.1758422851562,786.1171875
1219,797.8021850585938,787.7289428710938,790.5494384765625,787.3259887695312
1220,793.3699340820312,789.7435913085938,793.3699340820312,788.1318969726562
1221,787.7289428710938,784.5054931640625,796.1904907226562,789.3406372070312
1222,784.908447265625,782.893798828125,797.8021850585938,794.1758422851562
1223,786.1171875,786.923095703125,790.5494384765625,797.3992919921875
1224,785.7142944335938,786.5201416015625,788.937744140625,792.5640869140625
1225,780.4761962890625,785.3113403320312,793.3699340820312,782.893798828125
1226,778.4615478515625,788.1318969726562,794.981689453125,786.1171875
1227,782.4908447265625,789.3406372070312,792.967041015625,789.3406372070312
1228,787.3259887695312,787.7289428710938,795.7875366210938,790.5494384765625
1229,786.923095703125,785.7142944335938,799.8168334960938,790.1465454101562
1230,783.2966918945312,787.7289428710938,797.8021850585938,794.1758422851562
1231,786.5201416015625,792.967041015625,797.8021850585938,796.1904907226562
1232,793.7728881835938,794.981689453125,798.2051391601562,799.4139404296875
1233,796.996337890625,788.5347900390625,802.2344360351562,810.2930297851562
1234,794.981689453125,795.3846435546875,805.8607788085938,803.040283203125
1235,788.937744140625,799.4139404296875,794.981689453125,791.3552856445312
1236,786.1171875,790.5494384765625,787.7289428710938,791.3552856445312
1237,790.952392578125,790.1465454101562,786.1171875,794.1758422851562
1238,794.5787353515625,792.1611938476562,785.7142944335938,792.967041015625
1239,798.2051391601562,794.1758422851562,790.952392578125,793.7728881835938
1240,799.4139404296875,792.1611938476562,789.7435913085938,794.1758422851562
1241,792.1611938476562,790.1465454101562,780.879150390625,786.5201416015625
1242,792.967041015625,793.7728881835938,779.6703491210938,784.1025390625
1243,795.7875366210938,792.967041015625,781.2820434570312,786.5201416015625
1244,798.2051391601562,788.5347900390625,785.7142944335938,794.5787353515625
1245,799.8168334960938,794.981689453125,786.5201416015625,798.6080322265625
1246,793.3699340820312,790.1465454101562,784.908447265625,786.5201416015625
1247,792.1611938476562,785.7142944335938,786.5201416015625,779.6703491210938
1248,795.7875366210938,794.5787353515625,785.7142944335938,783.2966918945312
1249,794.981689453125,796.5933837890625,788.1318969726562,784.5054931640625
1250,789.7435913085938,795.3846435546875,788.5347900390625,781.2820434570312
1251,788.937744140625,790.1465454101562,783.6996459960938,781.6849975585938
1252,792.5640869140625,785.3113403320312,788.937744140625,791.7582397460938
1253,794.5787353515625,790.952392578125,793.3699340820312,795.7875366210938
1254,792.1611938476562,792.1611938476562,790.1465454101562,789.7435913085938
1255,789.7435913085938,791.3552856445312,789.7435913085938,789.3406372070312
1256,789.3406372070312,795.3846435546875,786.5201416015625,801.4285888671875
1257,788.1318969726562,797.8021850585938,786.923095703125,799.8168334960938
1258,790.1465454101562,791.3552856445312,793.7728881835938,795.3846435546875
1259,793.7728881835938,789.3406372070312,788.937744140625,795.7875366210938
1260,792.1611938476562,790.952392578125,788.1318969726562,788.937744140625
1261,787.3259887695312,788.5347900390625,789.7435913085938,783.2966918945312
1262,787.7289428710938,788.937744140625,787.7289428710938,784.5054931640625
1263,790.952392578125,794.981689453125,788.937744140625,783.2966918945312
1264,789.7435913085938,795.3846435546875,788.937744140625,780.0732421875
1265,790.5494384765625,794.1758422851562,787.7289428710938,783.6996459960938
1266,790.1465454101562,792.5640869140625,786.5201416015625,789.7435913085938
1267,786.923095703125,793.3699340820312,786.1171875,790.952392578125
1268,792.967041015625,795.7875366210938,784.908447265625,784.908447265625
1269,789.7435913085938,794.5787353515625,781.6849975585938,778.4615478515625
1270,787.3259887695312,790.952392578125,786.1171875,780.879150390625
1271,789.7435913085938,788.937744140625,788.5347900390625,785.7142944335938
1272,787.3259887695312,790.1465454101562,786.1171875,780.4761962890625
1273,787.7289428710938,790.952392578125,787.3259887695312,780.0732421875
1274,786.923095703125,791.3552856445312,787.7289428710938,781.6849975585938
1275,792.5640869140625,794.5787353515625,786.5201416015625,788.5347900390625
1276,793.7728881835938,795.7875366210938,788.937744140625,790.5494384765625
1277,792.1611938476562,795.3846435546875,795.3846435546875,784.5054931640625
1278,792.5640869140625,796.996337890625,797.8021850585938,788.5347900390625
1279,791.3552856445312,795.3846435546875,794.981689453125,793.3699340820312
1280,791.3552856445312,792.5640869140625,790.1465454101562,788.1318969726562
1281,788.937744140625,792.5640869140625,792.1611938476562,789.3406372070312
1282,788.1318969726562,792.5640869140625,797.8021850585938,794.981689453125
1283,789.7435913085938,794.981689453125,796.996337890625,794.1758422851562
1284,791.7582397460938,798.2051391601562,797.3992919921875,792.1611938476562
1285,794.5787353515625,796.5933837890625,801.025634765625,796.1904907226562
1286,796.996337890625,794.5787353515625,798.6080322265625,794.5787353515625
1287,794.1758422851562,794.981689453125,796.996337890625,790.952392578125
1288,790.952392578125,791.7582397460938,797.3992919921875,790.1465454101562
1289,790.952392578125,790.5494384765625,795.7875366210938,789.3406372070312
1290,792.5640869140625,791.7582397460938,793.3699340820312,787.3259887695312
1291,786.923095703125,794.981689453125,788.1318969726562,786.923095703125
1292,777.2527465820312,792.967041015625,783.6996459960938,778.05859375
1293,782.893798828125,790.5494384765625,789.3406372070312,776.4468994140625
1294,793.7728881835938,792.1611938476562,795.7875366210938,788.1318969726562
1295,791.3552856445312,796.5933837890625,789.3406372070312,784.1025390625
1296,788.1318969726562,797.8021850585938,781.2820434570312,778.05859375
1297,788.937744140625,794.981689453125,788.1318969726562,787.7289428710938
1298,787.7289428710938,798.2051391601562,788.5347900390625,792.5640869140625
1299,789.3406372070312,796.5933837890625,784.908447265625,786.5201416015625
1300,796.996337890625,791.3552856445312,791.7582397460938,785.3113403320312
1301,799.8168334960938,791.3552856445312,798.2051391601562,788.1318969726562
1302,793.7728881835938,794.5787353515625,803.8461303710938,790.5494384765625
1303,787.3259887695312,797.8021850585938,807.069580078125,790.5494384765625
1304,783.6996459960938,797.3992919921875,796.1904907226562,788.1318969726562
1305,788.1318969726562,796.996337890625,796.5933837890625,791.7582397460938
1306,799.010986328125,799.8168334960938,801.8314819335938,806.2637329101562
1307,798.2051391601562,799.010986328125,796.5933837890625,801.025634765625
1308,796.1904907226562,796.1904907226562,796.1904907226562,792.1611938476562
1309,800.2197875976562,796.996337890625,798.2051391601562,796.5933837890625
1310,797.8021850585938,792.967041015625,797.8021850585938,796.996337890625
1311,799.4139404296875,787.7289428710938,797.3992919921875,794.981689453125
1312,799.010986328125,789.7435913085938,795.7875366210938,795.3846435546875
1313,791.3552856445312,790.5494384765625,796.1904907226562,796.5933837890625
1314,793.7728881835938,793.7728881835938,801.025634765625,800.2197875976562
1315,799.010986328125,797.3992919921875,796.996337890625,804.6520385742188
1316,796.5933837890625,791.3552856445312,796.996337890625,801.8314819335938
1317,792.967041015625,790.1465454101562,799.8168334960938,799.8168334960938
1318,790.1465454101562,795.3846435546875,801.4285888671875,797.3992919921875
1319,788.5347900390625,796.5933837890625,801.8314819335938,788.1318969726562
1320,790.952392578125,794.981689453125,796.5933837890625,785.7142944335938
1321,790.1465454101562,792.1611938476562,790.1465454101562,784.1025390625
1322,788.937744140625,793.7728881835938,792.1611938476562,791.3552856445312
1323,786.5201416015625,793.3699340820312,793.7728881835938,791.3552856445312
1324,781.2820434570312,791.7582397460938,790.5494384765625,783.6996459960938
1325,783.2966918945312,791.7582397460938,789.3406372070312,782.893798828125
1326,791.3552856445312,793.3699340820312,790.952392578125,788.1318969726562
1327,794.5787353515625,797.8021850585938,789.3406372070312,788.937744140625
1328,788.937744140625,794.1758422851562,781.6849975585938,784.1025390625
1329,789.7435913085938,791.3552856445312,788.937744140625,794.1758422851562
1330,798.2051391601562,793.3699340820312,793.7728881835938,795.7875366210938
1331,807.069580078125,792.1611938476562,790.5494384765625,791.7582397460938
1332,806.2637329101562,795.3846435546875,791.7582397460938,790.952392578125
1333,799.8168334960938,799.010986328125,791.3552856445312,790.5494384765625
1334,791.7582397460938,793.7728881835938,787.7289428710938,788.5347900390625
1335,796.5933837890625,789.3406372070312,787.7289428710938,788.5347900390625
1336,803.4432373046875,787.7289428710938,789.3406372070312,794.5787353515625
1337,803.4432373046875,786.923095703125,790.1465454101562,797.3992919921875
1338,799.4139404296875,789.7435913085938,796.996337890625,793.7728881835938
1339,791.3552856445312,790.5494384765625,800.6226806640625,786.923095703125
1340,792.1611938476562,787.3259887695312,796.996337890625,793.3699340820312
1341,794.5787353515625,786.5201416015625,792.967041015625,798.2051391601562
1342,783.2966918945312,786.5201416015625,789.7435913085938,785.7142944335938
1343,777.2527465820312,784.908447265625,786.923095703125,779.6703491210938
1344,779.6703491210938,785.7142944335938,788.5347900390625,783.6996459960938
1345,785.3113403320312,787.3259887695312,794.981689453125,786.923095703125
1346,791.7582397460938,786.923095703125,799.010986328125,785.7142944335938
1347,788.5347900390625,788.937744140625,796.5933837890625,783.2966918945312
1348,790.1465454101562,794.5787353515625,793.3699340820312,788.1318969726562
1349,788.5347900390625,796.1904907226562,793.3699340820312,784.908447265625
1350,787.7289428710938,793.3699340820312,792.5640869140625,783.6996459960938
1351,793.7728881835938,795.3846435546875,792.967041015625,789.3406372070312
1352,790.1465454101562,793.3699340820312,791.3552856445312,790.1465454101562
1353,786.5201416015625,796.1904907226562,786.1171875,786.1171875
1354,793.3699340820312,801.025634765625,789.7435913085938,783.2966918945312
1355,793.7728881835938,799.010986328125,790.952392578125,786.923095703125
1356,793.3699340820312,797.3992919921875,793.3699340820312,790.5494384765625
1357,792.5640869140625,795.7875366210938,795.7875366210938,787.7289428710938
1358,792.1611938476562,793.3699340820312,790.5494384765625,786.1171875
1359,792.967041015625,793.7728881835938,788.937744140625,790.952392578125
1360,793.7728881835938,799.010986328125,791.7582397460938,786.923095703125
1361,803.8461303710938,801.8314819335938,796.1904907226562,790.5494384765625
1362,810.2930297851562,797.8021850585938,798.6080322265625,796.1904907226562
1363,803.8461303710938,796.1904907226562,796.996337890625,793.3699340820312
1364,797.3992919921875,794.981689453125,792.5640869140625,791.3552856445312
1365,799.4139404296875,795.3846435546875,794.981689453125,792.967041015625
1366,803.4432373046875,797.8021850585938,796.5933837890625,793.3699340820312
1367,804.2490844726562,793.7728881835938,798.6080322265625,796.996337890625
1368,796.1904907226562,788.937744140625,801.8314819335938,796.1904907226562
1369,790.5494384765625,793.3699340820312,801.8314819335938,790.1465454101562
1370,794.981689453125,794.981689453125,803.040283203125,789.3406372070312
1371,797.3992919921875,792.967041015625,803.8461303710938,789.7435913085938
1372,794.5787353515625,791.7582397460938,802.6373901367188,787.7289428710938
1373,790.1465454101562,792.5640869140625,803.040283203125,785.7142944335938
1374,787.3259887695312,793.7728881835938,800.6226806640625,786.5201416015625
1375,789.3406372070312,792.1611938476562,797.3992919921875,792.5640869140625
1376,790.1465454101562,790.5494384765625,798.6080322265625,791.3552856445312
1377,796.1904907226562,787.3259887695312,799.010986328125,792.5640869140625
1378,798.6080322265625,789.7435913085938,795.3846435546875,792.967041015625
1379,795.3846435546875,794.981689453125,797.8021850585938,784.5054931640625
1380,793.7728881835938,794.981689453125,799.4139404296875,785.3113403320312
1381,793.3699340820312,792.967041015625,792.967041015625,790.1465454101562
1382,794.981689453125,794.981689453125,794.1758422851562,786.5201416015625
1383,794.5787353515625,798.2051391601562,799.010986328125,783.2966918945312
1384,792.1611938476562,794.1758422851562,798.2051391601562,782.4908447265625
1385,788.1318969726562,791.3552856445312,795.3846435546875,780.879150390625
1386,788.937744140625,791.3552856445312,795.3846435546875,786.923095703125
1387,790.952392578125,787.7289428710938,792.967041015625,783.6996459960938
1388,791.3552856445312,787.7289428710938,789.7435913085938,773.2234497070312
1389,796.1904907226562,788.937744140625,796.1904907226562,778.4615478515625
1390,797.3992919921875,788.937744140625,796.1904907226562,789.7435913085938
1391,795.3846435546875,790.1465454101562,789.3406372070312,790.952392578125
1392,792.5640869140625,788.5347900390625,787.7289428710938,783.2966918945312
1393,793.3699340820312,786.5201416015625,786.1171875,776.8497924804688
1394,787.7289428710938,786.923095703125,787.7289428710938,773.2234497070312
1395,784.1025390625,792.5640869140625,791.3552856445312,773.6264038085938
1396,784.1025390625,793.3699340820312,788.937744140625,776.4468994140625
1397,784.908447265625,786.923095703125,792.5640869140625,776.4468994140625
1398,788.5347900390625,789.3406372070312,793.3699340820312,780.4761962890625
1399,783.2966918945312,792.5640869140625,786.5201416015625,778.8644409179688
1400,775.2380981445312,788.1318969726562,783.6996459960938,771.2088012695312
1401,775.6410522460938,788.1318969726562,788.1318969726562,777.2527465820312
1402,779.6703491210938,790.1465454101562,789.3406372070312,782.893798828125
1403,780.4761962890625,794.5787353515625,790.1465454101562,780.4761962890625
1404,788.937744140625,796.1904907226562,796.5933837890625,782.4908447265625
1405,791.3552856445312,794.1758422851562,801.4285888671875,788.5347900390625
1406,786.5201416015625,792.967041015625,796.996337890625,788.5347900390625
1407,791.3552856445312,796.1904907226562,798.2051391601562,789.7435913085938
1408,796.5933837890625,798.6080322265625,799.010986328125,793.3699340820312
1409,796.1904907226562,796.1904907226562,799.010986328125,799.4139404296875
1410,794.1758422851562,798.2051391601562,801.025634765625,803.8461303710938
1411,794.5787353515625,801.025634765625,796.996337890625,803.4432373046875
1412,796.5933837890625,799.010986328125,792.5640869140625,800.6226806640625
1413,802.6373901367188,795.7875366210938,794.1758422851562,803.040283203125
1414,799.4139404296875,794.981689453125,791.7582397460938,801.8314819335938
1415,791.7582397460938,799.010986328125,787.3259887695312,790.952392578125
1416,792.1611938476562,801.8314819335938,792.5640869140625,787.7289428710938
1417,793.7728881835938,796.5933837890625,795.7875366210938,790.1465454101562
1418,794.5787353515625,794.1758422851562,798.2051391601562,790.1465454101562
1419,793.3699340820312,797.3992919921875,797.8021850585938,788.937744140625
1420,786.5201416015625,794.1758422851562,795.7875366210938,785.3113403320312
1421,783.2966918945312,791.3552856445312,792.1611938476562,779.2673950195312
1422,784.5054931640625,790.1465454101562,788.937744140625,776.8497924804688
1423,786.5201416015625,790.952392578125,791.7582397460938,779.2673950195312
1424,790.5494384765625,791.3552856445312,797.8021850585938,784.5054931640625
1425,784.908447265625,788.1318969726562,801.025634765625,786.923095703125
1426,780.0732421875,788.937744140625,796.1904907226562,780.0732421875
1427,786.1171875,789.3406372070312,792.1611938476562,782.4908447265625
1428,791.3552856445312,787.7289428710938,796.5933837890625,787.7289428710938
1429,788.5347900390625,785.3113403320312,797.3992919921875,780.879150390625
1430,782.4908447265625,786.5201416015625,796.996337890625,777.6557006835938
1431,789.3406372070312,795.3846435546875,794.981689453125,781.6849975585938
1432,795.3846435546875,794.981689453125,796.996337890625,785.3113403320312
1433,796.5933837890625,794.981689453125,803.040283203125,790.1465454101562
1434,796.1904907226562,796.1904907226562,798.2051391601562,791.7582397460938
1435,788.937744140625,793.7728881835938,795.3846435546875,784.1025390625
1436,788.1318969726562,792.967041015625,792.967041015625,781.2820434570312
1437,790.5494384765625,788.937744140625,792.5640869140625,785.7142944335938
1438,795.7875366210938,790.952392578125,796.5933837890625,791.3552856445312
1439,803.040283203125,793.7728881835938,798.6080322265625,790.1465454101562
1440,803.040283203125,798.6080322265625,799.4139404296875,787.7289428710938
1441,803.4432373046875,795.7875366210938,801.4285888671875,792.5640869140625
1442,807.4725341796875,792.1611938476562,801.8314819335938,792.967041015625
1443,807.87548828125,796.996337890625,806.6666870117188,796.996337890625
1444,802.2344360351562,798.6080322265625,806.2637329101562,799.010986328125
1445,802.6373901367188,801.025634765625,801.8314819335938,798.2051391601562
1446,799.4139404296875,797.3992919921875,801.8314819335938,795.3846435546875
1447,796.5933837890625,793.7728881835938,799.4139404296875,788.937744140625
1448,796.1904907226562,793.7728881835938,799.4139404296875,792.5640869140625
1449,796.996337890625,791.3552856445312,801.025634765625,790.5494384765625
1450,796.5933837890625,794.1758422851562,800.6226806640625,790.1465454101562
1451,791.3552856445312,795.3846435546875,803.4432373046875,792.1611938476562
1452,786.1171875,796.5933837890625,802.2344360351562,787.3259887695312
1453,787.3259887695312,794.1758422851562,797.8021850585938,788.5347900390625
1454,788.5347900390625,792.1611938476562,793.7728881835938,791.7582397460938
1455,784.1025390625,792.1611938476562,796.1904907226562,787.7289428710938
1456,782.893798828125,792.5640869140625,797.8021850585938,785.7142944335938
1457,785.3113403320312,793.3699340820312,798.6080322265625,786.5201416015625
1458,788.937744140625,792.1611938476562,797.3992919921875,786.1171875
1459,799.010986328125,792.1611938476562,798.2051391601562,790.5494384765625
1460,799.8168334960938,792.967041015625,797.8021850585938,794.1758422851562
1461,788.5347900390625,786.5201416015625,792.967041015625,784.908447265625
1462,790.952392578125,782.893798828125,797.3992919921875,782.893798828125
1463,798.2051391601562,790.1465454101562,799.8168334960938,790.1465454101562
1464,799.010986328125,790.1465454101562,798.6080322265625,790.1465454101562
1465,798.6080322265625,789.3406372070312,797.3992919921875,789.3406372070312
1466,798.6080322265625,799.8168334960938,796.5933837890625,789.3406372070312
1467,800.6226806640625,803.8461303710938,796.1904907226562,795.7875366210938
1468,803.040283203125,801.4285888671875,796.1904907226562,796.1904907226562
1469,799.4139404296875,800.2197875976562,789.7435913085938,786.1171875
1470,794.981689453125,794.1758422851562,790.5494384765625,785.3113403320312
1471,787.7289428710938,792.5640869140625,794.5787353515625,792.967041015625
1472,787.7289428710938,796.996337890625,794.5787353515625,791.3552856445312
1473,794.981689453125,797.8021850585938,794.5787353515625,785.3113403320312
1474,797.3992919921875,801.025634765625,791.3552856445312,792.1611938476562
1475,796.5933837890625,798.2051391601562,791.7582397460938,794.5787353515625
1476,793.7728881835938,793.3699340820312,796.5933837890625,788.5347900390625
1477,790.5494384765625,792.1611938476562,793.3699340820312,788.937744140625
1478,786.5201416015625,788.1318969726562,786.5201416015625,788.937744140625
1479,786.923095703125,785.7142944335938,784.908447265625,787.3259887695312
1480,788.1318969726562,784.908447265625,782.4908447265625,784.908447265625
1481,788.937744140625,787.3259887695312,783.6996459960938,785.7142944335938
1482,784.1025390625,790.1465454101562,788.1318969726562,786.5201416015625
1483,784.908447265625,790.5494384765625,787.3259887695312,792.1611938476562
1484,786.5201416015625,784.5054931640625,788.937744140625,790.1465454101562
1485,786.5201416015625,779.6703491210938,788.5347900390625,783.6996459960938
1486,790.1465454101562,785.7142944335938,790.1465454101562,788.5347900390625
1487,788.1318969726562,786.5201416015625,795.3846435546875,792.5640869140625
1488,787.7289428710938,782.893798828125,788.937744140625,782.893798828125
1489,787.3259887695312,787.7289428710938,782.893798828125,782.893798828125
1490,786.923095703125,795.7875366210938,786.5201416015625,789.7435913085938
1491,786.5201416015625,793.3699340820312,791.3552856445312,789.3406372070312
1492,783.2966918945312,790.5494384765625,790.5494384765625,785.7142944335938
1493,785.3113403320312,790.1465454101562,790.1465454101562,785.3113403320312
1494,786.5201416015625,786.923095703125,792.967041015625,787.7289428710938
1495,785.3113403320312,793.3699340820312,789.3406372070312,787.7289428710938
1496,787.3259887695312,798.2051391601562,788.1318969726562,783.6996459960938
1497,785.7142944335938,794.981689453125,789.3406372070312,784.1025390625
1498,786.1171875,793.7728881835938,796.996337890625,794.1758422851562
1499,789.7435913085938,796.996337890625,799.8168334960938,792.1611938476562
1500,790.1465454101562,795.7875366210938,797.8021850585938,787.7289428710938
1501,789.3406372070312,789.3406372070312,801.4285888671875,790.1465454101562
1502,785.3113403320312,790.5494384765625,801.4285888671875,792.967041015625
1503,784.1025390625,793.3699340820312,800.2197875976562,794.1758422851562
1504,789.7435913085938,790.5494384765625,802.2344360351562,792.5640869140625
1505,792.1611938476562,792.967041015625,803.4432373046875,788.5347900390625
1506,788.937744140625,798.6080322265625,801.4285888671875,783.2966918945312
1507,783.2966918945312,801.4285888671875,794.981689453125,782.087890625
1508,784.1025390625,800.2197875976562,789.3406372070312,782.893798828125
1509,789.3406372070312,798.6080322265625,789.7435913085938,789.3406372070312
1510,792.5640869140625,794.5787353515625,790.1465454101562,789.3406372070312
1511,800.6226806640625,794.981689453125,796.5933837890625,784.1025390625
1512,800.2197875976562,798.2051391601562,797.3992919921875,783.2966918945312
1513,799.8168334960938,796.5933837890625,790.952392578125,781.6849975585938
1514,804.2490844726562,794.5787353515625,793.3699340820312,786.923095703125
1515,805.4578857421875,790.5494384765625,792.967041015625,793.3699340820312
1516,806.2637329101562,791.3552856445312,795.3846435546875,794.1758422851562
1517,805.8607788085938,793.7728881835938,801.8314819335938,789.7435913085938
1518,801.025634765625,788.937744140625,794.5787353515625,782.893798828125
1519,796.996337890625,788.937744140625,788.937744140625,782.893798828125
1520,798.2051391601562,792.1611938476562,790.952392578125,788.937744140625
1521,800.6226806640625,785.3113403320312,792.1611938476562,794.5787353515625
1522,794.5787353515625,784.5054931640625,794.1758422851562,789.3406372070312
1523,789.7435913085938,792.1611938476562,792.967041015625,783.6996459960938
1524,792.1611938476562,791.7582397460938,790.1465454101562,787.3259887695312
1525,794.5787353515625,786.5201416015625,792.5640869140625,791.7582397460938
1526,790.5494384765625,784.5054931640625,792.5640869140625,782.087890625
1527,790.1465454101562,786.923095703125,792.5640869140625,786.1171875
1528,788.937744140625,783.2966918945312,792.967041015625,791.3552856445312
1529,781.6849975585938,782.4908447265625,791.7582397460938,780.4761962890625
1530,777.6557006835938,780.4761962890625,793.7728881835938,772.4176025390625
1531,781.6849975585938,781.6849975585938,790.952392578125,777.2527465820312
1532,784.5054931640625,784.1025390625,792.967041015625,783.6996459960938
1533,777.6557006835938,783.2966918945312,792.5640869140625,778.4615478515625
1534,776.4468994140625,788.937744140625,786.923095703125,776.4468994140625
1535,777.6557006835938,788.5347900390625,788.5347900390625,778.05859375
1536,781.6849975585938,786.5201416015625,788.937744140625,781.6849975585938
1537,784.1025390625,786.5201416015625,789.7435913085938,780.4761962890625
1538,778.4615478515625,786.1171875,792.967041015625,777.2527465820312
1539,780.4761962890625,788.937744140625,793.3699340820312,778.8644409179688
1540,787.3259887695312,788.937744140625,790.1465454101562,776.0439453125
1541,789.3406372070312,783.6996459960938,791.3552856445312,780.0732421875
1542,785.3113403320312,785.7142944335938,792.5640869140625,786.1171875
1543,784.5054931640625,792.1611938476562,789.3406372070312,784.1025390625
1544,788.1318969726562,787.7289428710938,792.967041015625,795.3846435546875
1545,796.1904907226562,790.1465454101562,794.1758422851562,799.010986328125
1546,799.4139404296875,795.3846435546875,793.3699340820312,788.5347900390625
1547,796.1904907226562,795.3846435546875,791.7582397460938,784.908447265625
1548,794.5787353515625,797.3992919921875,790.952392578125,786.1171875
1549,788.1318969726562,793.7728881835938,793.7728881835938,786.5201416015625
1550,788.937744140625,790.1465454101562,795.3846435546875,784.1025390625
1551,792.967041015625,795.7875366210938,795.7875366210938,786.5201416015625
1552,793.3699340820312,794.5787353515625,796.996337890625,788.1318969726562
1553,791.3552856445312,790.1465454101562,798.2051391601562,786.923095703125
1554,792.967041015625,792.5640869140625,792.967041015625,782.087890625
1555,794.981689453125,793.3699340820312,790.1465454101562,784.908447265625
1556,794.1758422851562,794.5787353515625,788.1318969726562,792.1611938476562
1557,795.3846435546875,796.1904907226562,785.7142944335938,786.923095703125
1558,793.3699340820312,795.3846435546875,788.937744140625,786.923095703125
1559,790.1465454101562,794.1758422851562,787.7289428710938,788.1318969726562
1560,789.3406372070312,796.5933837890625,789.3406372070312,788.1318969726562
1561,791.7582397460938,794.1758422851562,789.7435913085938,788.5347900390625
1562,794.981689453125,793.3699340820312,786.1171875,784.5054931640625
1563,793.3699340820312,798.2051391601562,782.893798828125,786.1171875
1564,787.7289428710938,797.3992919921875,785.3113403320312,786.1171875
1565,789.3406372070312,798.6080322265625,788.5347900390625,787.7289428710938
1566,793.3699340820312,796.5933837890625,791.3552856445312,794.1758422851562
1567,787.7289428710938,791.7582397460938,789.3406372070312,794.981689453125
1568,782.4908447265625,787.7289428710938,785.7142944335938,788.1318969726562
1569,781.6849975585938,782.893798828125,791.7582397460938,788.1318969726562
1570,781.6849975585938,792.5640869140625,792.5640869140625,790.5494384765625
1571,785.7142944335938,798.2051391601562,791.7582397460938,790.5494384765625
1572,795.3846435546875,791.7582397460938,795.7875366210938,795.3846435546875
1573,794.1758422851562,791.7582397460938,792.5640869140625,793.3699340820312
1574,790.1465454101562,792.5640869140625,794.5787353515625,788.5347900390625
1575,793.7728881835938,793.3699340820312,800.6226806640625,791.7582397460938
1576,797.8021850585938,797.3992919921875,798.2051391601562,798.2051391601562
1577,795.3846435546875,796.5933837890625,796.5933837890625,793.7728881835938
1578,789.7435913085938,793.7728881835938,796.996337890625,786.5201416015625
1579,786.923095703125,791.7582397460938,793.3699340820312,782.893798828125
1580,788.937744140625,788.1318969726562,788.1318969726562,787.3259887695312
1581,787.7289428710938,786.1171875,788.5347900390625,785.7142944335938
1582,787.7289428710938,784.908447265625,784.1025390625,788.1318969726562
1583,788.5347900390625,788.5347900390625,782.087890625,789.3406372070312
1584,796.996337890625,794.5787353515625,784.1025390625,784.1025390625
1585,803.4432373046875,794.1758422851562,788.5347900390625,787.7289428710938
