timestamp,RAW_TP9,RAW_AF7,RAW_AF8,RAW_TP10
1,790.952392578125,803.4432373046875,802.6373901367188,782.087890625
2,784.1025390625,805.4578857421875,807.87548828125,790.952392578125
3,786.1171875,804.6520385742188,800.2197875976562,801.4285888671875
4,778.8644409179688,801.4285888671875,801.025634765625,785.3113403320312
5,778.8644409179688,801.4285888671875,807.87548828125,780.879150390625
6,782.4908447265625,797.8021850585938,800.6226806640625,781.2820434570312
7,769.1941528320312,793.3699340820312,801.4285888671875,758.7179565429688
8,759.120849609375,797.8021850585938,799.010986328125,747.032958984375
9,757.106201171875,806.6666870117188,801.8314819335938,750.6593627929688
10,738.974365234375,805.8607788085938,803.040283203125,738.1685180664062
11,718.02197265625,805.8607788085938,809.084228515625,720.8424682617188
12,704.3223266601562,816.3369750976562,816.7399291992188,715.2014770507812
13,694.2490844726562,820.3662719726562,817.94873046875,699.89013671875
14,683.3699340820312,820.7692260742188,815.5311279296875,684.5787353515625
15,670.4761962890625,824.3956298828125,821.5750732421875,674.5054931640625
16,662.0146484375,822.3809814453125,831.6483764648438,653.9560546875
17,661.6116943359375,819.5604248046875,827.6190185546875,659.1941528320312
18,658.3883056640625,820.7692260742188,829.2307739257812,658.7911987304688
19,660.0,829.2307739257812,835.6776733398438,659.1941528320312
20,673.6996459960938,823.1868286132812,835.2747192382812,668.4615478515625
21,679.7435913085938,811.90478515625,831.6483764648438,670.0732421875
22,671.6849975585938,823.5897216796875,830.03662109375,676.5201416015625
23,674.908447265625,834.4688720703125,826.8131713867188,685.7875366210938
24,691.025634765625,833.2600708007812,828.02197265625,693.8461303710938
25,697.4725341796875,829.2307739257812,831.2454223632812,698.6813354492188
26,711.97802734375,828.4249267578125,819.96337890625,711.5750732421875
27,729.3040161132812,829.6337280273438,813.5164794921875,728.09521484375
28,741.3919677734375,828.8278198242188,812.3076782226562,743.003662109375
29,752.6740112304688,817.1428833007812,804.6520385742188,755.4945068359375
30,768.7911987304688,802.2344360351562,799.8168334960938,774.029296875
31,776.4468994140625,792.5640869140625,798.6080322265625,787.7289428710938
32,778.4615478515625,793.7728881835938,796.996337890625,787.3259887695312
33,795.3846435546875,798.6080322265625,790.1465454101562,796.5933837890625
34,805.8607788085938,794.981689453125,785.7142944335938,815.1282348632812
35,812.3076782226562,785.7142944335938,784.5054931640625,824.3956298828125
36,823.5897216796875,783.2966918945312,781.2820434570312,826.00732421875
37,830.03662109375,783.6996459960938,779.2673950195312,830.03662109375
38,829.6337280273438,785.3113403320312,778.05859375,841.3186645507812
39,833.2600708007812,781.6849975585938,782.4908447265625,844.945068359375
40,844.5421142578125,776.4468994140625,785.3113403320312,851.7948608398438
41,846.5567626953125,778.4615478515625,779.2673950195312,851.7948608398438
42,845.3479614257812,781.2820434570312,776.4468994140625,847.7655639648438
43,847.7655639648438,777.2527465820312,774.4322509765625,844.1392211914062
44,847.7655639648438,778.05859375,771.6116943359375,838.901123046875
45,849.3773193359375,780.0732421875,771.2088012695312,841.3186645507812
46,857.032958984375,776.4468994140625,769.1941528320312,847.3626098632812
47,860.6593627929688,778.8644409179688,767.5823974609375,849.7802124023438
48,857.4359130859375,781.2820434570312,766.3735961914062,854.2124633789062
49,854.2124633789062,775.6410522460938,761.5384521484375,864.2857055664062
50,853.8095092773438,773.6264038085938,771.2088012695312,869.120849609375
51,853.8095092773438,777.2527465820312,775.2380981445312,854.6153564453125
52,856.6300659179688,778.05859375,770.0,847.7655639648438
53,857.8388061523438,776.0439453125,771.6116943359375,853.4066162109375
54,855.4212646484375,769.1941528320312,771.6116943359375,850.5860595703125
55,857.032958984375,772.8204956054688,776.8497924804688,857.8388061523438
56,857.4359130859375,781.2820434570312,776.8497924804688,863.076904296875
57,854.2124633789062,778.4615478515625,774.8351440429688,855.018310546875
58,848.1685180664062,774.029296875,775.2380981445312,843.3333129882812
59,847.7655639648438,780.4761962890625,780.0732421875,844.1392211914062
60,851.3919677734375,788.937744140625,785.3113403320312,857.032958984375
61,839.7069702148438,788.1318969726562,779.6703491210938,849.7802124023438
62,832.4542236328125,787.7289428710938,782.087890625,832.05126953125
63,844.1392211914062,787.3259887695312,787.7289428710938,829.2307739257812
64,848.974365234375,778.8644409179688,787.7289428710938,836.4835205078125
65,842.12451171875,782.4908447265625,784.908447265625,837.6923217773438
66,840.5128173828125,789.7435913085938,785.3113403320312,836.08056640625
67,840.5128173828125,784.908447265625,788.5347900390625,838.09521484375
68,838.09521484375,788.5347900390625,788.5347900390625,834.4688720703125
69,836.4835205078125,792.1611938476562,790.1465454101562,835.6776733398438
70,832.05126953125,789.7435913085938,794.1758422851562,832.05126953125
71,825.6043701171875,786.923095703125,786.1171875,821.5750732421875
72,821.5750732421875,781.2820434570312,782.893798828125,822.7838745117188
73,817.5457763671875,779.6703491210938,786.5201416015625,820.3662719726562
74,818.3516235351562,782.893798828125,784.1025390625,816.7399291992188
75,828.4249267578125,783.6996459960938,787.3259887695312,827.6190185546875
76,825.2014770507812,780.4761962890625,783.6996459960938,830.4395751953125
77,815.5311279296875,783.6996459960938,782.087890625,815.93408203125
78,817.1428833007812,783.6996459960938,787.7289428710938,807.4725341796875
79,819.5604248046875,781.6849975585938,791.7582397460938,814.7252807617188
80,820.7692260742188,784.908447265625,795.3846435546875,821.5750732421875
81,820.3662719726562,794.5787353515625,792.967041015625,816.3369750976562
82,816.7399291992188,798.6080322265625,789.3406372070312,805.054931640625
83,809.4871826171875,795.7875366210938,788.1318969726562,800.6226806640625
84,809.4871826171875,789.7435913085938,784.1025390625,797.8021850585938
85,809.89013671875,781.2820434570312,783.6996459960938,799.010986328125
86,809.4871826171875,788.937744140625,784.5054931640625,799.010986328125
87,810.6959838867188,793.3699340820312,779.2673950195312,795.7875366210938
88,813.5164794921875,790.5494384765625,780.0732421875,804.6520385742188
89,817.94873046875,790.952392578125,784.5054931640625,806.2637329101562
90,815.93408203125,791.7582397460938,783.2966918945312,801.8314819335938
91,814.7252807617188,794.981689453125,786.5201416015625,807.4725341796875
92,811.098876953125,792.1611938476562,788.5347900390625,809.4871826171875
93,805.8607788085938,791.3552856445312,784.5054931640625,802.6373901367188
94,803.8461303710938,797.3992919921875,784.908447265625,802.2344360351562
95,802.6373901367188,794.981689453125,786.5201416015625,802.2344360351562
96,803.4432373046875,787.7289428710938,789.3406372070312,796.1904907226562
97,801.8314819335938,791.7582397460938,795.7875366210938,798.6080322265625
98,804.2490844726562,792.1611938476562,795.3846435546875,811.098876953125
99,807.069580078125,781.6849975585938,791.3552856445312,818.7545776367188
100,802.6373901367188,780.0732421875,790.5494384765625,807.87548828125
101,801.4285888671875,787.7289428710938,794.1758422851562,803.8461303710938
102,804.2490844726562,789.7435913085938,791.7582397460938,809.4871826171875
103,807.4725341796875,786.923095703125,786.1171875,813.5164794921875
104,803.8461303710938,790.1465454101562,792.1611938476562,805.4578857421875
105,794.5787353515625,788.1318969726562,797.3992919921875,798.6080322265625
106,796.5933837890625,783.2966918945312,797.8021850585938,810.6959838867188
107,804.2490844726562,781.6849975585938,799.8168334960938,819.5604248046875
108,809.084228515625,786.5201416015625,799.010986328125,810.2930297851562
109,802.6373901367188,794.1758422851562,792.967041015625,798.6080322265625
110,804.6520385742188,794.5787353515625,789.7435913085938,803.8461303710938
111,809.89013671875,790.5494384765625,792.1611938476562,810.2930297851562
112,806.6666870117188,792.5640869140625,794.981689453125,804.6520385742188
113,807.4725341796875,791.3552856445312,795.3846435546875,803.040283203125
114,803.4432373046875,794.981689453125,791.7582397460938,803.040283203125
115,793.7728881835938,799.010986328125,790.5494384765625,799.4139404296875
116,793.3699340820312,791.3552856445312,790.1465454101562,793.7728881835938
117,799.010986328125,787.7289428710938,794.5787353515625,795.7875366210938
118,797.8021850585938,788.937744140625,792.5640869140625,792.1611938476562
119,794.1758422851562,786.923095703125,786.1171875,781.6849975585938
120,789.7435913085938,786.5201416015625,784.5054931640625,785.3113403320312
121,789.3406372070312,794.981689453125,789.3406372070312,786.923095703125
122,792.1611938476562,799.4139404296875,794.5787353515625,795.7875366210938
123,789.3406372070312,790.5494384765625,788.937744140625,796.996337890625
124,787.3259887695312,791.7582397460938,790.1465454101562,791.3552856445312
125,790.5494384765625,796.5933837890625,792.5640869140625,790.1465454101562
126,795.3846435546875,799.8168334960938,792.967041015625,792.1611938476562
127,794.5787353515625,800.6226806640625,794.1758422851562,797.3992919921875
128,790.5494384765625,800.6226806640625,790.952392578125,792.1611938476562
129,787.7289428710938,795.3846435546875,793.3699340820312,798.6080322265625
130,784.908447265625,782.4908447265625,799.8168334960938,799.010986328125
131,788.1318969726562,793.3699340820312,800.6226806640625,794.5787353515625
132,788.937744140625,807.069580078125,793.3699340820312,792.967041015625
133,786.5201416015625,798.6080322265625,792.1611938476562,792.5640869140625
134,786.1171875,787.7289428710938,794.981689453125,790.1465454101562
135,784.908447265625,782.893798828125,794.1758422851562,784.908447265625
136,790.952392578125,783.6996459960938,792.967041015625,794.5787353515625
137,799.8168334960938,786.923095703125,793.7728881835938,805.8607788085938
138,794.981689453125,789.7435913085938,792.967041015625,804.2490844726562
139,788.1318969726562,796.1904907226562,793.3699340820312,796.1904907226562
140,792.5640869140625,793.3699340820312,792.967041015625,790.952392578125
141,802.2344360351562,784.5054931640625,787.7289428710938,795.7875366210938
142,800.2197875976562,769.5970458984375,790.5494384765625,799.4139404296875
143,790.952392578125,774.4322509765625,796.1904907226562,791.7582397460938
144,788.1318969726562,796.1904907226562,798.6080322265625,792.1611938476562
145,788.5347900390625,796.996337890625,795.7875366210938,794.981689453125
146,786.923095703125,788.937744140625,794.1758422851562,789.3406372070312
147,790.5494384765625,785.3113403320312,795.7875366210938,792.1611938476562
148,795.7875366210938,790.1465454101562,797.8021850585938,796.5933837890625
149,795.3846435546875,788.5347900390625,797.8021850585938,788.937744140625
150,791.3552856445312,785.3113403320312,796.996337890625,786.5201416015625
151,793.3699340820312,787.3259887695312,798.2051391601562,788.5347900390625
152,791.7582397460938,786.1171875,792.1611938476562,784.5054931640625
153,790.952392578125,790.5494384765625,794.1758422851562,781.2820434570312
154,796.996337890625,795.3846435546875,795.7875366210938,780.4761962890625
155,795.7875366210938,791.3552856445312,789.7435913085938,784.908447265625
156,794.5787353515625,794.1758422851562,796.996337890625,784.5054931640625
157,799.4139404296875,796.5933837890625,800.2197875976562,787.3259887695312
158,797.3992919921875,797.8021850585938,798.6080322265625,792.967041015625
159,796.5933837890625,793.7728881835938,800.6226806640625,800.2197875976562
160,798.2051391601562,786.923095703125,797.8021850585938,803.4432373046875
161,793.7728881835938,790.1465454101562,794.5787353515625,797.3992919921875
162,792.1611938476562,794.1758422851562,791.7582397460938,794.5787353515625
163,794.1758422851562,791.7582397460938,788.937744140625,792.967041015625
164,792.967041015625,788.5347900390625,790.5494384765625,791.7582397460938
165,789.3406372070312,792.967041015625,789.3406372070312,787.7289428710938
166,790.952392578125,798.6080322265625,790.1465454101562,779.6703491210938
167,795.3846435546875,796.996337890625,790.1465454101562,774.4322509765625
168,792.1611938476562,796.1904907226562,790.952392578125,782.4908447265625
169,784.1025390625,798.6080322265625,799.8168334960938,788.1318969726562
170,785.3113403320312,795.3846435546875,801.025634765625,780.0732421875
171,790.5494384765625,800.6226806640625,799.8168334960938,785.7142944335938
172,790.952392578125,802.6373901367188,799.010986328125,800.6226806640625
173,787.3259887695312,794.5787353515625,794.5787353515625,791.3552856445312
174,783.2966918945312,791.7582397460938,790.5494384765625,783.6996459960938
175,783.2966918945312,794.1758422851562,790.5494384765625,789.7435913085938
176,785.7142944335938,795.3846435546875,792.967041015625,792.1611938476562
177,787.3259887695312,793.3699340820312,794.981689453125,790.952392578125
178,784.1025390625,792.967041015625,792.1611938476562,790.5494384765625
179,782.4908447265625,793.3699340820312,792.5640869140625,788.1318969726562
180,784.908447265625,793.7728881835938,796.1904907226562,791.3552856445312
181,786.1171875,794.5787353515625,796.5933837890625,789.7435913085938
182,786.5201416015625,794.981689453125,796.1904907226562,780.879150390625
183,790.952392578125,794.981689453125,799.4139404296875,787.7289428710938
184,788.1318969726562,789.3406372070312,804.6520385742188,792.967041015625
185,785.7142944335938,791.3552856445312,804.2490844726562,783.2966918945312
186,789.3406372070312,799.010986328125,801.4285888671875,789.7435913085938
187,791.7582397460938,794.981689453125,800.2197875976562,800.6226806640625
188,795.3846435546875,799.010986328125,802.6373901367188,796.5933837890625
189,792.1611938476562,801.8314819335938,808.6813354492188,790.952392578125
190,786.5201416015625,797.8021850585938,806.2637329101562,792.5640869140625
191,782.087890625,793.3699340820312,799.010986328125,787.7289428710938
192,782.893798828125,791.7582397460938,798.6080322265625,785.7142944335938
193,784.1025390625,788.5347900390625,798.2051391601562,787.3259887695312
194,778.8644409179688,787.3259887695312,793.3699340820312,780.4761962890625
195,780.879150390625,791.3552856445312,789.7435913085938,787.3259887695312
196,785.3113403320312,800.2197875976562,795.7875366210938,789.7435913085938
197,787.7289428710938,797.3992919921875,798.2051391601562,780.0732421875
198,790.5494384765625,791.3552856445312,788.937744140625,781.2820434570312
199,791.7582397460938,788.5347900390625,786.5201416015625,786.5201416015625
200,788.1318969726562,790.5494384765625,786.923095703125,780.879150390625
201,786.923095703125,791.7582397460938,782.893798828125,780.0732421875
202,790.952392578125,784.5054931640625,779.6703491210938,782.893798828125
203,791.7582397460938,784.1025390625,788.1318969726562,784.5054931640625
204,788.1318969726562,788.5347900390625,790.1465454101562,786.923095703125
205,784.5054931640625,793.3699340820312,790.1465454101562,788.1318969726562
206,785.7142944335938,794.981689453125,796.996337890625,791.3552856445312
207,791.7582397460938,794.1758422851562,796.5933837890625,800.6226806640625
208,789.3406372070312,793.7728881835938,796.5933837890625,793.7728881835938
209,787.3259887695312,792.5640869140625,797.3992919921875,788.937744140625
210,790.5494384765625,791.3552856445312,797.3992919921875,793.3699340820312
211,785.7142944335938,788.5347900390625,796.1904907226562,793.3699340820312
212,786.1171875,792.967041015625,794.1758422851562,794.5787353515625
213,792.5640869140625,786.1171875,793.3699340820312,790.952392578125
214,793.3699340820312,776.0439453125,792.1611938476562,790.952392578125
215,792.5640869140625,794.1758422851562,789.7435913085938,797.3992919921875
216,794.5787353515625,803.8461303710938,790.1465454101562,794.5787353515625
217,793.7728881835938,793.3699340820312,794.1758422851562,791.3552856445312
218,792.1611938476562,786.1171875,792.1611938476562,799.010986328125
219,790.5494384765625,788.5347900390625,792.1611938476562,800.6226806640625
220,795.3846435546875,790.5494384765625,790.5494384765625,801.025634765625
221,798.6080322265625,793.7728881835938,790.1465454101562,802.6373901367188
222,793.7728881835938,796.996337890625,796.1904907226562,801.025634765625
223,788.937744140625,795.7875366210938,792.967041015625,797.3992919921875
224,790.1465454101562,789.7435913085938,793.3699340820312,801.4285888671875
225,791.3552856445312,784.1025390625,799.8168334960938,804.6520385742188
226,789.3406372070312,795.3846435546875,801.025634765625,803.8461303710938
227,790.5494384765625,805.8607788085938,799.8168334960938,799.010986328125
228,798.2051391601562,798.6080322265625,798.6080322265625,796.996337890625
229,802.6373901367188,785.3113403320312,803.8461303710938,801.4285888671875
230,792.967041015625,774.8351440429688,801.025634765625,792.967041015625
231,785.3113403320312,781.6849975585938,796.5933837890625,782.087890625
232,784.5054931640625,784.5054931640625,799.010986328125,787.7289428710938
233,790.1465454101562,778.8644409179688,800.2197875976562,791.3552856445312
234,792.967041015625,782.087890625,801.4285888671875,791.3552856445312
235,787.7289428710938,784.908447265625,799.8168334960938,789.3406372070312
236,787.3259887695312,785.3113403320312,799.010986328125,792.1611938476562
237,792.1611938476562,786.1171875,799.010986328125,804.2490844726562
238,788.937744140625,786.1171875,796.1904907226562,804.2490844726562
239,786.5201416015625,786.923095703125,791.7582397460938,796.5933837890625
240,790.5494384765625,789.3406372070312,794.1758422851562,791.7582397460938
241,792.5640869140625,792.967041015625,793.7728881835938,788.937744140625
242,790.1465454101562,799.4139404296875,791.7582397460938,789.3406372070312
243,795.3846435546875,795.7875366210938,794.981689453125,790.5494384765625
244,801.4285888671875,785.3113403320312,796.1904907226562,794.1758422851562
245,794.981689453125,789.3406372070312,793.3699340820312,792.1611938476562
246,794.981689453125,790.952392578125,793.3699340820312,795.3846435546875
247,800.2197875976562,792.5640869140625,792.1611938476562,803.040283203125
248,798.2051391601562,793.7728881835938,790.1465454101562,798.2051391601562
249,799.4139404296875,792.967041015625,790.5494384765625,795.7875366210938
250,801.025634765625,796.996337890625,788.937744140625,799.010986328125
251,802.2344360351562,796.996337890625,788.937744140625,801.8314819335938
252,800.6226806640625,797.8021850585938,792.967041015625,804.2490844726562
253,803.4432373046875,803.4432373046875,796.1904907226562,804.2490844726562
254,803.8461303710938,801.4285888671875,794.981689453125,795.7875366210938
255,799.4139404296875,796.1904907226562,794.1758422851562,795.7875366210938
256,798.2051391601562,789.7435913085938,796.996337890625,803.040283203125
257,797.3992919921875,789.3406372070312,793.3699340820312,799.4139404296875
258,801.025634765625,795.3846435546875,789.3406372070312,793.3699340820312
259,800.2197875976562,800.6226806640625,794.5787353515625,794.5787353515625
260,798.6080322265625,801.8314819335938,797.3992919921875,795.3846435546875
261,792.5640869140625,796.5933837890625,796.1904907226562,788.1318969726562
262,790.5494384765625,790.952392578125,795.3846435546875,779.6703491210938
263,800.6226806640625,789.7435913085938,794.1758422851562,783.2966918945312
264,803.4432373046875,794.981689453125,796.5933837890625,794.981689453125
265,802.2344360351562,797.8021850585938,796.5933837890625,796.5933837890625
266,800.6226806640625,796.996337890625,796.5933837890625,796.1904907226562
267,794.5787353515625,792.1611938476562,795.7875366210938,793.7728881835938
268,790.952392578125,786.5201416015625,796.1904907226562,792.1611938476562
269,794.5787353515625,788.1318969726562,799.4139404296875,788.5347900390625
270,801.8314819335938,788.1318969726562,794.1758422851562,783.6996459960938
271,797.3992919921875,788.1318969726562,790.5494384765625,786.1171875
272,799.010986328125,788.5347900390625,790.952392578125,792.5640869140625
273,800.2197875976562,782.4908447265625,789.7435913085938,791.7582397460938
274,795.7875366210938,785.3113403320312,793.7728881835938,788.1318969726562
275,794.1758422851562,786.923095703125,794.1758422851562,789.7435913085938
276,791.7582397460938,788.5347900390625,791.3552856445312,797.8021850585938
277,794.5787353515625,794.1758422851562,797.3992919921875,797.8021850585938
278,796.5933837890625,793.7728881835938,797.8021850585938,791.7582397460938
279,797.3992919921875,789.3406372070312,792.1611938476562,794.5787353515625
280,800.6226806640625,787.3259887695312,792.967041015625,802.2344360351562
281,799.010986328125,788.937744140625,798.6080322265625,794.981689453125
282,796.5933837890625,792.5640869140625,801.025634765625,792.1611938476562
283,800.6226806640625,795.3846435546875,799.010986328125,796.996337890625
284,804.2490844726562,798.6080322265625,796.5933837890625,794.1758422851562
285,805.4578857421875,801.8314819335938,790.5494384765625,793.7728881835938
286,806.6666870117188,799.4139404296875,792.5640869140625,798.6080322265625
287,807.4725341796875,799.8168334960938,793.3699340820312,803.040283203125
288,810.6959838867188,798.6080322265625,793.7728881835938,806.2637329101562
289,812.7106323242188,795.7875366210938,795.7875366210938,803.040283203125
290,805.4578857421875,794.1758422851562,792.5640869140625,793.7728881835938
291,801.4285888671875,790.952392578125,790.1465454101562,796.1904907226562
292,802.6373901367188,791.3552856445312,792.967041015625,794.1758422851562
293,800.6226806640625,794.981689453125,794.981689453125,790.1465454101562
294,803.8461303710938,799.010986328125,797.8021850585938,797.8021850585938
295,807.87548828125,804.2490844726562,804.2490844726562,800.6226806640625
296,803.040283203125,801.8314819335938,801.025634765625,796.5933837890625
297,798.6080322265625,800.6226806640625,792.5640869140625,794.981689453125
298,796.1904907226562,797.3992919921875,795.3846435546875,795.3846435546875
299,792.1611938476562,792.1611938476562,799.4139404296875,789.3406372070312
300,794.981689453125,792.1611938476562,801.8314819335938,792.1611938476562
301,793.7728881835938,793.7728881835938,802.6373901367188,798.2051391601562
302,788.937744140625,794.981689453125,790.1465454101562,797.3992919921875
303,790.5494384765625,792.967041015625,788.937744140625,797.3992919921875
304,788.937744140625,789.7435913085938,795.3846435546875,789.7435913085938
305,784.1025390625,786.1171875,797.8021850585938,789.3406372070312
306,784.908447265625,792.1611938476562,801.025634765625,794.981689453125
307,784.908447265625,794.981689453125,795.3846435546875,788.5347900390625
308,784.1025390625,788.937744140625,794.981689453125,780.4761962890625
309,783.6996459960938,785.3113403320312,796.5933837890625,783.6996459960938
310,786.1171875,784.908447265625,793.7728881835938,787.7289428710938
311,793.3699340820312,787.7289428710938,794.5787353515625,790.1465454101562
312,793.7728881835938,793.3699340820312,796.5933837890625,789.7435913085938
313,792.967041015625,796.1904907226562,794.981689453125,792.1611938476562
314,794.5787353515625,796.5933837890625,792.1611938476562,794.1758422851562
315,790.952392578125,792.5640869140625,789.3406372070312,783.6996459960938
316,791.3552856445312,789.7435913085938,794.5787353515625,783.6996459960938
317,784.908447265625,785.7142944335938,795.7875366210938,787.3259887695312
318,778.8644409179688,781.6849975585938,793.7728881835938,788.5347900390625
319,780.4761962890625,786.1171875,793.3699340820312,783.6996459960938
320,787.7289428710938,790.1465454101562,791.7582397460938,778.05859375
321,794.981689453125,786.5201416015625,794.5787353515625,786.1171875
322,798.6080322265625,789.3406372070312,793.3699340820312,790.5494384765625
323,797.3992919921875,801.4285888671875,788.937744140625,796.1904907226562
324,791.7582397460938,798.6080322265625,790.5494384765625,799.8168334960938
325,795.7875366210938,792.1611938476562,793.3699340820312,801.8314819335938
326,802.6373901367188,790.952392578125,793.3699340820312,809.4871826171875
327,794.981689453125,791.7582397460938,793.3699340820312,805.4578857421875
328,790.952392578125,793.3699340820312,792.967041015625,795.7875366210938
329,795.3846435546875,793.3699340820312,794.981689453125,790.952392578125
330,793.3699340820312,783.6996459960938,793.3699340820312,787.7289428710938
331,790.5494384765625,783.6996459960938,788.937744140625,788.937744140625
332,786.1171875,794.1758422851562,788.5347900390625,791.3552856445312
333,781.6849975585938,791.3552856445312,791.7582397460938,791.3552856445312
334,785.3113403320312,790.5494384765625,795.7875366210938,793.3699340820312
335,784.5054931640625,789.3406372070312,796.996337890625,782.4908447265625
336,781.2820434570312,786.923095703125,792.967041015625,775.6410522460938
337,782.087890625,788.1318969726562,792.1611938476562,782.087890625
338,783.2966918945312,786.923095703125,799.4139404296875,786.923095703125
339,775.2380981445312,790.5494384765625,802.6373901367188,779.2673950195312
340,767.5823974609375,788.5347900390625,797.8021850585938,778.05859375
341,772.4176025390625,779.2673950195312,795.7875366210938,785.3113403320312
342,774.8351440429688,783.6996459960938,793.7728881835938,785.3113403320312
343,776.8497924804688,792.967041015625,792.1611938476562,787.3259887695312
344,780.4761962890625,791.7582397460938,792.1611938476562,795.7875366210938
345,783.2966918945312,791.3552856445312,793.3699340820312,797.8021850585938
346,793.7728881835938,794.1758422851562,794.5787353515625,796.5933837890625
347,799.4139404296875,791.7582397460938,793.7728881835938,801.4285888671875
348,800.2197875976562,787.7289428710938,798.6080322265625,808.2783813476562
349,801.8314819335938,788.1318969726562,796.1904907226562,808.2783813476562
350,792.967041015625,790.1465454101562,794.5787353515625,796.5933837890625
351,792.967041015625,787.3259887695312,797.3992919921875,792.1611938476562
352,797.8021850585938,790.1465454101562,796.5933837890625,792.5640869140625
353,797.3992919921875,793.7728881835938,796.1904907226562,790.1465454101562
354,794.5787353515625,799.4139404296875,795.7875366210938,786.5201416015625
355,791.3552856445312,800.2197875976562,790.952392578125,784.908447265625
356,795.3846435546875,797.3992919921875,793.7728881835938,788.5347900390625
357,790.5494384765625,795.7875366210938,801.4285888671875,791.7582397460938
358,786.1171875,795.7875366210938,800.6226806640625,790.1465454101562
359,786.923095703125,796.1904907226562,797.3992919921875,786.1171875
360,786.1171875,791.3552856445312,796.1904907226562,785.7142944335938
361,786.5201416015625,793.7728881835938,799.8168334960938,792.967041015625
362,791.7582397460938,797.3992919921875,805.054931640625,798.6080322265625
363,792.5640869140625,794.981689453125,803.8461303710938,796.1904907226562
364,783.2966918945312,791.3552856445312,797.3992919921875,796.5933837890625
365,782.4908447265625,791.3552856445312,800.6226806640625,797.3992919921875
366,790.952392578125,790.952392578125,803.8461303710938,799.4139404296875
367,792.5640869140625,789.3406372070312,794.5787353515625,795.7875366210938
368,790.952392578125,790.5494384765625,796.1904907226562,792.967041015625
369,789.7435913085938,796.1904907226562,797.8021850585938,790.1465454101562
370,789.3406372070312,798.2051391601562,788.1318969726562,783.6996459960938
371,792.1611938476562,795.3846435546875,788.1318969726562,784.1025390625
372,797.8021850585938,799.4139404296875,793.3699340820312,790.952392578125
373,801.4285888671875,799.010986328125,794.1758422851562,790.5494384765625
374,799.010986328125,796.996337890625,791.3552856445312,782.4908447265625
375,800.6226806640625,796.1904907226562,788.5347900390625,789.3406372070312
376,800.2197875976562,794.5787353515625,788.5347900390625,794.981689453125
377,794.5787353515625,792.1611938476562,787.7289428710938,782.087890625
378,790.5494384765625,787.7289428710938,788.1318969726562,778.05859375
379,788.5347900390625,784.5054931640625,783.2966918945312,782.893798828125
380,792.967041015625,777.2527465820312,783.6996459960938,786.1171875
381,791.7582397460938,785.7142944335938,786.923095703125,789.7435913085938
382,786.1171875,795.3846435546875,784.1025390625,789.7435913085938
383,784.908447265625,788.5347900390625,785.3113403320312,787.7289428710938
384,781.2820434570312,790.5494384765625,792.5640869140625,786.5201416015625
385,780.4761962890625,796.5933837890625,793.7728881835938,787.7289428710938
386,782.893798828125,794.1758422851562,785.7142944335938,788.937744140625
387,785.7142944335938,789.7435913085938,783.2966918945312,791.7582397460938
388,788.5347900390625,794.981689453125,788.5347900390625,791.3552856445312
389,783.2966918945312,790.5494384765625,787.7289428710938,789.7435913085938
390,783.6996459960938,787.7289428710938,786.923095703125,795.7875366210938
391,791.3552856445312,799.010986328125,790.952392578125,797.8021850585938
392,789.7435913085938,802.6373901367188,792.1611938476562,787.7289428710938
393,791.3552856445312,801.8314819335938,788.937744140625,784.5054931640625
394,801.025634765625,800.2197875976562,783.2966918945312,795.3846435546875
395,801.4285888671875,801.4285888671875,784.5054931640625,805.8607788085938
396,790.5494384765625,802.2344360351562,792.5640869140625,800.6226806640625
397,784.908447265625,802.2344360351562,797.3992919921875,786.923095703125
398,789.3406372070312,798.2051391601562,799.8168334960938,789.7435913085938
399,788.937744140625,794.981689453125,801.8314819335938,793.7728881835938
400,789.3406372070312,792.967041015625,800.2197875976562,786.1171875
401,793.7728881835938,790.5494384765625,799.4139404296875,786.1171875
402,799.8168334960938,793.7728881835938,793.7728881835938,791.7582397460938
403,797.8021850585938,792.5640869140625,788.937744140625,792.5640869140625
404,793.3699340820312,790.952392578125,793.7728881835938,790.5494384765625
405,796.996337890625,796.996337890625,794.981689453125,794.5787353515625
406,797.3992919921875,793.7728881835938,791.3552856445312,796.996337890625
407,795.3846435546875,788.937744140625,794.981689453125,794.5787353515625
408,795.3846435546875,788.937744140625,796.1904907226562,794.1758422851562
409,794.5787353515625,792.967041015625,791.3552856445312,792.967041015625
410,795.7875366210938,798.6080322265625,790.952392578125,801.8314819335938
411,794.981689453125,796.1904907226562,791.3552856445312,803.4432373046875
412,796.5933837890625,794.1758422851562,790.952392578125,799.8168334960938
413,800.2197875976562,796.1904907226562,792.1611938476562,795.3846435546875
414,795.7875366210938,792.967041015625,791.7582397460938,788.937744140625
415,797.3992919921875,793.7728881835938,794.5787353515625,790.5494384765625
416,798.6080322265625,803.040283203125,794.5787353515625,788.5347900390625
417,799.4139404296875,801.8314819335938,793.3699340820312,787.7289428710938
418,802.6373901367188,799.4139404296875,795.3846435546875,797.3992919921875
419,802.2344360351562,801.4285888671875,796.1904907226562,796.5933837890625
420,801.4285888671875,797.3992919921875,793.7728881835938,793.7728881835938
421,804.2490844726562,793.3699340820312,793.3699340820312,801.4285888671875
422,806.6666870117188,792.1611938476562,791.7582397460938,805.8607788085938
423,805.8607788085938,792.5640869140625,789.7435913085938,794.981689453125
424,806.2637329101562,795.7875366210938,794.5787353515625,793.3699340820312
425,803.040283203125,798.2051391601562,796.5933837890625,792.5640869140625
426,794.981689453125,794.981689453125,794.981689453125,786.5201416015625
427,793.7728881835938,793.3699340820312,795.7875366210938,788.5347900390625
428,792.1611938476562,794.1758422851562,792.967041015625,790.1465454101562
429,789.3406372070312,794.1758422851562,790.952392578125,791.3552856445312
430,788.5347900390625,791.7582397460938,794.1758422851562,793.3699340820312
431,791.7582397460938,794.1758422851562,790.952392578125,794.981689453125
432,793.7728881835938,794.5787353515625,788.5347900390625,799.010986328125
433,788.5347900390625,782.4908447265625,792.1611938476562,801.4285888671875
434,791.3552856445312,777.2527465820312,796.996337890625,799.8168334960938
435,790.5494384765625,784.908447265625,801.025634765625,799.010986328125
436,789.3406372070312,784.1025390625,798.2051391601562,803.040283203125
437,791.7582397460938,786.1171875,794.5787353515625,803.8461303710938
438,786.5201416015625,796.996337890625,793.3699340820312,792.1611938476562
439,787.7289428710938,797.3992919921875,792.967041015625,783.6996459960938
440,794.1758422851562,795.3846435546875,792.967041015625,784.5054931640625
441,788.937744140625,796.1904907226562,791.3552856445312,783.2966918945312
442,788.1318969726562,795.7875366210938,793.7728881835938,782.893798828125
443,793.3699340820312,794.1758422851562,797.3992919921875,787.3259887695312
444,797.8021850585938,790.5494384765625,794.5787353515625,792.5640869140625
445,799.010986328125,789.3406372070312,792.5640869140625,796.996337890625
446,796.1904907226562,786.923095703125,789.3406372070312,795.3846435546875
447,796.996337890625,786.923095703125,789.7435913085938,796.1904907226562
448,799.8168334960938,787.7289428710938,792.967041015625,799.4139404296875
449,801.4285888671875,791.7582397460938,795.3846435546875,799.8168334960938
450,795.7875366210938,797.8021850585938,797.3992919921875,793.7728881835938
451,793.7728881835938,791.3552856445312,797.8021850585938,790.1465454101562
452,799.010986328125,786.5201416015625,794.1758422851562,799.4139404296875
453,799.8168334960938,790.952392578125,792.967041015625,796.1904907226562
454,802.6373901367188,791.3552856445312,796.996337890625,790.952392578125
455,801.4285888671875,794.981689453125,796.1904907226562,793.3699340820312
456,793.7728881835938,797.8021850585938,795.7875366210938,795.7875366210938
457,796.5933837890625,796.996337890625,796.996337890625,792.967041015625
458,802.2344360351562,796.5933837890625,797.3992919921875,790.1465454101562
459,803.4432373046875,789.7435913085938,793.7728881835938,796.1904907226562
460,797.8021850585938,791.3552856445312,796.996337890625,803.8461303710938
461,788.1318969726562,791.3552856445312,797.3992919921875,800.2197875976562
462,789.3406372070312,787.3259887695312,796.996337890625,796.5933837890625
463,793.3699340820312,792.967041015625,797.3992919921875,795.7875366210938
464,794.1758422851562,795.3846435546875,796.5933837890625,795.7875366210938
465,796.996337890625,796.1904907226562,798.6080322265625,792.967041015625
466,802.2344360351562,797.3992919921875,799.010986328125,788.1318969726562
467,804.6520385742188,795.7875366210938,797.3992919921875,793.3699340820312
468,802.6373901367188,794.5787353515625,792.967041015625,791.3552856445312
469,799.010986328125,792.1611938476562,788.1318969726562,789.3406372070312
470,801.8314819335938,793.7728881835938,791.7582397460938,794.981689453125
471,807.87548828125,797.8021850585938,794.1758422851562,797.8021850585938
472,803.4432373046875,796.996337890625,791.3552856445312,797.8021850585938
473,801.4285888671875,788.5347900390625,787.3259887695312,789.3406372070312
474,805.054931640625,787.3259887695312,788.1318969726562,788.1318969726562
475,802.6373901367188,794.981689453125,792.5640869140625,800.2197875976562
476,791.3552856445312,794.5787353515625,793.7728881835938,795.7875366210938
477,792.5640869140625,795.7875366210938,794.981689453125,790.5494384765625
478,800.2197875976562,805.4578857421875,793.7728881835938,803.8461303710938
479,801.025634765625,807.069580078125,791.3552856445312,809.084228515625
480,802.2344360351562,803.040283203125,791.7582397460938,807.4725341796875
481,798.6080322265625,803.040283203125,791.7582397460938,801.8314819335938
482,793.3699340820312,804.2490844726562,794.981689453125,799.4139404296875
483,797.3992919921875,799.4139404296875,796.1904907226562,806.6666870117188
484,798.6080322265625,792.1611938476562,794.981689453125,803.040283203125
485,795.3846435546875,789.3406372070312,797.8021850585938,798.6080322265625
486,793.3699340820312,794.981689453125,798.2051391601562,801.4285888671875
487,792.1611938476562,801.025634765625,800.2197875976562,802.2344360351562
488,792.5640869140625,793.3699340820312,800.6226806640625,798.2051391601562
489,796.1904907226562,791.7582397460938,792.1611938476562,796.996337890625
490,798.6080322265625,792.967041015625,792.5640869140625,791.7582397460938
491,795.7875366210938,794.5787353515625,793.7728881835938,793.7728881835938
492,793.3699340820312,793.7728881835938,792.5640869140625,799.8168334960938
493,796.996337890625,796.996337890625,795.3846435546875,801.025634765625
494,800.2197875976562,796.996337890625,796.1904907226562,806.2637329101562
495,802.2344360351562,795.7875366210938,792.5640869140625,805.8607788085938
496,802.6373901367188,802.2344360351562,794.5787353515625,796.5933837890625
497,806.6666870117188,804.2490844726562,795.7875366210938,799.8168334960938
498,810.6959838867188,802.2344360351562,795.7875366210938,807.4725341796875
499,805.8607788085938,791.3552856445312,796.996337890625,803.040283203125
500,800.2197875976562,789.3406372070312,795.3846435546875,798.2051391601562
501,796.996337890625,795.7875366210938,792.967041015625,799.010986328125
502,795.7875366210938,797.8021850585938,793.3699340820312,797.8021850585938
503,795.7875366210938,794.5787353515625,798.6080322265625,798.2051391601562
504,792.5640869140625,790.1465454101562,802.6373901367188,799.8168334960938
505,790.5494384765625,793.7728881835938,801.4285888671875,800.2197875976562
506,794.981689453125,794.5787353515625,799.010986328125,803.040283203125
507,794.981689453125,794.981689453125,800.2197875976562,801.4285888671875
508,790.952392578125,793.3699340820312,801.4285888671875,794.5787353515625
509,790.952392578125,789.3406372070312,796.1904907226562,791.3552856445312
510,796.5933837890625,788.1318969726562,793.3699340820312,790.1465454101562
511,797.8021850585938,787.7289428710938,791.7582397460938,792.1611938476562
512,792.1611938476562,786.923095703125,794.1758422851562,790.952392578125
513,790.5494384765625,782.893798828125,794.5787353515625,790.5494384765625
514,794.5787353515625,783.6996459960938,797.3992919921875,798.6080322265625
515,793.3699340820312,785.3113403320312,803.8461303710938,793.3699340820312
516,798.2051391601562,785.3113403320312,805.4578857421875,790.5494384765625
517,797.8021850585938,787.3259887695312,799.4139404296875,790.952392578125
518,792.5640869140625,788.937744140625,794.5787353515625,790.952392578125
519,798.2051391601562,794.1758422851562,793.3699340820312,786.5201416015625
520,805.054931640625,792.967041015625,795.7875366210938,783.2966918945312
521,808.6813354492188,788.937744140625,796.1904907226562,786.5201416015625
522,805.4578857421875,794.5787353515625,794.5787353515625,790.1465454101562
523,804.6520385742188,799.4139404296875,802.2344360351562,792.5640869140625
524,801.4285888671875,791.7582397460938,804.2490844726562,790.5494384765625
525,791.7582397460938,782.4908447265625,797.3992919921875,786.923095703125
526,791.3552856445312,790.952392578125,796.996337890625,788.937744140625
527,794.981689453125,799.010986328125,795.7875366210938,787.3259887695312
528,794.981689453125,796.5933837890625,792.1611938476562,789.7435913085938
529,794.5787353515625,795.3846435546875,788.5347900390625,792.5640869140625
530,791.7582397460938,798.2051391601562,792.5640869140625,791.7582397460938
531,788.5347900390625,792.967041015625,797.8021850585938,790.952392578125
532,787.7289428710938,790.1465454101562,801.025634765625,786.5201416015625
533,788.937744140625,786.923095703125,792.1611938476562,790.5494384765625
534,790.5494384765625,787.7289428710938,788.937744140625,790.1465454101562
535,793.3699340820312,792.1611938476562,789.7435913085938,787.3259887695312
536,795.3846435546875,794.1758422851562,791.3552856445312,786.1171875
537,796.1904907226562,796.5933837890625,800.2197875976562,786.923095703125
538,794.981689453125,790.5494384765625,795.7875366210938,791.7582397460938
539,792.5640869140625,790.1465454101562,789.3406372070312,790.1465454101562
540,796.5933837890625,795.3846435546875,793.7728881835938,792.5640869140625
541,800.6226806640625,794.5787353515625,795.3846435546875,795.3846435546875
542,798.2051391601562,796.5933837890625,799.010986328125,786.5201416015625
543,790.1465454101562,793.7728881835938,796.996337890625,779.2673950195312
544,787.3259887695312,786.5201416015625,792.967041015625,784.5054931640625
545,784.908447265625,783.6996459960938,790.1465454101562,784.5054931640625
546,781.2820434570312,781.6849975585938,791.3552856445312,777.2527465820312
547,783.2966918945312,787.7289428710938,791.7582397460938,774.029296875
548,785.7142944335938,792.5640869140625,789.3406372070312,777.2527465820312
549,782.893798828125,787.7289428710938,792.5640869140625,775.2380981445312
550,780.879150390625,780.879150390625,791.3552856445312,771.6116943359375
551,778.4615478515625,782.087890625,783.2966918945312,778.05859375
552,776.0439453125,788.937744140625,786.1171875,777.6557006835938
553,775.6410522460938,790.952392578125,791.7582397460938,770.4029541015625
554,778.4615478515625,795.7875366210938,794.981689453125,772.8204956054688
555,782.893798828125,794.981689453125,798.2051391601562,782.893798828125
556,786.5201416015625,787.3259887695312,794.5787353515625,794.5787353515625
557,786.923095703125,788.937744140625,788.1318969726562,787.7289428710938
558,791.3552856445312,788.5347900390625,788.937744140625,780.0732421875
559,800.2197875976562,786.1171875,790.1465454101562,783.6996459960938
560,805.4578857421875,789.3406372070312,791.7582397460938,787.3259887695312
561,805.4578857421875,789.3406372070312,794.5787353515625,792.1611938476562
562,801.4285888671875,794.1758422851562,796.1904907226562,793.7728881835938
563,801.025634765625,793.3699340820312,792.967041015625,790.5494384765625
564,796.996337890625,791.7582397460938,790.952392578125,786.1171875
565,789.7435913085938,795.3846435546875,794.1758422851562,780.879150390625
566,790.1465454101562,800.2197875976562,793.3699340820312,779.6703491210938
567,798.6080322265625,802.6373901367188,792.5640869140625,789.3406372070312
568,798.2051391601562,799.8168334960938,795.3846435546875,799.010986328125
569,791.3552856445312,795.3846435546875,798.2051391601562,790.952392578125
570,789.7435913085938,790.952392578125,796.5933837890625,785.3113403320312
571,785.7142944335938,791.3552856445312,794.1758422851562,800.2197875976562
572,784.5054931640625,793.7728881835938,795.3846435546875,805.054931640625
573,788.5347900390625,794.1758422851562,799.010986328125,794.5787353515625
574,789.7435913085938,792.1611938476562,802.6373901367188,790.5494384765625
575,782.4908447265625,794.5787353515625,796.996337890625,789.3406372070312
576,782.4908447265625,787.7289428710938,789.3406372070312,785.7142944335938
577,786.5201416015625,780.0732421875,792.1611938476562,788.1318969726562
578,784.5054931640625,790.5494384765625,797.3992919921875,791.3552856445312
579,786.1171875,790.5494384765625,795.3846435546875,799.010986328125
580,786.923095703125,787.7289428710938,791.7582397460938,801.8314819335938
581,787.3259887695312,792.967041015625,792.967041015625,797.8021850585938
582,792.5640869140625,796.996337890625,795.7875366210938,807.4725341796875
583,792.5640869140625,799.010986328125,798.6080322265625,810.6959838867188
584,789.7435913085938,793.7728881835938,799.4139404296875,805.8607788085938
585,793.7728881835938,794.5787353515625,797.3992919921875,803.040283203125
586,790.1465454101562,796.1904907226562,795.3846435546875,795.7875366210938
587,792.967041015625,794.1758422851562,799.8168334960938,790.5494384765625
588,798.2051391601562,792.5640869140625,792.967041015625,785.7142944335938
589,788.1318969726562,789.3406372070312,789.3406372070312,778.4615478515625
590,777.2527465820312,784.908447265625,792.1611938476562,781.6849975585938
591,778.05859375,783.6996459960938,795.3846435546875,790.5494384765625
592,782.4908447265625,790.1465454101562,800.2197875976562,785.3113403320312
593,788.5347900390625,799.4139404296875,793.7728881835938,787.3259887695312
594,796.5933837890625,797.8021850585938,791.7582397460938,795.7875366210938
595,798.6080322265625,795.3846435546875,795.3846435546875,787.7289428710938
596,794.981689453125,801.8314819335938,794.1758422851562,777.6557006835938
597,790.5494384765625,802.2344360351562,792.1611938476562,779.6703491210938
598,790.952392578125,799.010986328125,788.937744140625,788.1318969726562
599,787.7289428710938,793.7728881835938,788.5347900390625,780.4761962890625
600,786.923095703125,791.3552856445312,787.3259887695312,773.2234497070312
601,796.1904907226562,791.3552856445312,784.908447265625,780.4761962890625
602,805.4578857421875,788.5347900390625,785.7142944335938,786.923095703125
603,807.069580078125,792.5640869140625,792.5640869140625,794.981689453125
604,806.2637329101562,792.1611938476562,796.1904907226562,794.981689453125
605,806.2637329101562,784.908447265625,791.7582397460938,785.7142944335938
606,807.4725341796875,792.1611938476562,792.5640869140625,783.2966918945312
607,806.2637329101562,801.8314819335938,797.8021850585938,789.7435913085938
608,803.040283203125,799.4139404296875,800.2197875976562,794.1758422851562
609,798.6080322265625,799.8168334960938,796.5933837890625,794.5787353515625
610,793.3699340820312,801.4285888671875,793.7728881835938,790.5494384765625
611,790.1465454101562,796.1904907226562,790.1465454101562,790.1465454101562
612,792.5640869140625,793.3699340820312,789.3406372070312,791.3552856445312
613,794.1758422851562,789.7435913085938,796.5933837890625,794.981689453125
614,794.5787353515625,784.908447265625,793.3699340820312,801.8314819335938
615,792.967041015625,782.087890625,793.7728881835938,798.6080322265625
616,790.5494384765625,782.087890625,799.4139404296875,798.6080322265625
617,791.7582397460938,786.923095703125,795.3846435546875,799.010986328125
618,788.937744140625,788.5347900390625,792.967041015625,799.8168334960938
619,784.908447265625,787.7289428710938,794.1758422851562,795.7875366210938
620,790.5494384765625,786.5201416015625,794.981689453125,788.5347900390625
621,788.1318969726562,785.3113403320312,794.981689453125,788.5347900390625
622,786.923095703125,785.7142944335938,790.1465454101562,788.1318969726562
623,795.3846435546875,789.7435913085938,789.7435913085938,788.937744140625
624,793.7728881835938,789.3406372070312,793.7728881835938,786.923095703125
625,789.7435913085938,785.7142944335938,794.981689453125,790.952392578125
626,790.952392578125,784.5054931640625,793.3699340820312,789.7435913085938
627,799.010986328125,789.7435913085938,793.3699340820312,788.5347900390625
628,801.4285888671875,786.923095703125,793.7728881835938,787.3259887695312
629,796.5933837890625,782.4908447265625,791.7582397460938,782.893798828125
630,799.8168334960938,794.5787353515625,796.1904907226562,792.967041015625
631,798.2051391601562,803.040283203125,796.5933837890625,798.6080322265625
632,796.1904907226562,801.8314819335938,794.981689453125,799.8168334960938
633,798.2051391601562,801.025634765625,796.5933837890625,807.4725341796875
634,795.7875366210938,799.010986328125,800.6226806640625,805.4578857421875
635,801.4285888671875,803.040283203125,799.8168334960938,804.2490844726562
636,807.4725341796875,800.6226806640625,796.5933837890625,810.2930297851562
637,804.6520385742188,795.7875366210938,803.4432373046875,809.4871826171875
638,801.8314819335938,795.3846435546875,804.6520385742188,801.025634765625
639,801.4285888671875,791.7582397460938,796.5933837890625,795.7875366210938
640,796.5933837890625,790.5494384765625,793.7728881835938,794.5787353515625
641,790.1465454101562,794.5787353515625,796.1904907226562,790.952392578125
642,788.937744140625,795.3846435546875,796.5933837890625,787.7289428710938
643,791.3552856445312,787.3259887695312,796.1904907226562,792.1611938476562
644,796.1904907226562,792.1611938476562,796.1904907226562,798.6080322265625
645,792.5640869140625,799.010986328125,796.5933837890625,798.2051391601562
646,789.7435913085938,795.7875366210938,797.3992919921875,790.5494384765625
647,797.3992919921875,790.1465454101562,796.1904907226562,789.7435913085938
648,801.025634765625,790.952392578125,794.981689453125,794.981689453125
649,796.996337890625,795.3846435546875,794.1758422851562,789.7435913085938
650,796.1904907226562,798.2051391601562,791.7582397460938,789.3406372070312
651,795.7875366210938,796.996337890625,796.996337890625,795.3846435546875
652,790.1465454101562,795.3846435546875,799.4139404296875,798.6080322265625
653,793.3699340820312,796.1904907226562,797.3992919921875,795.3846435546875
654,799.8168334960938,793.7728881835938,797.8021850585938,796.996337890625
655,796.996337890625,788.937744140625,796.996337890625,798.6080322265625
656,796.996337890625,782.087890625,792.967041015625,790.1465454101562
657,797.3992919921875,788.1318969726562,788.5347900390625,783.6996459960938
658,794.1758422851562,794.1758422851562,788.5347900390625,780.4761962890625
659,794.981689453125,792.5640869140625,790.1465454101562,779.2673950195312
660,793.7728881835938,788.1318969726562,794.981689453125,779.2673950195312
661,790.1465454101562,783.2966918945312,796.996337890625,778.05859375
662,790.5494384765625,787.7289428710938,792.967041015625,778.8644409179688
663,792.5640869140625,787.7289428710938,793.3699340820312,785.7142944335938
664,794.5787353515625,788.937744140625,796.1904907226562,794.5787353515625
665,791.3552856445312,790.952392578125,795.7875366210938,790.952392578125
666,790.1465454101562,788.5347900390625,795.3846435546875,789.7435913085938
667,788.5347900390625,785.3113403320312,796.996337890625,794.1758422851562
668,788.1318969726562,783.6996459960938,794.981689453125,794.5787353515625
669,791.3552856445312,788.1318969726562,792.967041015625,792.1611938476562
670,791.7582397460938,789.7435913085938,793.7728881835938,796.1904907226562
671,795.3846435546875,785.7142944335938,796.996337890625,796.5933837890625
672,792.967041015625,790.1465454101562,796.1904907226562,794.5787353515625
673,792.5640869140625,797.3992919921875,795.7875366210938,794.5787353515625
674,796.5933837890625,790.952392578125,799.010986328125,788.937744140625
675,799.4139404296875,786.5201416015625,795.3846435546875,791.7582397460938
676,795.7875366210938,784.908447265625,788.937744140625,779.2673950195312
677,791.3552856445312,786.923095703125,789.7435913085938,768.3883056640625
678,797.3992919921875,790.1465454101562,792.967041015625,779.6703491210938
679,799.4139404296875,784.908447265625,791.3552856445312,786.1171875
680,795.3846435546875,783.2966918945312,792.967041015625,782.893798828125
681,794.5787353515625,788.937744140625,795.3846435546875,784.908447265625
682,795.7875366210938,792.967041015625,795.7875366210938,790.952392578125
683,792.967041015625,793.7728881835938,796.996337890625,788.5347900390625
684,792.967041015625,795.3846435546875,793.7728881835938,791.3552856445312
685,795.3846435546875,797.3992919921875,788.937744140625,797.8021850585938
686,795.3846435546875,792.1611938476562,788.1318969726562,797.8021850585938
687,790.1465454101562,791.3552856445312,785.7142944335938,791.3552856445312
688,790.1465454101562,797.3992919921875,793.7728881835938,786.1171875
689,794.981689453125,795.7875366210938,793.7728881835938,786.923095703125
690,796.5933837890625,790.952392578125,786.1171875,793.7728881835938
691,794.1758422851562,788.5347900390625,788.937744140625,799.8168334960938
692,791.3552856445312,789.3406372070312,794.1758422851562,795.7875366210938
693,796.5933837890625,786.5201416015625,793.7728881835938,791.7582397460938
694,799.4139404296875,788.5347900390625,793.3699340820312,791.3552856445312
695,794.981689453125,794.1758422851562,796.1904907226562,790.952392578125
696,793.7728881835938,792.5640869140625,797.3992919921875,796.1904907226562
697,797.8021850585938,796.996337890625,790.952392578125,796.5933837890625
698,803.8461303710938,799.8168334960938,792.5640869140625,805.4578857421875
699,803.8461303710938,800.6226806640625,796.1904907226562,803.8461303710938
700,801.4285888671875,797.8021850585938,791.3552856445312,793.3699340820312
701,802.6373901367188,787.7289428710938,793.7728881835938,798.6080322265625
702,799.010986328125,786.1171875,799.4139404296875,797.3992919921875
703,791.3552856445312,791.7582397460938,794.1758422851562,794.1758422851562
704,794.1758422851562,796.5933837890625,791.3552856445312,798.6080322265625
705,799.4139404296875,798.6080322265625,792.967041015625,802.2344360351562
706,800.2197875976562,795.3846435546875,796.5933837890625,797.8021850585938
707,798.6080322265625,792.5640869140625,794.1758422851562,793.3699340820312
708,793.3699340820312,791.7582397460938,792.1611938476562,787.7289428710938
709,788.1318969726562,788.1318969726562,790.5494384765625,783.6996459960938
710,788.5347900390625,784.5054931640625,789.3406372070312,793.3699340820312
711,789.7435913085938,793.7728881835938,797.8021850585938,801.4285888671875
712,788.937744140625,793.3699340820312,801.4285888671875,799.4139404296875
713,790.952392578125,784.908447265625,797.8021850585938,796.1904907226562
714,790.1465454101562,790.1465454101562,795.7875366210938,797.3992919921875
715,795.3846435546875,793.3699340820312,792.967041015625,792.1611938476562
716,800.6226806640625,792.5640869140625,794.1758422851562,790.5494384765625
717,796.5933837890625,791.7582397460938,797.3992919921875,796.996337890625
718,795.3846435546875,796.5933837890625,795.7875366210938,796.1904907226562
719,789.3406372070312,797.8021850585938,793.7728881835938,792.1611938476562
720,787.3259887695312,796.996337890625,793.7728881835938,789.7435913085938
721,794.981689453125,795.7875366210938,795.7875366210938,795.7875366210938
722,793.7728881835938,792.1611938476562,794.981689453125,794.5787353515625
723,790.5494384765625,788.1318969726562,796.5933837890625,782.893798828125
724,794.5787353515625,790.5494384765625,798.2051391601562,782.893798828125
725,802.2344360351562,792.5640869140625,792.1611938476562,791.7582397460938
726,799.4139404296875,790.952392578125,786.1171875,792.1611938476562
727,790.1465454101562,789.3406372070312,790.1465454101562,788.1318969726562
728,788.5347900390625,794.981689453125,794.5787353515625,790.1465454101562
729,792.967041015625,801.025634765625,794.981689453125,792.5640869140625
730,791.3552856445312,794.1758422851562,798.6080322265625,788.1318969726562
731,790.1465454101562,788.5347900390625,799.010986328125,780.4761962890625
732,796.1904907226562,795.3846435546875,799.4139404296875,790.1465454101562
733,791.7582397460938,794.5787353515625,794.981689453125,794.5787353515625
734,788.937744140625,793.7728881835938,792.5640869140625,784.5054931640625
735,796.5933837890625,794.5787353515625,792.1611938476562,782.4908447265625
736,800.2197875976562,791.3552856445312,791.3552856445312,788.5347900390625
737,802.2344360351562,791.7582397460938,797.3992919921875,792.1611938476562
738,804.2490844726562,794.5787353515625,798.2051391601562,792.1611938476562
739,798.2051391601562,788.5347900390625,795.3846435546875,792.5640869140625
740,798.6080322265625,787.7289428710938,790.1465454101562,798.2051391601562
741,801.8314819335938,793.7728881835938,791.3552856445312,799.8168334960938
742,794.981689453125,797.3992919921875,792.1611938476562,795.7875366210938
743,794.1758422851562,794.981689453125,790.1465454101562,792.1611938476562
744,794.1758422851562,792.967041015625,793.3699340820312,790.5494384765625
745,788.1318969726562,794.5787353515625,794.1758422851562,784.1025390625
746,787.3259887695312,791.7582397460938,789.3406372070312,779.2673950195312
747,789.3406372070312,791.3552856445312,789.3406372070312,780.4761962890625
748,791.7582397460938,789.7435913085938,790.1465454101562,788.1318969726562
749,790.952392578125,786.1171875,790.952392578125,784.5054931640625
750,792.967041015625,786.1171875,796.1904907226562,782.4908447265625
751,795.7875366210938,792.5640869140625,797.3992919921875,786.5201416015625
752,793.7728881835938,798.6080322265625,796.996337890625,786.923095703125
753,796.5933837890625,795.7875366210938,796.1904907226562,787.3259887695312
754,795.7875366210938,797.3992919921875,791.7582397460938,792.1611938476562
755,788.5347900390625,797.3992919921875,786.923095703125,801.025634765625
756,790.1465454101562,791.7582397460938,788.5347900390625,797.8021850585938
757,795.3846435546875,791.3552856445312,793.7728881835938,795.3846435546875
758,794.5787353515625,797.8021850585938,797.8021850585938,795.3846435546875
759,794.1758422851562,794.5787353515625,794.5787353515625,792.967041015625
760,796.996337890625,790.952392578125,788.5347900390625,798.6080322265625
761,793.7728881835938,795.3846435546875,796.5933837890625,789.7435913085938
762,787.3259887695312,790.1465454101562,801.025634765625,775.2380981445312
763,784.908447265625,785.7142944335938,796.996337890625,778.8644409179688
764,785.3113403320312,793.3699340820312,798.2051391601562,786.923095703125
765,791.7582397460938,791.3552856445312,798.6080322265625,791.3552856445312
766,798.2051391601562,787.3259887695312,795.7875366210938,790.1465454101562
767,798.2051391601562,791.7582397460938,793.7728881835938,784.908447265625
768,799.010986328125,788.1318969726562,790.952392578125,786.1171875
769,795.7875366210938,791.3552856445312,788.5347900390625,791.7582397460938
770,794.1758422851562,789.7435913085938,790.952392578125,793.3699340820312
771,800.6226806640625,783.2966918945312,799.4139404296875,800.6226806640625
772,800.6226806640625,787.3259887695312,800.6226806640625,801.025634765625
773,792.967041015625,789.7435913085938,797.3992919921875,799.010986328125
774,788.1318969726562,789.7435913085938,796.5933837890625,795.3846435546875
775,792.1611938476562,791.3552856445312,796.996337890625,795.3846435546875
776,793.3699340820312,790.5494384765625,795.3846435546875,793.7728881835938
777,790.5494384765625,784.5054931640625,792.967041015625,789.7435913085938
778,788.937744140625,774.029296875,795.7875366210938,791.3552856445312
779,790.1465454101562,776.8497924804688,798.2051391601562,794.5787353515625
780,792.1611938476562,779.2673950195312,792.1611938476562,787.7289428710938
781,796.1904907226562,781.2820434570312,791.3552856445312,785.3113403320312
782,796.5933837890625,789.7435913085938,792.1611938476562,792.1611938476562
783,790.5494384765625,786.5201416015625,789.7435913085938,796.5933837890625
784,784.1025390625,785.3113403320312,790.952392578125,792.5640869140625
785,782.893798828125,787.3259887695312,792.967041015625,788.937744140625
786,791.3552856445312,783.2966918945312,792.5640869140625,798.6080322265625
787,792.967041015625,784.5054931640625,795.7875366210938,803.040283203125
788,790.5494384765625,788.5347900390625,793.7728881835938,797.8021850585938
789,793.3699340820312,782.087890625,788.5347900390625,801.4285888671875
790,794.1758422851562,774.4322509765625,790.1465454101562,808.2783813476562
791,795.7875366210938,787.7289428710938,796.5933837890625,800.6226806640625
792,802.2344360351562,795.3846435546875,799.4139404296875,792.967041015625
793,805.054931640625,793.7728881835938,793.7728881835938,787.7289428710938
794,805.8607788085938,793.3699340820312,783.6996459960938,789.7435913085938
795,803.4432373046875,791.3552856445312,787.7289428710938,784.5054931640625
796,806.6666870117188,795.7875366210938,795.3846435546875,780.0732421875
797,802.2344360351562,792.5640869140625,795.7875366210938,786.1171875
798,792.1611938476562,782.893798828125,790.1465454101562,787.7289428710938
799,793.3699340820312,786.923095703125,786.923095703125,792.5640869140625
800,794.981689453125,795.3846435546875,788.937744140625,797.8021850585938
801,795.7875366210938,790.1465454101562,787.7289428710938,798.6080322265625
802,796.996337890625,786.1171875,792.967041015625,801.8314819335938
803,796.996337890625,792.5640869140625,795.3846435546875,801.025634765625
804,800.2197875976562,796.996337890625,795.3846435546875,798.6080322265625
805,799.4139404296875,798.2051391601562,801.4285888671875,802.2344360351562
806,796.5933837890625,801.4285888671875,800.6226806640625,798.6080322265625
807,790.1465454101562,803.4432373046875,796.996337890625,788.5347900390625
808,788.5347900390625,801.025634765625,795.3846435546875,788.5347900390625
809,794.1758422851562,800.2197875976562,795.7875366210938,795.3846435546875
810,795.3846435546875,798.2051391601562,798.6080322265625,793.3699340820312
811,792.967041015625,795.7875366210938,799.010986328125,788.937744140625
812,787.3259887695312,793.7728881835938,796.1904907226562,800.2197875976562
813,788.5347900390625,790.5494384765625,799.8168334960938,810.2930297851562
814,791.7582397460938,786.5201416015625,799.8168334960938,808.6813354492188
815,803.4432373046875,787.3259887695312,800.6226806640625,808.2783813476562
816,809.084228515625,794.981689453125,803.040283203125,813.91943359375
817,803.4432373046875,794.5787353515625,797.3992919921875,822.3809814453125
818,807.4725341796875,792.5640869140625,803.040283203125,822.7838745117188
819,801.8314819335938,797.8021850585938,806.6666870117188,813.5164794921875
820,785.7142944335938,794.5787353515625,796.1904907226562,801.8314819335938
821,781.6849975585938,793.3699340820312,792.967041015625,791.7582397460938
822,790.5494384765625,795.3846435546875,796.996337890625,794.5787353515625
823,794.1758422851562,789.7435913085938,801.025634765625,800.6226806640625
824,796.1904907226562,794.1758422851562,799.8168334960938,801.8314819335938
825,799.010986328125,796.996337890625,800.2197875976562,797.3992919921875
826,794.1758422851562,792.5640869140625,798.2051391601562,789.7435913085938
827,794.5787353515625,790.1465454101562,794.981689453125,793.3699340820312
828,794.981689453125,788.5347900390625,790.1465454101562,796.996337890625
829,794.5787353515625,791.7582397460938,790.5494384765625,793.7728881835938
830,792.967041015625,789.3406372070312,790.952392578125,788.937744140625
831,787.3259887695312,790.1465454101562,788.937744140625,778.4615478515625
832,790.952392578125,788.5347900390625,788.1318969726562,784.1025390625
833,792.1611938476562,781.6849975585938,787.3259887695312,794.5787353515625
834,786.923095703125,782.087890625,790.952392578125,785.3113403320312
835,784.908447265625,787.7289428710938,790.952392578125,783.2966918945312
836,782.087890625,787.7289428710938,788.937744140625,782.4908447265625
837,781.6849975585938,785.3113403320312,786.923095703125,778.8644409179688
838,784.5054931640625,785.7142944335938,788.5347900390625,784.1025390625
839,790.5494384765625,783.2966918945312,790.1465454101562,783.6996459960938
840,794.981689453125,778.05859375,788.937744140625,786.5201416015625
841,790.952392578125,782.893798828125,785.3113403320312,792.967041015625
842,788.937744140625,790.5494384765625,790.1465454101562,788.5347900390625
843,793.7728881835938,786.1171875,794.1758422851562,789.3406372070312
844,798.6080322265625,785.3113403320312,789.7435913085938,796.996337890625
845,801.025634765625,793.7728881835938,793.7728881835938,797.8021850585938
846,801.8314819335938,788.1318969726562,791.3552856445312,792.967041015625
847,802.6373901367188,788.1318969726562,785.3113403320312,789.7435913085938
848,805.8607788085938,796.1904907226562,791.3552856445312,793.7728881835938
849,807.069580078125,799.8168334960938,790.5494384765625,799.010986328125
850,803.8461303710938,797.8021850585938,788.937744140625,804.2490844726562
851,802.2344360351562,791.3552856445312,790.5494384765625,808.2783813476562
852,801.8314819335938,793.7728881835938,786.923095703125,803.040283203125
853,799.8168334960938,800.2197875976562,785.3113403320312,797.8021850585938
854,800.2197875976562,801.025634765625,788.937744140625,799.8168334960938
855,799.8168334960938,800.6226806640625,790.952392578125,799.010986328125
856,796.1904907226562,798.6080322265625,793.3699340820312,798.6080322265625
857,794.5787353515625,800.6226806640625,797.8021850585938,795.7875366210938
858,801.8314819335938,798.6080322265625,796.1904907226562,799.010986328125
859,807.4725341796875,798.6080322265625,791.7582397460938,796.996337890625
860,800.2197875976562,794.5787353515625,795.3846435546875,786.1171875
861,794.1758422851562,787.7289428710938,794.981689453125,781.6849975585938
862,797.3992919921875,791.3552856445312,790.5494384765625,787.3259887695312
863,794.1758422851562,793.3699340820312,789.7435913085938,787.3259887695312
864,791.7582397460938,788.5347900390625,792.1611938476562,790.5494384765625
865,787.3259887695312,790.952392578125,790.952392578125,784.908447265625
866,782.4908447265625,794.981689453125,790.952392578125,777.6557006835938
867,784.908447265625,789.3406372070312,788.5347900390625,790.1465454101562
868,781.2820434570312,785.3113403320312,787.3259887695312,788.1318969726562
869,780.0732421875,788.937744140625,788.937744140625,786.5201416015625
870,782.4908447265625,788.937744140625,784.908447265625,789.3406372070312
871,783.6996459960938,790.952392578125,785.3113403320312,787.7289428710938
872,784.5054931640625,794.1758422851562,790.5494384765625,786.1171875
873,780.879150390625,788.937744140625,790.5494384765625,782.087890625
874,783.6996459960938,784.908447265625,790.952392578125,788.937744140625
875,786.1171875,788.1318969726562,792.1611938476562,791.7582397460938
876,791.3552856445312,790.5494384765625,790.1465454101562,790.952392578125
877,799.010986328125,788.1318969726562,790.952392578125,791.7582397460938
878,796.5933837890625,789.7435913085938,790.5494384765625,796.1904907226562
879,796.1904907226562,791.7582397460938,787.3259887695312,802.2344360351562
880,801.4285888671875,793.7728881835938,789.3406372070312,797.8021850585938
881,804.6520385742188,792.967041015625,790.1465454101562,799.4139404296875
882,808.6813354492188,790.1465454101562,787.7289428710938,802.2344360351562
883,806.2637329101562,796.5933837890625,789.3406372070312,797.8021850585938
884,800.2197875976562,796.996337890625,786.923095703125,789.3406372070312
885,796.996337890625,792.5640869140625,788.1318969726562,783.6996459960938
886,792.1611938476562,795.3846435546875,790.1465454101562,779.2673950195312
887,788.937744140625,796.1904907226562,784.1025390625,773.6264038085938
888,786.5201416015625,787.7289428710938,786.923095703125,778.05859375
889,782.087890625,787.7289428710938,791.7582397460938,780.0732421875
890,782.4908447265625,793.7728881835938,786.5201416015625,784.5054931640625
891,781.6849975585938,792.5640869140625,792.1611938476562,786.923095703125
892,779.2673950195312,793.7728881835938,800.2197875976562,785.7142944335938
893,778.8644409179688,792.1611938476562,800.2197875976562,790.1465454101562
894,778.8644409179688,791.3552856445312,794.981689453125,793.7728881835938
895,778.05859375,788.1318969726562,796.996337890625,790.1465454101562
896,780.4761962890625,785.7142944335938,799.4139404296875,792.5640869140625
897,780.4761962890625,787.3259887695312,794.1758422851562,798.2051391601562
898,782.087890625,789.7435913085938,793.3699340820312,801.025634765625
899,783.2966918945312,789.3406372070312,800.6226806640625,803.040283203125
900,785.7142944335938,789.3406372070312,796.996337890625,803.8461303710938
901,790.5494384765625,788.937744140625,791.7582397460938,807.87548828125
902,796.996337890625,787.7289428710938,788.937744140625,808.2783813476562
903,799.010986328125,793.3699340820312,785.3113403320312,799.4139404296875
904,807.069580078125,796.1904907226562,793.7728881835938,800.6226806640625
905,815.1282348632812,798.2051391601562,797.3992919921875,806.2637329101562
906,811.5018310546875,802.2344360351562,791.7582397460938,801.8314819335938
907,804.6520385742188,801.4285888671875,793.3699340820312,800.6226806640625
908,801.8314819335938,799.4139404296875,796.1904907226562,796.5933837890625
909,806.6666870117188,801.4285888671875,792.5640869140625,796.996337890625
910,809.084228515625,798.2051391601562,793.3699340820312,798.2051391601562
911,805.8607788085938,796.5933837890625,794.1758422851562,792.967041015625
912,799.010986328125,798.6080322265625,786.5201416015625,789.7435913085938
913,799.4139404296875,794.1758422851562,788.937744140625,792.967041015625
914,801.8314819335938,801.025634765625,793.7728881835938,793.7728881835938
915,795.7875366210938,807.4725341796875,792.5640869140625,787.7289428710938
916,796.996337890625,805.8607788085938,796.5933837890625,792.5640869140625
917,803.040283203125,807.4725341796875,791.3552856445312,804.6520385742188
918,786.5201416015625,806.2637329101562,792.5640869140625,799.4139404296875
919,770.8058471679688,801.025634765625,798.2051391601562,785.3113403320312
920,772.4176025390625,798.6080322265625,795.7875366210938,779.6703491210938
921,775.6410522460938,795.3846435546875,798.2051391601562,785.3113403320312
922,773.2234497070312,792.1611938476562,795.3846435546875,786.923095703125
923,773.2234497070312,792.967041015625,789.7435913085938,788.937744140625
924,783.6996459960938,792.967041015625,790.5494384765625,798.6080322265625
925,794.5787353515625,792.5640869140625,793.3699340820312,806.2637329101562
926,795.7875366210938,796.996337890625,796.5933837890625,802.6373901367188
927,801.025634765625,797.3992919921875,799.4139404296875,799.4139404296875
928,807.069580078125,795.7875366210938,798.2051391601562,804.2490844726562
929,805.8607788085938,798.2051391601562,798.2051391601562,805.054931640625
930,804.2490844726562,799.010986328125,800.6226806640625,804.2490844726562
931,805.4578857421875,799.8168334960938,799.4139404296875,809.4871826171875
932,804.6520385742188,801.025634765625,792.1611938476562,809.89013671875
933,805.054931640625,801.4285888671875,793.3699340820312,800.2197875976562
934,809.084228515625,798.2051391601562,797.8021850585938,797.3992919921875
935,810.6959838867188,796.5933837890625,798.2051391601562,798.6080322265625
936,811.5018310546875,797.3992919921875,795.7875366210938,793.3699340820312
937,808.6813354492188,788.1318969726562,788.5347900390625,789.7435913085938
938,802.6373901367188,786.1171875,790.952392578125,791.3552856445312
939,797.3992919921875,790.1465454101562,792.1611938476562,783.2966918945312
940,796.1904907226562,790.5494384765625,796.5933837890625,782.4908447265625
941,794.1758422851562,796.5933837890625,795.7875366210938,784.1025390625
942,791.7582397460938,798.6080322265625,789.7435913085938,780.4761962890625
943,786.1171875,798.6080322265625,793.3699340820312,779.2673950195312
944,785.3113403320312,799.010986328125,790.5494384765625,774.029296875
945,787.3259887695312,793.7728881835938,786.5201416015625,771.2088012695312
946,788.5347900390625,790.952392578125,791.3552856445312,780.4761962890625
947,790.5494384765625,788.5347900390625,789.7435913085938,788.1318969726562
948,787.7289428710938,783.2966918945312,788.937744140625,789.7435913085938
949,778.4615478515625,782.4908447265625,792.1611938476562,786.1171875
950,778.4615478515625,787.7289428710938,791.7582397460938,783.2966918945312
951,788.5347900390625,795.3846435546875,791.3552856445312,789.7435913085938
952,794.981689453125,796.5933837890625,794.1758422851562,802.2344360351562
953,794.5787353515625,790.952392578125,792.967041015625,796.996337890625
954,792.967041015625,796.5933837890625,790.1465454101562,791.3552856445312
955,797.8021850585938,800.2197875976562,792.5640869140625,797.8021850585938
956,801.8314819335938,792.5640869140625,791.7582397460938,799.010986328125
957,803.040283203125,790.1465454101562,792.5640869140625,799.010986328125
958,803.8461303710938,793.7728881835938,795.7875366210938,805.8607788085938
959,803.4432373046875,793.3699340820312,794.1758422851562,814.7252807617188
960,801.025634765625,793.3699340820312,791.3552856445312,808.6813354492188
961,794.1758422851562,792.5640869140625,790.952392578125,796.5933837890625
962,800.6226806640625,790.952392578125,795.7875366210938,791.3552856445312
963,803.4432373046875,792.5640869140625,793.3699340820312,794.1758422851562
964,791.7582397460938,792.1611938476562,790.952392578125,788.5347900390625
965,793.3699340820312,789.3406372070312,795.3846435546875,789.3406372070312
966,797.3992919921875,793.7728881835938,794.1758422851562,792.1611938476562
967,797.3992919921875,793.7728881835938,794.981689453125,793.3699340820312
968,794.5787353515625,792.1611938476562,797.3992919921875,799.4139404296875
969,793.3699340820312,795.3846435546875,797.3992919921875,796.996337890625
970,789.7435913085938,787.3259887695312,794.5787353515625,788.5347900390625
971,782.893798828125,783.2966918945312,798.2051391601562,777.6557006835938
972,789.3406372070312,791.3552856445312,801.4285888671875,776.4468994140625
973,791.3552856445312,798.6080322265625,799.010986328125,781.2820434570312
974,785.3113403320312,794.1758422851562,798.6080322265625,782.893798828125
975,780.879150390625,792.1611938476562,795.7875366210938,780.4761962890625
976,786.923095703125,794.1758422851562,793.3699340820312,783.6996459960938
977,798.6080322265625,792.967041015625,794.1758422851562,792.1611938476562
978,799.010986328125,792.5640869140625,788.1318969726562,794.981689453125
979,792.1611938476562,793.3699340820312,789.7435913085938,786.1171875
980,785.7142944335938,799.010986328125,795.7875366210938,776.4468994140625
981,792.5640869140625,799.8168334960938,797.8021850585938,782.087890625
982,794.5787353515625,799.010986328125,798.6080322265625,789.3406372070312
983,792.967041015625,799.8168334960938,797.3992919921875,794.1758422851562
984,794.1758422851562,795.7875366210938,796.1904907226562,799.8168334960938
985,796.5933837890625,796.1904907226562,799.010986328125,804.2490844726562
986,797.3992919921875,796.996337890625,796.1904907226562,813.5164794921875
987,794.1758422851562,792.1611938476562,789.7435913085938,807.4725341796875
988,796.5933837890625,797.3992919921875,792.1611938476562,792.967041015625
989,797.3992919921875,798.2051391601562,796.5933837890625,790.1465454101562
990,796.996337890625,786.1171875,795.3846435546875,793.3699340820312
991,795.7875366210938,788.5347900390625,790.5494384765625,798.2051391601562
992,794.981689453125,797.3992919921875,789.7435913085938,799.8168334960938
993,793.3699340820312,796.996337890625,790.5494384765625,799.010986328125
994,792.5640869140625,800.6226806640625,790.952392578125,798.2051391601562
995,791.7582397460938,798.6080322265625,791.7582397460938,796.996337890625
996,793.7728881835938,792.5640869140625,794.5787353515625,799.4139404296875
997,799.4139404296875,796.5933837890625,792.967041015625,796.1904907226562
998,800.2197875976562,792.5640869140625,784.908447265625,792.967041015625
999,802.2344360351562,791.7582397460938,788.937744140625,790.5494384765625
1000,803.4432373046875,793.7728881835938,789.7435913085938,781.6849975585938
1001,801.025634765625,790.5494384765625,785.3113403320312,776.4468994140625
1002,807.4725341796875,794.1758422851562,788.937744140625,787.3259887695312
1003,803.040283203125,802.6373901367188,796.996337890625,792.1611938476562
1004,796.1904907226562,799.4139404296875,799.010986328125,786.923095703125
1005,797.3992919921875,794.1758422851562,794.1758422851562,789.3406372070312
1006,786.5201416015625,799.4139404296875,792.5640869140625,785.7142944335938
1007,782.893798828125,796.5933837890625,793.7728881835938,783.2966918945312
1008,788.937744140625,791.3552856445312,790.5494384765625,787.3259887695312
1009,788.937744140625,795.7875366210938,791.3552856445312,791.7582397460938
1010,790.1465454101562,800.6226806640625,795.3846435546875,792.5640869140625
1011,791.7582397460938,795.7875366210938,798.2051391601562,795.7875366210938
1012,788.5347900390625,795.3846435546875,796.1904907226562,801.8314819335938
1013,789.7435913085938,794.1758422851562,794.981689453125,801.4285888671875
1014,792.1611938476562,798.6080322265625,795.7875366210938,797.8021850585938
1015,794.1758422851562,805.4578857421875,796.996337890625,792.5640869140625
1016,794.1758422851562,804.6520385742188,797.3992919921875,792.967041015625
1017,796.1904907226562,803.4432373046875,790.952392578125,798.2051391601562
1018,803.040283203125,801.4285888671875,794.1758422851562,802.6373901367188
1019,804.2490844726562,800.6226806640625,799.8168334960938,803.4432373046875
1020,803.4432373046875,804.6520385742188,798.2051391601562,795.7875366210938
1021,807.4725341796875,797.8021850585938,798.2051391601562,790.5494384765625
1022,804.2490844726562,789.7435913085938,797.8021850585938,789.3406372070312
1023,800.6226806640625,796.996337890625,792.1611938476562,785.7142944335938
1024,800.6226806640625,796.5933837890625,790.952392578125,785.3113403320312
1025,794.5787353515625,792.5640869140625,795.3846435546875,791.3552856445312
1026,789.3406372070312,790.5494384765625,794.5787353515625,788.1318969726562
1027,789.7435913085938,789.3406372070312,791.7582397460938,782.893798828125
1028,792.967041015625,799.4139404296875,791.3552856445312,785.7142944335938
1029,794.1758422851562,801.8314819335938,794.981689453125,791.3552856445312
1030,794.1758422851562,794.981689453125,801.4285888671875,796.1904907226562
1031,795.7875366210938,796.996337890625,796.996337890625,797.3992919921875
1032,797.8021850585938,798.6080322265625,795.3846435546875,805.4578857421875
1033,801.025634765625,792.5640869140625,799.4139404296875,806.6666870117188
1034,801.4285888671875,792.967041015625,798.6080322265625,801.4285888671875
1035,802.6373901367188,792.5640869140625,796.5933837890625,809.89013671875
1036,806.2637329101562,787.7289428710938,797.3992919921875,821.5750732421875
1037,801.8314819335938,790.5494384765625,795.3846435546875,817.1428833007812
1038,803.8461303710938,792.1611938476562,790.1465454101562,810.6959838867188
1039,806.2637329101562,786.923095703125,793.3699340820312,806.2637329101562
1040,801.4285888671875,782.893798828125,798.2051391601562,805.8607788085938
1041,802.2344360351562,788.5347900390625,797.3992919921875,805.054931640625
1042,799.4139404296875,791.7582397460938,791.7582397460938,798.2051391601562
1043,792.1611938476562,789.7435913085938,786.923095703125,795.3846435546875
1044,796.5933837890625,791.3552856445312,788.937744140625,795.7875366210938
1045,799.010986328125,794.1758422851562,791.3552856445312,799.010986328125
1046,796.1904907226562,794.5787353515625,791.3552856445312,798.6080322265625
1047,796.5933837890625,796.1904907226562,792.1611938476562,803.4432373046875
1048,794.1758422851562,801.025634765625,794.1758422851562,807.4725341796875
1049,791.3552856445312,800.6226806640625,795.7875366210938,800.6226806640625
1050,793.7728881835938,799.010986328125,794.981689453125,790.1465454101562
1051,790.1465454101562,795.3846435546875,797.3992919921875,786.923095703125
1052,784.1025390625,792.967041015625,798.2051391601562,782.893798828125
1053,783.2966918945312,791.3552856445312,797.3992919921875,771.6116943359375
1054,784.908447265625,782.087890625,790.1465454101562,771.6116943359375
1055,784.1025390625,787.3259887695312,783.6996459960938,781.2820434570312
1056,781.6849975585938,796.996337890625,786.5201416015625,779.6703491210938
1057,785.7142944335938,796.5933837890625,789.7435913085938,777.2527465820312
1058,786.5201416015625,792.1611938476562,790.1465454101562,782.4908447265625
1059,790.5494384765625,792.967041015625,790.1465454101562,794.1758422851562
1060,794.5787353515625,798.2051391601562,791.3552856445312,798.2051391601562
1061,791.7582397460938,797.8021850585938,796.5933837890625,790.1465454101562
1062,794.1758422851562,792.5640869140625,794.5787353515625,790.952392578125
1063,796.1904907226562,790.5494384765625,791.3552856445312,794.5787353515625
1064,803.8461303710938,793.7728881835938,799.4139404296875,799.010986328125
1065,809.4871826171875,790.1465454101562,803.4432373046875,802.6373901367188
1066,804.2490844726562,791.7582397460938,803.040283203125,801.025634765625
1067,807.069580078125,795.3846435546875,797.8021850585938,805.054931640625
1068,813.91943359375,789.7435913085938,796.1904907226562,811.5018310546875
1069,805.054931640625,790.952392578125,799.010986328125,801.8314819335938
1070,788.937744140625,790.1465454101562,799.8168334960938,797.3992919921875
1071,790.1465454101562,788.937744140625,797.8021850585938,804.2490844726562
1072,794.981689453125,791.3552856445312,799.010986328125,796.5933837890625
1073,792.967041015625,796.1904907226562,799.8168334960938,788.5347900390625
1074,791.7582397460938,796.1904907226562,793.7728881835938,782.893798828125
1075,790.5494384765625,796.996337890625,794.981689453125,779.6703491210938
1076,788.5347900390625,798.2051391601562,793.3699340820312,777.6557006835938
1077,789.7435913085938,794.1758422851562,789.7435913085938,775.2380981445312
1078,789.3406372070312,795.3846435546875,795.7875366210938,780.0732421875
1079,788.1318969726562,797.3992919921875,795.7875366210938,788.937744140625
1080,790.952392578125,794.5787353515625,794.1758422851562,795.3846435546875
1081,796.996337890625,793.3699340820312,796.996337890625,801.8314819335938
1082,797.3992919921875,794.5787353515625,797.8021850585938,809.084228515625
1083,792.967041015625,798.2051391601562,799.4139404296875,806.6666870117188
1084,794.1758422851562,794.1758422851562,801.8314819335938,805.4578857421875
1085,796.1904907226562,791.3552856445312,800.2197875976562,806.2637329101562
1086,794.5787353515625,790.1465454101562,796.1904907226562,810.2930297851562
1087,789.3406372070312,788.1318969726562,795.3846435546875,809.4871826171875
1088,793.7728881835938,793.3699340820312,801.025634765625,809.084228515625
1089,799.8168334960938,792.967041015625,798.2051391601562,815.5311279296875
1090,797.3992919921875,790.5494384765625,795.7875366210938,817.1428833007812
1091,796.996337890625,795.7875366210938,797.3992919921875,807.069580078125
1092,797.8021850585938,800.2197875976562,797.3992919921875,800.6226806640625
1093,794.1758422851562,794.1758422851562,798.6080322265625,795.7875366210938
1094,790.1465454101562,794.5787353515625,798.2051391601562,791.7582397460938
1095,792.1611938476562,794.5787353515625,799.4139404296875,788.937744140625
1096,787.3259887695312,784.908447265625,794.5787353515625,777.2527465820312
1097,790.952392578125,794.5787353515625,790.1465454101562,778.8644409179688
1098,792.1611938476562,804.2490844726562,794.5787353515625,784.908447265625
1099,782.893798828125,801.8314819335938,792.967041015625,780.879150390625
1100,786.923095703125,797.8021850585938,791.3552856445312,779.6703491210938
1101,786.5201416015625,795.3846435546875,794.5787353515625,776.0439453125
1102,784.5054931640625,799.4139404296875,794.981689453125,773.6264038085938
1103,787.3259887695312,803.040283203125,790.952392578125,781.6849975585938
1104,778.4615478515625,799.4139404296875,792.5640869140625,787.3259887695312
1105,782.087890625,792.967041015625,796.996337890625,796.5933837890625
1106,786.1171875,794.1758422851562,794.981689453125,799.010986328125
1107,781.6849975585938,794.1758422851562,793.7728881835938,794.981689453125
1108,787.3259887695312,798.2051391601562,799.010986328125,799.4139404296875
1109,788.5347900390625,800.2197875976562,799.010986328125,799.010986328125
1110,787.7289428710938,794.5787353515625,794.981689453125,792.967041015625
1111,788.5347900390625,798.6080322265625,792.1611938476562,790.5494384765625
1112,788.937744140625,803.040283203125,793.7728881835938,796.996337890625
1113,795.3846435546875,799.4139404296875,801.8314819335938,799.010986328125
1114,799.010986328125,795.3846435546875,796.996337890625,793.7728881835938
1115,796.1904907226562,800.6226806640625,792.967041015625,798.2051391601562
1116,797.3992919921875,806.6666870117188,793.7728881835938,801.8314819335938
1117,794.981689453125,802.2344360351562,790.952392578125,799.8168334960938
1118,792.967041015625,802.6373901367188,789.7435913085938,793.3699340820312
1119,791.7582397460938,796.996337890625,794.981689453125,792.967041015625
1120,793.3699340820312,793.3699340820312,797.3992919921875,795.7875366210938
1121,794.5787353515625,799.4139404296875,789.3406372070312,790.5494384765625
1122,790.1465454101562,800.2197875976562,789.7435913085938,786.5201416015625
1123,788.1318969726562,800.2197875976562,794.5787353515625,784.1025390625
1124,789.3406372070312,796.996337890625,793.3699340820312,777.6557006835938
1125,788.1318969726562,794.981689453125,794.5787353515625,778.4615478515625
1126,790.5494384765625,794.1758422851562,794.5787353515625,778.8644409179688
1127,789.7435913085938,793.3699340820312,790.1465454101562,781.6849975585938
1128,788.1318969726562,794.5787353515625,792.1611938476562,789.3406372070312
1129,784.908447265625,796.996337890625,791.7582397460938,781.6849975585938
1130,783.2966918945312,797.3992919921875,792.1611938476562,777.2527465820312
1131,780.0732421875,794.5787353515625,796.5933837890625,784.1025390625
1132,778.8644409179688,790.952392578125,798.2051391601562,781.2820434570312
1133,780.4761962890625,794.1758422851562,796.5933837890625,774.8351440429688
1134,784.5054931640625,790.1465454101562,794.5787353515625,776.4468994140625
1135,788.937744140625,782.087890625,793.7728881835938,780.4761962890625
1136,783.6996459960938,788.937744140625,796.996337890625,783.2966918945312
1137,783.2966918945312,792.5640869140625,799.010986328125,781.6849975585938
1138,785.7142944335938,787.3259887695312,792.967041015625,782.087890625
1139,788.1318969726562,788.937744140625,791.3552856445312,787.3259887695312
1140,790.952392578125,789.3406372070312,792.1611938476562,790.5494384765625
1141,798.6080322265625,784.1025390625,789.7435913085938,791.7582397460938
1142,801.025634765625,784.5054931640625,788.937744140625,786.923095703125
1143,792.1611938476562,785.7142944335938,787.7289428710938,786.1171875
1144,788.937744140625,785.3113403320312,792.1611938476562,797.3992919921875
1145,788.1318969726562,786.923095703125,793.7728881835938,794.981689453125
1146,786.1171875,788.937744140625,788.5347900390625,792.5640869140625
1147,788.5347900390625,789.7435913085938,792.967041015625,801.025634765625
1148,792.5640869140625,791.7582397460938,796.1904907226562,800.2197875976562
1149,794.5787353515625,790.5494384765625,794.5787353515625,793.3699340820312
1150,791.7582397460938,790.5494384765625,786.923095703125,788.5347900390625
1151,786.923095703125,792.5640869140625,787.3259887695312,784.5054931640625
1152,787.3259887695312,793.3699340820312,796.5933837890625,789.3406372070312
1153,792.5640869140625,796.996337890625,798.2051391601562,793.3699340820312
1154,794.1758422851562,793.7728881835938,798.6080322265625,794.1758422851562
1155,796.5933837890625,786.923095703125,795.3846435546875,796.996337890625
1156,797.8021850585938,795.3846435546875,794.981689453125,796.996337890625
1157,795.3846435546875,796.996337890625,793.3699340820312,792.1611938476562
1158,795.7875366210938,794.5787353515625,790.5494384765625,788.5347900390625
1159,794.1758422851562,798.6080322265625,790.952392578125,788.937744140625
1160,796.996337890625,798.2051391601562,790.5494384765625,796.5933837890625
1161,803.040283203125,792.1611938476562,794.5787353515625,804.6520385742188
1162,796.996337890625,796.996337890625,795.7875366210938,797.3992919921875
1163,784.5054931640625,803.040283203125,795.7875366210938,782.893798828125
1164,782.4908447265625,799.010986328125,798.6080322265625,784.5054931640625
1165,787.3259887695312,798.2051391601562,796.5933837890625,785.3113403320312
1166,794.1758422851562,801.4285888671875,790.5494384765625,796.1904907226562
1167,801.8314819335938,798.2051391601562,789.7435913085938,807.4725341796875
1168,799.010986328125,796.1904907226562,793.3699340820312,797.3992919921875
1169,797.3992919921875,794.1758422851562,795.7875366210938,794.981689453125
1170,799.010986328125,791.3552856445312,792.1611938476562,804.2490844726562
1171,799.4139404296875,794.1758422851562,792.5640869140625,807.4725341796875
1172,797.3992919921875,790.952392578125,793.7728881835938,798.6080322265625
1173,797.8021850585938,787.7289428710938,790.952392578125,799.010986328125
1174,795.3846435546875,785.7142944335938,791.3552856445312,797.8021850585938
1175,793.7728881835938,790.5494384765625,796.996337890625,801.4285888671875
1176,798.6080322265625,803.040283203125,798.6080322265625,803.8461303710938
1177,796.1904907226562,803.8461303710938,796.5933837890625,800.2197875976562
1178,795.7875366210938,799.8168334960938,798.2051391601562,799.8168334960938
1179,790.1465454101562,798.2051391601562,796.1904907226562,787.3259887695312
1180,780.4761962890625,787.7289428710938,785.3113403320312,779.2673950195312
1181,782.893798828125,786.1171875,786.923095703125,786.1171875
1182,782.4908447265625,787.7289428710938,792.5640869140625,786.923095703125
1183,782.893798828125,790.1465454101562,793.3699340820312,785.3113403320312
1184,784.908447265625,793.7728881835938,791.3552856445312,783.6996459960938
1185,788.5347900390625,787.3259887695312,790.1465454101562,782.4908447265625
1186,790.952392578125,793.7728881835938,790.1465454101562,788.1318969726562
1187,791.3552856445312,800.6226806640625,786.1171875,792.5640869140625
1188,788.937744140625,794.981689453125,786.923095703125,795.7875366210938
1189,785.3113403320312,789.3406372070312,789.7435913085938,796.5933837890625
1190,784.908447265625,794.5787353515625,789.3406372070312,798.2051391601562
1191,787.3259887695312,796.5933837890625,790.5494384765625,799.010986328125
1192,795.7875366210938,791.7582397460938,790.952392578125,798.2051391601562
1193,791.7582397460938,794.1758422851562,792.1611938476562,789.7435913085938
1194,786.5201416015625,797.3992919921875,795.7875366210938,781.6849975585938
1195,787.3259887695312,797.3992919921875,791.3552856445312,780.0732421875
1196,791.3552856445312,802.2344360351562,787.7289428710938,783.6996459960938
1197,795.7875366210938,796.996337890625,792.1611938476562,792.5640869140625
1198,795.3846435546875,791.3552856445312,792.1611938476562,794.5787353515625
1199,789.3406372070312,792.5640869140625,794.981689453125,790.952392578125
1200,794.1758422851562,790.952392578125,796.1904907226562,792.1611938476562
1201,798.2051391601562,786.1171875,792.1611938476562,796.1904907226562
1202,790.5494384765625,780.879150390625,792.5640869140625,796.5933837890625
1203,791.3552856445312,786.5201416015625,795.7875366210938,796.5933837890625
1204,791.7582397460938,795.7875366210938,798.6080322265625,800.2197875976562
1205,792.5640869140625,795.3846435546875,796.1904907226562,797.8021850585938
1206,794.981689453125,790.5494384765625,790.952392578125,791.7582397460938
1207,796.996337890625,793.3699340820312,788.5347900390625,794.5787353515625
1208,809.89013671875,793.7728881835938,795.7875366210938,801.8314819335938
1209,810.6959838867188,793.3699340820312,798.6080322265625,799.8168334960938
1210,805.8607788085938,799.4139404296875,793.7728881835938,796.996337890625
1211,813.113525390625,795.7875366210938,796.1904907226562,792.5640869140625
1212,816.3369750976562,797.3992919921875,794.5787353515625,791.3552856445312
1213,808.6813354492188,799.8168334960938,789.3406372070312,792.967041015625
1214,805.054931640625,797.8021850585938,790.5494384765625,794.1758422851562
1215,803.4432373046875,791.3552856445312,794.1758422851562,797.8021850585938
1216,806.6666870117188,788.5347900390625,791.3552856445312,804.6520385742188
1217,805.4578857421875,791.3552856445312,786.5201416015625,810.6959838867188
1218,802.2344360351562,791.3552856445312,795.7875366210938,805.4578857421875
1219,803.8461303710938,791.3552856445312,803.8461303710938,802.6373901367188
1220,806.6666870117188,790.1465454101562,804.2490844726562,800.2197875976562
1221,807.4725341796875,794.1758422851562,803.8461303710938,798.2051391601562
1222,800.6226806640625,791.7582397460938,799.4139404296875,794.5787353515625
1223,803.8461303710938,788.5347900390625,797.8021850585938,790.5494384765625
1224,807.87548828125,787.3259887695312,799.010986328125,798.6080322265625
1225,800.2197875976562,784.5054931640625,797.3992919921875,796.996337890625
1226,798.2051391601562,786.5201416015625,796.1904907226562,785.7142944335938
1227,802.6373901367188,788.937744140625,795.3846435546875,789.7435913085938
1228,798.6080322265625,790.1465454101562,793.3699340820312,799.010986328125
1229,795.7875366210938,792.967041015625,800.2197875976562,794.1758422851562
1230,794.5787353515625,792.1611938476562,799.010986328125,788.5347900390625
1231,783.6996459960938,792.5640869140625,793.7728881835938,785.7142944335938
1232,786.1171875,798.6080322265625,794.5787353515625,784.908447265625
1233,792.5640869140625,796.996337890625,792.5640869140625,789.3406372070312
1234,787.3259887695312,792.1611938476562,795.7875366210938,791.7582397460938
1235,788.1318969726562,788.937744140625,797.8021850585938,790.5494384765625
1236,787.3259887695312,786.923095703125,792.1611938476562,790.5494384765625
1237,783.2966918945312,790.5494384765625,790.1465454101562,787.3259887695312
1238,791.7582397460938,792.5640869140625,794.981689453125,794.5787353515625
1239,799.4139404296875,795.3846435546875,794.5787353515625,804.2490844726562
1240,796.996337890625,798.2051391601562,790.1465454101562,796.1904907226562
1241,792.1611938476562,800.2197875976562,793.3699340820312,786.923095703125
1242,791.7582397460938,798.6080322265625,792.967041015625,789.3406372070312
1243,792.967041015625,795.7875366210938,789.7435913085938,794.981689453125
1244,789.7435913085938,799.010986328125,796.1904907226562,796.1904907226562
1245,786.923095703125,799.8168334960938,797.3992919921875,791.3552856445312
1246,792.967041015625,796.1904907226562,796.5933837890625,790.952392578125
1247,799.010986328125,792.5640869140625,795.3846435546875,792.1611938476562
1248,801.8314819335938,792.967041015625,799.4139404296875,790.5494384765625
1249,798.6080322265625,790.952392578125,796.996337890625,791.7582397460938
1250,793.3699340820312,794.1758422851562,788.5347900390625,795.7875366210938
1251,797.8021850585938,796.996337890625,793.3699340820312,809.4871826171875
1252,796.1904907226562,794.1758422851562,798.2051391601562,807.4725341796875
1253,788.937744140625,785.7142944335938,798.2051391601562,792.5640869140625
1254,789.7435913085938,790.5494384765625,796.1904907226562,788.5347900390625
1255,791.7582397460938,789.7435913085938,797.8021850585938,793.3699340820312
1256,790.1465454101562,779.6703491210938,798.6080322265625,794.981689453125
1257,790.1465454101562,785.3113403320312,796.1904907226562,791.3552856445312
1258,792.1611938476562,790.1465454101562,794.1758422851562,796.5933837890625
1259,791.7582397460938,790.5494384765625,792.967041015625,798.6080322265625
1260,790.1465454101562,785.3113403320312,790.5494384765625,798.2051391601562
1261,790.952392578125,783.2966918945312,791.7582397460938,801.025634765625
1262,796.996337890625,787.3259887695312,796.5933837890625,801.4285888671875
1263,801.025634765625,788.1318969726562,795.3846435546875,794.1758422851562
1264,800.6226806640625,794.1758422851562,792.1611938476562,781.6849975585938
1265,796.5933837890625,796.5933837890625,792.1611938476562,782.087890625
1266,794.5787353515625,789.3406372070312,794.981689453125,792.5640869140625
1267,793.3699340820312,785.3113403320312,795.3846435546875,788.937744140625
1268,796.5933837890625,789.3406372070312,790.5494384765625,782.893798828125
1269,799.010986328125,787.3259887695312,789.7435913085938,780.4761962890625
1270,796.996337890625,786.923095703125,796.5933837890625,789.7435913085938
1271,788.937744140625,788.1318969726562,794.5787353515625,785.3113403320312
1272,787.3259887695312,789.3406372070312,788.1318969726562,775.6410522460938
1273,790.1465454101562,794.981689453125,790.1465454101562,782.087890625
1274,790.5494384765625,796.5933837890625,793.3699340820312,798.6080322265625
1275,785.7142944335938,800.2197875976562,795.3846435546875,797.3992919921875
1276,791.7582397460938,804.6520385742188,799.010986328125,794.5787353515625
1277,801.025634765625,802.2344360351562,801.8314819335938,800.6226806640625
1278,801.4285888671875,800.6226806640625,799.4139404296875,792.5640869140625
1279,799.010986328125,797.8021850585938,799.8168334960938,783.6996459960938
1280,794.5787353515625,798.6080322265625,802.2344360351562,784.1025390625
1281,793.7728881835938,799.010986328125,797.8021850585938,796.5933837890625
1282,796.1904907226562,796.1904907226562,796.5933837890625,801.025634765625
1283,798.6080322265625,790.952392578125,799.010986328125,796.996337890625
1284,796.1904907226562,788.5347900390625,801.025634765625,797.3992919921875
1285,794.981689453125,788.937744140625,802.2344360351562,799.4139404296875
1286,793.7728881835938,792.1611938476562,797.8021850585938,796.5933837890625
1287,792.967041015625,799.010986328125,798.2051391601562,792.967041015625
1288,797.3992919921875,801.025634765625,799.010986328125,798.2051391601562
1289,800.6226806640625,797.8021850585938,794.981689453125,797.8021850585938
1290,798.6080322265625,802.2344360351562,796.996337890625,794.5787353515625
1291,792.967041015625,806.6666870117188,793.7728881835938,790.5494384765625
1292,788.1318969726562,800.6226806640625,788.5347900390625,792.967041015625
1293,787.3259887695312,793.3699340820312,784.5054931640625,797.3992919921875
1294,786.1171875,787.7289428710938,781.6849975585938,799.010986328125
1295,787.7289428710938,790.1465454101562,789.3406372070312,790.1465454101562
1296,789.7435913085938,793.7728881835938,790.5494384765625,777.2527465820312
1297,792.5640869140625,795.3846435546875,791.3552856445312,781.6849975585938
1298,788.5347900390625,798.6080322265625,794.5787353515625,786.923095703125
1299,786.923095703125,799.4139404296875,796.1904907226562,788.1318969726562
1300,790.1465454101562,790.5494384765625,793.3699340820312,784.5054931640625
1301,787.3259887695312,790.5494384765625,788.5347900390625,780.4761962890625
1302,782.087890625,794.1758422851562,789.3406372070312,780.4761962890625
1303,784.908447265625,793.3699340820312,791.3552856445312,783.6996459960938
1304,786.1171875,791.7582397460938,790.952392578125,787.3259887695312
1305,784.1025390625,787.3259887695312,788.5347900390625,789.3406372070312
1306,786.1171875,788.5347900390625,788.937744140625,787.3259887695312
1307,789.7435913085938,792.967041015625,792.967041015625,786.1171875
1308,791.3552856445312,792.1611938476562,795.3846435546875,795.7875366210938
1309,795.7875366210938,796.996337890625,792.5640869140625,799.8168334960938
1310,797.8021850585938,794.981689453125,794.1758422851562,793.3699340820312
1311,793.3699340820312,790.952392578125,794.981689453125,787.3259887695312
1312,791.7582397460938,796.5933837890625,796.996337890625,790.952392578125
1313,789.3406372070312,794.1758422851562,796.1904907226562,786.923095703125
1314,788.937744140625,791.7582397460938,795.3846435546875,782.4908447265625
1315,792.967041015625,793.7728881835938,796.1904907226562,789.3406372070312
1316,790.5494384765625,797.8021850585938,797.8021850585938,792.967041015625
1317,787.3259887695312,799.4139404296875,800.6226806640625,792.1611938476562
1318,792.967041015625,795.3846435546875,796.996337890625,791.3552856445312
1319,795.7875366210938,787.7289428710938,792.967041015625,790.5494384765625
1320,795.7875366210938,790.952392578125,790.952392578125,791.7582397460938
1321,796.1904907226562,795.3846435546875,795.3846435546875,788.5347900390625
1322,798.6080322265625,795.7875366210938,799.4139404296875,787.3259887695312
1323,804.6520385742188,794.981689453125,796.5933837890625,793.3699340820312
1324,805.054931640625,791.3552856445312,792.1611938476562,804.6520385742188
1325,801.8314819335938,795.3846435546875,793.3699340820312,805.054931640625
1326,802.6373901367188,791.3552856445312,798.6080322265625,796.1904907226562
1327,797.8021850585938,789.7435913085938,795.3846435546875,798.6080322265625
1328,795.3846435546875,791.7582397460938,790.952392578125,801.8314819335938
1329,798.2051391601562,791.3552856445312,794.5787353515625,794.981689453125
1330,794.5787353515625,795.7875366210938,794.1758422851562,793.7728881835938
1331,797.3992919921875,794.5787353515625,791.7582397460938,801.025634765625
1332,799.010986328125,792.5640869140625,793.7728881835938,804.6520385742188
1333,793.3699340820312,792.5640869140625,795.3846435546875,800.6226806640625
1334,790.952392578125,792.1611938476562,793.3699340820312,795.3846435546875
1335,784.1025390625,790.952392578125,790.5494384765625,795.3846435546875
1336,785.3113403320312,788.1318969726562,788.937744140625,800.2197875976562
1337,792.5640869140625,793.3699340820312,790.952392578125,797.8021850585938
1338,796.996337890625,794.5787353515625,788.937744140625,792.967041015625
1339,797.8021850585938,799.8168334960938,788.1318969726562,796.5933837890625
1340,796.996337890625,799.4139404296875,793.3699340820312,799.8168334960938
1341,797.8021850585938,797.8021850585938,796.996337890625,797.3992919921875
1342,796.1904907226562,798.2051391601562,794.1758422851562,790.5494384765625
1343,788.937744140625,786.923095703125,789.3406372070312,785.3113403320312
1344,792.1611938476562,790.952392578125,790.952392578125,791.7582397460938
1345,801.8314819335938,797.3992919921875,792.1611938476562,791.7582397460938
1346,797.3992919921875,790.1465454101562,790.5494384765625,786.923095703125
1347,796.1904907226562,792.5640869140625,787.7289428710938,797.8021850585938
1348,787.3259887695312,795.7875366210938,787.3259887695312,792.967041015625
1349,785.3113403320312,793.3699340820312,794.1758422851562,784.1025390625
1350,788.1318969726562,789.3406372070312,796.1904907226562,786.1171875
1351,789.3406372070312,790.1465454101562,796.1904907226562,794.5787353515625
1352,789.3406372070312,791.3552856445312,798.6080322265625,797.3992919921875
1353,786.1171875,793.7728881835938,799.010986328125,792.5640869140625
1354,787.7289428710938,797.8021850585938,796.5933837890625,796.1904907226562
1355,787.7289428710938,797.8021850585938,793.3699340820312,794.5787353515625
1356,787.3259887695312,798.2051391601562,795.3846435546875,791.3552856445312
1357,786.1171875,794.1758422851562,796.1904907226562,794.981689453125
1358,787.3259887695312,791.7582397460938,788.1318969726562,790.1465454101562
1359,792.1611938476562,795.3846435546875,794.1758422851562,782.893798828125
1360,794.981689453125,796.996337890625,799.010986328125,780.4761962890625
1361,798.2051391601562,797.3992919921875,789.3406372070312,780.4761962890625
1362,798.6080322265625,796.1904907226562,788.1318969726562,784.1025390625
1363,794.981689453125,789.7435913085938,789.3406372070312,790.1465454101562
1364,789.7435913085938,788.1318969726562,788.1318969726562,791.3552856445312
1365,793.3699340820312,794.981689453125,789.3406372070312,792.5640869140625
1366,802.6373901367188,796.5933837890625,790.952392578125,792.5640869140625
1367,803.8461303710938,794.981689453125,792.5640869140625,795.3846435546875
1368,801.025634765625,792.1611938476562,796.1904907226562,798.2051391601562
1369,794.5787353515625,792.1611938476562,792.1611938476562,794.981689453125
1370,793.7728881835938,792.1611938476562,788.1318969726562,802.6373901367188
1371,795.7875366210938,794.1758422851562,796.5933837890625,800.2197875976562
1372,793.3699340820312,794.1758422851562,797.3992919921875,791.7582397460938
1373,790.1465454101562,790.1465454101562,796.1904907226562,788.5347900390625
1374,784.908447265625,790.952392578125,800.6226806640625,790.1465454101562
1375,782.087890625,793.7728881835938,802.2344360351562,796.1904907226562
1376,781.6849975585938,790.1465454101562,802.2344360351562,799.4139404296875
1377,788.937744140625,790.952392578125,798.6080322265625,796.5933837890625
1378,793.3699340820312,793.3699340820312,798.6080322265625,786.5201416015625
1379,788.5347900390625,792.1611938476562,798.6080322265625,784.1025390625
1380,786.923095703125,793.3699340820312,795.7875366210938,780.0732421875
1381,790.5494384765625,784.908447265625,797.3992919921875,779.6703491210938
1382,791.7582397460938,778.4615478515625,793.3699340820312,791.7582397460938
1383,783.2966918945312,788.1318969726562,791.7582397460938,791.7582397460938
1384,780.0732421875,793.7728881835938,794.981689453125,794.981689453125
1385,786.5201416015625,794.1758422851562,798.2051391601562,801.8314819335938
1386,786.1171875,789.3406372070312,800.6226806640625,801.025634765625
1387,788.937744140625,788.937744140625,799.010986328125,794.981689453125
1388,789.3406372070312,791.3552856445312,790.5494384765625,789.7435913085938
1389,786.5201416015625,794.1758422851562,792.967041015625,789.7435913085938
1390,784.5054931640625,795.3846435546875,798.6080322265625,787.3259887695312
1391,779.2673950195312,788.937744140625,797.8021850585938,786.1171875
1392,777.6557006835938,778.8644409179688,792.1611938476562,783.2966918945312
1393,775.2380981445312,781.6849975585938,790.1465454101562,784.908447265625
1394,770.0,788.937744140625,792.5640869140625,783.2966918945312
1395,770.4029541015625,784.5054931640625,791.7582397460938,776.0439453125
1396,775.6410522460938,778.4615478515625,793.7728881835938,782.087890625
1397,781.6849975585938,776.0439453125,791.7582397460938,790.1465454101562
1398,784.908447265625,784.908447265625,792.1611938476562,788.1318969726562
1399,787.3259887695312,795.7875366210938,794.5787353515625,785.7142944335938
1400,792.1611938476562,798.2051391601562,794.1758422851562,788.1318969726562
1401,798.2051391601562,798.6080322265625,791.3552856445312,790.1465454101562
1402,796.1904907226562,802.2344360351562,792.5640869140625,792.1611938476562
1403,798.2051391601562,799.8168334960938,801.025634765625,796.5933837890625
1404,803.040283203125,797.3992919921875,800.6226806640625,803.4432373046875
1405,804.6520385742188,798.6080322265625,797.8021850585938,799.010986328125
1406,811.5018310546875,797.3992919921875,803.8461303710938,800.6226806640625
1407,813.5164794921875,799.010986328125,802.2344360351562,806.6666870117188
1408,814.7252807617188,800.2197875976562,796.5933837890625,809.89013671875
1409,814.7252807617188,799.4139404296875,801.8314819335938,808.6813354492188
1410,813.113525390625,798.2051391601562,800.6226806640625,804.2490844726562
1411,807.069580078125,794.1758422851562,795.7875366210938,801.025634765625
1412,803.4432373046875,795.7875366210938,795.7875366210938,800.6226806640625
1413,801.025634765625,799.010986328125,797.8021850585938,799.8168334960938
1414,793.3699340820312,792.1611938476562,796.1904907226562,803.8461303710938
1415,785.3113403320312,783.6996459960938,787.7289428710938,802.6373901367188
1416,787.7289428710938,788.5347900390625,786.1171875,799.8168334960938
1417,792.1611938476562,790.952392578125,788.937744140625,794.1758422851562
1418,791.7582397460938,792.1611938476562,791.3552856445312,785.3113403320312
1419,792.5640869140625,794.1758422851562,791.7582397460938,785.7142944335938
1420,795.7875366210938,786.923095703125,786.1171875,792.967041015625
1421,798.6080322265625,790.1465454101562,786.5201416015625,786.923095703125
1422,790.952392578125,795.7875366210938,788.1318969726562,778.8644409179688
1423,788.937744140625,791.7582397460938,788.5347900390625,783.6996459960938
1424,790.5494384765625,786.923095703125,786.923095703125,782.4908447265625
1425,783.2966918945312,788.937744140625,785.7142944335938,776.8497924804688
1426,784.908447265625,792.5640869140625,785.7142944335938,782.087890625
1427,790.1465454101562,780.4761962890625,789.3406372070312,788.1318969726562
1428,788.5347900390625,777.2527465820312,788.1318969726562,785.3113403320312
1429,786.5201416015625,794.981689453125,788.5347900390625,783.2966918945312
1430,780.879150390625,798.6080322265625,789.3406372070312,778.05859375
1431,779.6703491210938,794.1758422851562,787.3259887695312,777.2527465820312
1432,781.6849975585938,791.3552856445312,788.5347900390625,778.4615478515625
1433,780.4761962890625,790.1465454101562,785.7142944335938,778.05859375
1434,779.2673950195312,789.3406372070312,786.923095703125,782.893798828125
1435,773.6264038085938,785.3113403320312,794.5787353515625,789.3406372070312
1436,770.0,788.1318969726562,795.3846435546875,795.7875366210938
1437,774.4322509765625,790.5494384765625,793.7728881835938,792.1611938476562
1438,782.893798828125,788.5347900390625,797.8021850585938,793.7728881835938
1439,788.1318969726562,784.1025390625,798.2051391601562,799.8168334960938
1440,792.5640869140625,780.4761962890625,794.981689453125,801.025634765625
1441,792.5640869140625,788.1318969726562,795.3846435546875,799.8168334960938
1442,797.3992919921875,794.981689453125,794.5787353515625,796.1904907226562
1443,809.084228515625,791.7582397460938,792.967041015625,803.8461303710938
1444,809.084228515625,796.5933837890625,796.1904907226562,809.89013671875
1445,803.4432373046875,805.054931640625,796.996337890625,804.2490844726562
1446,800.2197875976562,801.4285888671875,798.2051391601562,795.3846435546875
1447,802.2344360351562,798.6080322265625,796.1904907226562,788.937744140625
1448,810.6959838867188,803.040283203125,794.5787353515625,791.7582397460938
1449,813.91943359375,799.8168334960938,792.5640869140625,786.5201416015625
1450,809.084228515625,794.1758422851562,789.3406372070312,786.1171875
1451,809.084228515625,797.3992919921875,797.3992919921875,794.1758422851562
1452,812.3076782226562,797.3992919921875,804.6520385742188,797.8021850585938
1453,810.6959838867188,787.3259887695312,805.4578857421875,799.8168334960938
1454,800.2197875976562,790.1465454101562,801.025634765625,798.2051391601562
1455,793.7728881835938,796.5933837890625,796.5933837890625,791.3552856445312
1456,791.3552856445312,795.7875366210938,796.5933837890625,795.7875366210938
1457,788.1318969726562,798.6080322265625,796.996337890625,795.7875366210938
1458,791.3552856445312,800.6226806640625,798.2051391601562,800.6226806640625
1459,793.3699340820312,798.6080322265625,799.010986328125,804.2490844726562
1460,788.1318969726562,792.967041015625,795.3846435546875,792.967041015625
1461,783.6996459960938,788.1318969726562,796.1904907226562,789.7435913085938
1462,784.908447265625,784.5054931640625,789.7435913085938,800.6226806640625
1463,786.923095703125,787.3259887695312,787.7289428710938,803.040283203125
1464,780.4761962890625,784.908447265625,793.7728881835938,791.7582397460938
1465,780.4761962890625,778.8644409179688,793.7728881835938,789.3406372070312
1466,787.7289428710938,787.7289428710938,790.952392578125,798.6080322265625
1467,783.2966918945312,793.3699340820312,789.3406372070312,791.3552856445312
1468,780.0732421875,793.3699340820312,788.937744140625,782.893798828125
1469,789.3406372070312,788.937744140625,790.5494384765625,786.923095703125
1470,794.5787353515625,789.3406372070312,794.1758422851562,790.1465454101562
1471,787.3259887695312,794.981689453125,792.967041015625,786.923095703125
1472,781.6849975585938,795.3846435546875,787.3259887695312,781.2820434570312
1473,785.3113403320312,793.7728881835938,790.1465454101562,782.893798828125
1474,786.5201416015625,796.5933837890625,790.952392578125,783.2966918945312
1475,789.3406372070312,792.5640869140625,791.3552856445312,781.2820434570312
1476,792.1611938476562,784.908447265625,791.7582397460938,782.4908447265625
1477,791.3552856445312,785.3113403320312,788.5347900390625,790.952392578125
1478,794.1758422851562,789.7435913085938,787.3259887695312,797.3992919921875
1479,795.7875366210938,796.5933837890625,791.7582397460938,795.3846435546875
1480,800.2197875976562,801.4285888671875,796.1904907226562,796.5933837890625
1481,802.6373901367188,801.025634765625,795.3846435546875,799.8168334960938
1482,795.7875366210938,795.3846435546875,792.1611938476562,792.5640869140625
1483,794.1758422851562,794.5787353515625,794.981689453125,784.908447265625
1484,792.5640869140625,795.7875366210938,792.5640869140625,786.1171875
1485,791.7582397460938,794.5787353515625,782.893798828125,792.1611938476562
1486,792.967041015625,793.3699340820312,785.7142944335938,796.1904907226562
1487,789.3406372070312,790.1465454101562,794.981689453125,794.1758422851562
1488,786.5201416015625,791.3552856445312,795.7875366210938,798.6080322265625
1489,783.6996459960938,791.3552856445312,792.5640869140625,803.040283203125
1490,779.2673950195312,788.937744140625,790.5494384765625,793.3699340820312
1491,782.087890625,788.937744140625,796.5933837890625,789.7435913085938
1492,784.1025390625,794.981689453125,803.4432373046875,796.1904907226562
1493,786.923095703125,794.981689453125,803.8461303710938,796.996337890625
1494,788.937744140625,791.3552856445312,803.040283203125,795.3846435546875
1495,786.923095703125,788.937744140625,800.2197875976562,792.5640869140625
1496,789.3406372070312,787.7289428710938,799.8168334960938,797.8021850585938
1497,786.923095703125,788.1318969726562,801.025634765625,801.8314819335938
1498,782.087890625,793.3699340820312,803.040283203125,797.3992919921875
1499,780.4761962890625,794.5787353515625,795.3846435546875,790.5494384765625
1500,785.7142944335938,789.7435913085938,792.967041015625,789.3406372070312
1501,786.5201416015625,784.5054931640625,796.1904907226562,788.937744140625
1502,786.923095703125,788.937744140625,794.981689453125,781.6849975585938
1503,792.967041015625,790.1465454101562,798.2051391601562,780.879150390625
1504,791.7582397460938,789.3406372070312,796.1904907226562,784.5054931640625
1505,789.3406372070312,797.8021850585938,798.2051391601562,790.1465454101562
1506,788.937744140625,790.1465454101562,799.4139404296875,790.5494384765625
1507,789.7435913085938,783.2966918945312,795.7875366210938,790.5494384765625
1508,793.7728881835938,789.3406372070312,798.6080322265625,794.5787353515625
1509,792.1611938476562,793.3699340820312,797.3992919921875,797.8021850585938
1510,791.3552856445312,792.1611938476562,794.981689453125,796.5933837890625
1511,791.3552856445312,784.5054931640625,791.3552856445312,789.7435913085938
1512,788.937744140625,781.2820434570312,794.981689453125,798.6080322265625
1513,784.1025390625,791.7582397460938,797.3992919921875,807.4725341796875
1514,785.7142944335938,796.996337890625,797.3992919921875,799.8168334960938
1515,789.7435913085938,790.952392578125,796.1904907226562,794.981689453125
1516,786.923095703125,788.1318969726562,796.996337890625,794.981689453125
1517,781.6849975585938,794.1758422851562,798.2051391601562,792.5640869140625
1518,780.879150390625,795.3846435546875,798.2051391601562,792.1611938476562
1519,786.923095703125,794.1758422851562,800.2197875976562,795.3846435546875
1520,789.7435913085938,792.967041015625,799.010986328125,797.8021850585938
1521,788.5347900390625,792.967041015625,798.2051391601562,798.6080322265625
1522,786.5201416015625,789.7435913085938,793.7728881835938,793.7728881835938
1523,788.937744140625,792.1611938476562,794.1758422851562,794.981689453125
1524,792.967041015625,796.996337890625,796.1904907226562,798.6080322265625
1525,791.3552856445312,796.5933837890625,796.996337890625,797.8021850585938
1526,792.1611938476562,798.6080322265625,796.996337890625,796.996337890625
1527,791.7582397460938,791.7582397460938,790.5494384765625,798.2051391601562
1528,790.5494384765625,791.7582397460938,791.3552856445312,804.2490844726562
1529,787.7289428710938,803.4432373046875,798.2051391601562,799.010986328125
1530,782.893798828125,799.4139404296875,798.6080322265625,790.952392578125
1531,782.087890625,795.3846435546875,795.3846435546875,792.967041015625
1532,782.087890625,799.010986328125,797.8021850585938,792.967041015625
1533,784.5054931640625,798.2051391601562,795.3846435546875,792.5640869140625
1534,788.1318969726562,793.7728881835938,787.7289428710938,794.1758422851562
1535,791.3552856445312,793.7728881835938,790.952392578125,792.967041015625
1536,789.3406372070312,791.3552856445312,794.1758422851562,788.5347900390625
1537,790.1465454101562,789.7435913085938,790.952392578125,782.087890625
1538,786.5201416015625,794.5787353515625,789.3406372070312,776.0439453125
1539,783.2966918945312,790.952392578125,786.923095703125,780.879150390625
1540,781.2820434570312,788.5347900390625,786.5201416015625,784.5054931640625
1541,781.2820434570312,796.996337890625,790.5494384765625,781.6849975585938
1542,781.6849975585938,796.996337890625,793.7728881835938,787.7289428710938
1543,784.1025390625,794.5787353515625,795.3846435546875,786.923095703125
1544,790.5494384765625,796.1904907226562,794.981689453125,786.5201416015625
1545,791.3552856445312,792.967041015625,791.3552856445312,790.952392578125
1546,790.5494384765625,785.3113403320312,787.7289428710938,792.967041015625
1547,789.7435913085938,785.3113403320312,791.3552856445312,793.3699340820312
1548,789.7435913085938,791.7582397460938,801.4285888671875,800.6226806640625
1549,788.937744140625,786.923095703125,803.4432373046875,802.6373901367188
1550,791.7582397460938,778.8644409179688,800.6226806640625,798.6080322265625
1551,800.2197875976562,787.7289428710938,799.8168334960938,804.2490844726562
1552,796.5933837890625,797.8021850585938,797.3992919921875,800.2197875976562
1553,785.7142944335938,795.3846435546875,796.996337890625,788.5347900390625
1554,790.1465454101562,793.3699340820312,803.8461303710938,798.6080322265625
1555,792.1611938476562,796.996337890625,801.8314819335938,804.2490844726562
1556,786.923095703125,791.7582397460938,802.2344360351562,795.3846435546875
1557,784.5054931640625,786.923095703125,797.3992919921875,790.1465454101562
1558,782.4908447265625,792.1611938476562,793.3699340820312,791.7582397460938
1559,776.8497924804688,794.5787353515625,799.8168334960938,793.3699340820312
1560,778.4615478515625,799.010986328125,800.2197875976562,793.3699340820312
1561,788.937744140625,797.8021850585938,800.2197875976562,807.069580078125
1562,787.3259887695312,787.3259887695312,802.2344360351562,811.90478515625
1563,783.2966918945312,794.1758422851562,798.2051391601562,794.1758422851562
1564,784.1025390625,799.4139404296875,793.3699340820312,789.7435913085938
1565,786.5201416015625,795.3846435546875,797.8021850585938,795.7875366210938
1566,789.7435913085938,798.6080322265625,799.4139404296875,794.5787353515625
1567,790.952392578125,801.4285888671875,793.7728881835938,788.937744140625
1568,785.7142944335938,800.2197875976562,791.3552856445312,785.7142944335938
1569,778.4615478515625,797.8021850585938,790.952392578125,787.3259887695312
1570,780.879150390625,798.2051391601562,792.1611938476562,789.3406372070312
1571,787.7289428710938,799.4139404296875,792.967041015625,784.908447265625
1572,785.7142944335938,795.7875366210938,794.981689453125,780.879150390625
1573,781.2820434570312,792.1611938476562,792.1611938476562,780.879150390625
1574,781.2820434570312,796.1904907226562,789.3406372070312,782.4908447265625
1575,784.5054931640625,796.1904907226562,788.937744140625,783.6996459960938
1576,794.5787353515625,787.7289428710938,792.967041015625,793.7728881835938
1577,800.6226806640625,791.7582397460938,794.5787353515625,794.5787353515625
1578,791.3552856445312,795.7875366210938,791.3552856445312,785.7142944335938
1579,778.8644409179688,794.5787353515625,792.1611938476562,778.4615478515625
