timestamp,RAW_TP9,RAW_AF7,RAW_AF8,RAW_TP10
1,796.996337890625,783.6996459960938,791.7582397460938,784.5054931640625
2,799.4139404296875,784.1025390625,794.981689453125,781.2820434570312
3,799.8168334960938,786.5201416015625,796.5933837890625,784.5054931640625
4,807.4725341796875,787.3259887695312,795.7875366210938,788.1318969726562
5,807.069580078125,789.3406372070312,793.7728881835938,789.3406372070312
6,803.040283203125,791.7582397460938,799.4139404296875,787.3259887695312
7,806.2637329101562,790.952392578125,798.6080322265625,779.2673950195312
8,807.069580078125,790.5494384765625,799.8168334960938,779.2673950195312
9,805.8607788085938,792.5640869140625,804.2490844726562,788.1318969726562
10,799.010986328125,790.5494384765625,799.8168334960938,787.7289428710938
11,798.6080322265625,790.952392578125,799.8168334960938,784.908447265625
12,803.4432373046875,796.5933837890625,800.2197875976562,789.3406372070312
13,795.7875366210938,794.981689453125,801.025634765625,789.3406372070312
14,788.5347900390625,792.5640869140625,799.4139404296875,786.1171875
15,787.7289428710938,792.1611938476562,794.981689453125,784.908447265625
16,788.1318969726562,788.937744140625,795.7875366210938,790.5494384765625
17,784.1025390625,786.923095703125,792.967041015625,791.7582397460938
18,782.4908447265625,790.5494384765625,790.952392578125,787.3259887695312
19,785.3113403320312,788.5347900390625,792.967041015625,788.1318969726562
20,786.923095703125,786.923095703125,792.967041015625,788.1318969726562
21,792.967041015625,790.1465454101562,794.5787353515625,798.2051391601562
22,794.5787353515625,789.3406372070312,792.5640869140625,803.8461303710938
23,793.3699340820312,787.3259887695312,788.937744140625,798.2051391601562
24,788.5347900390625,786.1171875,788.937744140625,793.7728881835938
25,796.5933837890625,785.3113403320312,791.3552856445312,793.3699340820312
26,797.8021850585938,783.6996459960938,785.7142944335938,790.5494384765625
27,795.3846435546875,786.1171875,784.5054931640625,790.1465454101562
28,800.6226806640625,791.3552856445312,789.3406372070312,793.7728881835938
29,801.4285888671875,794.5787353515625,792.967041015625,788.5347900390625
30,796.996337890625,795.3846435546875,790.5494384765625,781.6849975585938
31,793.3699340820312,794.1758422851562,785.7142944335938,778.05859375
32,794.5787353515625,793.7728881835938,785.3113403320312,775.6410522460938
33,789.7435913085938,792.1611938476562,784.5054931640625,770.0
34,783.6996459960938,790.952392578125,784.908447265625,768.7911987304688
35,787.7289428710938,792.5640869140625,786.923095703125,774.8351440429688
36,787.7289428710938,788.937744140625,783.6996459960938,777.6557006835938
37,783.6996459960938,784.5054931640625,786.1171875,777.6557006835938
38,784.1025390625,784.908447265625,789.3406372070312,774.8351440429688
39,779.6703491210938,787.7289428710938,788.5347900390625,769.1941528320312
40,777.2527465820312,790.1465454101562,792.1611938476562,778.8644409179688
41,781.6849975585938,788.937744140625,797.3992919921875,788.1318969726562
42,780.4761962890625,784.908447265625,795.3846435546875,778.8644409179688
43,780.4761962890625,784.5054931640625,789.7435913085938,778.8644409179688
44,781.6849975585938,787.3259887695312,794.5787353515625,787.3259887695312
45,780.879150390625,788.5347900390625,794.5787353515625,783.2966918945312
46,778.05859375,784.908447265625,788.937744140625,778.8644409179688
47,780.879150390625,786.923095703125,786.5201416015625,781.6849975585938
48,786.1171875,787.3259887695312,790.1465454101562,781.2820434570312
49,783.2966918945312,785.7142944335938,794.1758422851562,779.6703491210938
50,790.1465454101562,789.7435913085938,794.981689453125,786.1171875
51,792.967041015625,790.1465454101562,792.1611938476562,785.7142944335938
52,791.7582397460938,790.1465454101562,785.7142944335938,782.4908447265625
53,797.3992919921875,790.5494384765625,791.3552856445312,785.3113403320312
54,795.7875366210938,791.3552856445312,795.7875366210938,786.5201416015625
55,789.3406372070312,790.952392578125,789.7435913085938,780.879150390625
56,783.6996459960938,789.7435913085938,788.937744140625,776.8497924804688
57,783.2966918945312,787.7289428710938,791.3552856445312,776.0439453125
58,787.7289428710938,787.3259887695312,792.5640869140625,777.2527465820312
59,783.6996459960938,788.1318969726562,788.5347900390625,774.4322509765625
60,781.6849975585938,786.5201416015625,787.3259887695312,767.5823974609375
61,781.6849975585938,784.908447265625,788.937744140625,763.5531005859375
62,787.7289428710938,788.937744140625,792.5640869140625,772.0146484375
63,799.010986328125,792.5640869140625,796.1904907226562,779.2673950195312
64,797.8021850585938,790.952392578125,796.996337890625,780.4761962890625
65,790.952392578125,792.5640869140625,794.981689453125,782.087890625
66,792.1611938476562,796.996337890625,796.1904907226562,782.4908447265625
67,793.3699340820312,796.1904907226562,797.3992919921875,792.1611938476562
68,788.1318969726562,793.3699340820312,796.1904907226562,791.7582397460938
69,789.3406372070312,794.1758422851562,796.5933837890625,786.5201416015625
70,792.1611938476562,794.1758422851562,799.010986328125,788.5347900390625
71,795.3846435546875,794.5787353515625,802.2344360351562,790.1465454101562
72,796.1904907226562,795.7875366210938,802.2344360351562,793.7728881835938
73,796.996337890625,794.981689453125,798.6080322265625,791.3552856445312
74,793.7728881835938,794.5787353515625,797.8021850585938,792.967041015625
75,790.952392578125,797.3992919921875,799.4139404296875,794.981689453125
76,791.7582397460938,799.8168334960938,799.8168334960938,791.7582397460938
77,791.3552856445312,800.6226806640625,796.1904907226562,788.1318969726562
78,794.1758422851562,799.8168334960938,796.5933837890625,791.3552856445312
79,794.981689453125,796.1904907226562,798.2051391601562,796.1904907226562
80,786.1171875,791.3552856445312,796.5933837890625,788.937744140625
81,775.6410522460938,788.5347900390625,796.5933837890625,786.1171875
82,780.4761962890625,786.923095703125,795.3846435546875,787.7289428710938
83,786.923095703125,786.1171875,795.3846435546875,781.6849975585938
84,792.1611938476562,793.3699340820312,796.5933837890625,781.6849975585938
85,789.7435913085938,796.5933837890625,792.967041015625,779.6703491210938
86,784.5054931640625,794.981689453125,792.1611938476562,778.4615478515625
87,786.5201416015625,792.5640869140625,794.1758422851562,784.5054931640625
88,791.7582397460938,793.3699340820312,791.3552856445312,784.908447265625
89,793.3699340820312,795.7875366210938,789.3406372070312,784.1025390625
90,791.3552856445312,792.5640869140625,791.3552856445312,786.923095703125
91,787.7289428710938,790.1465454101562,792.5640869140625,782.893798828125
92,790.5494384765625,790.5494384765625,792.1611938476562,779.6703491210938
93,794.1758422851562,792.5640869140625,791.3552856445312,782.4908447265625
94,790.952392578125,791.7582397460938,790.5494384765625,788.937744140625
95,794.1758422851562,790.952392578125,790.5494384765625,792.1611938476562
96,794.1758422851562,792.1611938476562,791.7582397460938,790.952392578125
97,787.3259887695312,792.5640869140625,788.1318969726562,789.7435913085938
98,792.5640869140625,794.5787353515625,787.3259887695312,792.1611938476562
99,793.3699340820312,790.5494384765625,790.1465454101562,784.908447265625
100,789.3406372070312,788.5347900390625,791.7582397460938,782.4908447265625
101,788.937744140625,790.5494384765625,795.3846435546875,785.3113403320312
102,786.1171875,790.1465454101562,796.5933837890625,784.1025390625
103,789.3406372070312,789.7435913085938,797.3992919921875,782.893798828125
104,793.3699340820312,786.923095703125,792.5640869140625,774.029296875
105,795.3846435546875,784.908447265625,789.3406372070312,780.4761962890625
106,792.1611938476562,785.7142944335938,794.1758422851562,786.923095703125
107,784.1025390625,783.6996459960938,794.1758422851562,779.2673950195312
108,781.2820434570312,780.4761962890625,789.7435913085938,779.2673950195312
109,786.5201416015625,781.6849975585938,788.937744140625,782.893798828125
110,792.5640869140625,781.6849975585938,792.1611938476562,787.3259887695312
111,788.937744140625,784.1025390625,795.3846435546875,789.7435913085938
112,782.087890625,783.6996459960938,794.5787353515625,783.2966918945312
113,787.7289428710938,782.087890625,792.5640869140625,774.4322509765625
114,790.952392578125,781.6849975585938,792.5640869140625,775.2380981445312
115,787.3259887695312,779.2673950195312,792.967041015625,780.0732421875
116,782.087890625,782.4908447265625,793.3699340820312,781.6849975585938
117,778.4615478515625,785.3113403320312,795.7875366210938,789.3406372070312
118,778.05859375,783.6996459960938,796.5933837890625,791.7582397460938
119,784.908447265625,786.1171875,793.7728881835938,787.7289428710938
120,790.1465454101562,787.7289428710938,791.7582397460938,792.1611938476562
121,786.923095703125,784.908447265625,790.952392578125,787.7289428710938
122,782.893798828125,783.2966918945312,791.7582397460938,782.087890625
123,782.893798828125,779.6703491210938,787.7289428710938,780.4761962890625
124,786.5201416015625,783.6996459960938,786.923095703125,781.2820434570312
125,794.1758422851562,786.923095703125,785.7142944335938,785.7142944335938
126,793.3699340820312,786.1171875,786.923095703125,782.893798828125
127,790.5494384765625,792.5640869140625,793.3699340820312,780.0732421875
128,789.3406372070312,792.5640869140625,791.7582397460938,782.893798828125
129,788.5347900390625,793.7728881835938,792.1611938476562,786.1171875
130,795.3846435546875,793.7728881835938,790.5494384765625,781.6849975585938
131,794.1758422851562,788.1318969726562,787.7289428710938,779.6703491210938
132,792.967041015625,786.923095703125,795.7875366210938,786.1171875
133,800.2197875976562,788.937744140625,796.996337890625,793.7728881835938
134,799.010986328125,786.923095703125,794.981689453125,793.7728881835938
135,793.7728881835938,784.908447265625,802.2344360351562,800.6226806640625
136,789.3406372070312,785.3113403320312,802.2344360351562,797.3992919921875
137,789.3406372070312,783.2966918945312,800.2197875976562,788.5347900390625
138,794.1758422851562,784.908447265625,796.996337890625,788.937744140625
139,791.7582397460938,782.893798828125,789.7435913085938,786.923095703125
140,792.1611938476562,780.879150390625,789.3406372070312,792.1611938476562
141,790.5494384765625,783.2966918945312,786.1171875,790.1465454101562
142,785.7142944335938,784.1025390625,786.1171875,783.6996459960938
143,787.7289428710938,786.1171875,789.7435913085938,786.5201416015625
144,794.1758422851562,788.5347900390625,791.3552856445312,797.3992919921875
145,802.6373901367188,790.1465454101562,793.3699340820312,803.4432373046875
146,800.2197875976562,793.7728881835938,792.967041015625,799.010986328125
147,797.3992919921875,799.010986328125,792.967041015625,804.6520385742188
148,796.5933837890625,798.6080322265625,794.5787353515625,803.040283203125
149,798.6080322265625,796.1904907226562,792.5640869140625,798.6080322265625
150,805.054931640625,797.8021850585938,790.952392578125,800.6226806640625
151,803.8461303710938,795.7875366210938,791.7582397460938,800.2197875976562
152,797.3992919921875,793.3699340820312,791.3552856445312,795.7875366210938
153,793.3699340820312,796.996337890625,788.5347900390625,785.7142944335938
154,790.1465454101562,794.5787353515625,787.7289428710938,784.1025390625
155,793.7728881835938,791.3552856445312,792.967041015625,789.3406372070312
156,799.4139404296875,791.7582397460938,796.5933837890625,790.5494384765625
157,794.981689453125,789.3406372070312,793.3699340820312,786.1171875
158,790.952392578125,787.3259887695312,791.7582397460938,784.5054931640625
159,794.1758422851562,792.1611938476562,796.1904907226562,788.937744140625
160,799.4139404296875,794.5787353515625,799.010986328125,790.952392578125
161,796.1904907226562,796.5933837890625,796.5933837890625,791.7582397460938
162,788.1318969726562,798.6080322265625,794.981689453125,790.952392578125
163,779.2673950195312,791.7582397460938,796.1904907226562,787.7289428710938
164,777.2527465820312,787.7289428710938,795.3846435546875,780.0732421875
165,786.5201416015625,791.7582397460938,796.996337890625,778.8644409179688
166,789.3406372070312,791.7582397460938,797.8021850585938,780.4761962890625
167,782.4908447265625,789.7435913085938,791.7582397460938,781.6849975585938
168,781.6849975585938,792.1611938476562,789.3406372070312,779.6703491210938
169,788.5347900390625,789.7435913085938,788.5347900390625,778.4615478515625
170,791.3552856445312,789.3406372070312,784.5054931640625,782.893798828125
171,792.967041015625,789.7435913085938,783.6996459960938,781.6849975585938
172,796.996337890625,792.5640869140625,785.3113403320312,786.923095703125
173,796.5933837890625,793.7728881835938,783.2966918945312,792.5640869140625
174,795.3846435546875,792.967041015625,786.1171875,789.3406372070312
175,802.2344360351562,797.8021850585938,788.937744140625,792.1611938476562
176,804.6520385742188,799.010986328125,789.7435913085938,797.3992919921875
177,803.8461303710938,797.8021850585938,791.7582397460938,795.7875366210938
178,803.4432373046875,798.6080322265625,790.1465454101562,788.5347900390625
179,801.025634765625,799.010986328125,792.5640869140625,789.3406372070312
180,803.4432373046875,796.1904907226562,792.967041015625,791.3552856445312
181,799.4139404296875,793.3699340820312,790.1465454101562,788.5347900390625
182,793.7728881835938,791.3552856445312,788.937744140625,796.1904907226562
183,791.7582397460938,787.7289428710938,792.1611938476562,800.2197875976562
184,789.3406372070312,784.908447265625,791.7582397460938,791.3552856445312
185,795.7875366210938,783.2966918945312,791.7582397460938,789.7435913085938
186,802.2344360351562,786.1171875,791.3552856445312,793.3699340820312
187,796.5933837890625,788.937744140625,793.7728881835938,789.7435913085938
188,792.5640869140625,786.923095703125,792.967041015625,791.7582397460938
189,786.5201416015625,784.5054931640625,788.5347900390625,790.5494384765625
190,784.908447265625,788.5347900390625,792.1611938476562,793.3699340820312
191,792.967041015625,791.7582397460938,796.1904907226562,794.981689453125
192,791.3552856445312,788.5347900390625,794.5787353515625,789.7435913085938
193,785.3113403320312,786.923095703125,792.1611938476562,784.5054931640625
194,783.2966918945312,784.908447265625,793.3699340820312,782.4908447265625
195,785.7142944335938,784.1025390625,793.3699340820312,782.087890625
196,792.1611938476562,791.3552856445312,790.952392578125,782.893798828125
197,792.967041015625,789.3406372070312,791.7582397460938,785.3113403320312
198,792.5640869140625,782.087890625,793.7728881835938,784.5054931640625
199,784.1025390625,782.4908447265625,792.1611938476562,775.6410522460938
200,787.7289428710938,787.3259887695312,789.7435913085938,772.4176025390625
201,795.7875366210938,785.7142944335938,786.923095703125,782.893798828125
202,793.3699340820312,782.087890625,785.3113403320312,784.1025390625
203,792.967041015625,786.1171875,787.7289428710938,785.3113403320312
204,791.7582397460938,786.5201416015625,788.937744140625,789.3406372070312
205,788.1318969726562,784.5054931640625,788.1318969726562,788.937744140625
206,790.952392578125,784.1025390625,787.7289428710938,786.5201416015625
207,792.5640869140625,784.1025390625,792.5640869140625,789.3406372070312
208,790.5494384765625,785.7142944335938,796.1904907226562,788.1318969726562
209,791.3552856445312,785.7142944335938,794.5787353515625,786.923095703125
210,796.1904907226562,789.3406372070312,797.3992919921875,792.967041015625
211,797.8021850585938,790.952392578125,799.010986328125,791.3552856445312
212,793.7728881835938,787.3259887695312,795.3846435546875,791.3552856445312
213,787.7289428710938,784.908447265625,796.996337890625,794.1758422851562
214,784.1025390625,787.7289428710938,795.7875366210938,784.1025390625
215,789.7435913085938,790.952392578125,794.1758422851562,783.6996459960938
216,794.1758422851562,787.7289428710938,792.967041015625,788.937744140625
217,792.967041015625,787.7289428710938,789.7435913085938,787.3259887695312
218,791.7582397460938,787.3259887695312,790.1465454101562,783.2966918945312
219,784.908447265625,784.1025390625,789.7435913085938,779.2673950195312
220,784.5054931640625,783.6996459960938,791.3552856445312,783.2966918945312
221,792.967041015625,784.908447265625,790.952392578125,788.5347900390625
222,796.1904907226562,788.5347900390625,796.1904907226562,789.3406372070312
223,789.3406372070312,788.937744140625,798.2051391601562,784.5054931640625
224,786.923095703125,786.1171875,795.7875366210938,785.7142944335938
225,786.5201416015625,788.5347900390625,795.7875366210938,785.3113403320312
226,790.5494384765625,790.952392578125,794.981689453125,783.6996459960938
227,796.5933837890625,790.952392578125,792.1611938476562,792.1611938476562
228,791.7582397460938,788.5347900390625,794.5787353515625,790.5494384765625
229,790.1465454101562,789.7435913085938,794.981689453125,784.1025390625
230,794.5787353515625,792.1611938476562,794.981689453125,787.3259887695312
231,798.2051391601562,790.1465454101562,796.996337890625,794.1758422851562
232,795.7875366210938,789.7435913085938,794.981689453125,793.7728881835938
233,793.7728881835938,791.3552856445312,791.3552856445312,789.3406372070312
234,796.1904907226562,793.3699340820312,789.7435913085938,780.879150390625
235,791.7582397460938,794.5787353515625,788.5347900390625,775.2380981445312
236,794.5787353515625,791.3552856445312,790.5494384765625,785.3113403320312
237,798.6080322265625,788.937744140625,792.5640869140625,783.6996459960938
238,792.967041015625,792.1611938476562,792.1611938476562,776.8497924804688
239,789.7435913085938,790.952392578125,793.3699340820312,775.2380981445312
240,788.937744140625,788.5347900390625,790.952392578125,773.2234497070312
241,789.3406372070312,790.1465454101562,787.3259887695312,771.2088012695312
242,790.5494384765625,786.923095703125,786.1171875,770.8058471679688
243,796.1904907226562,789.3406372070312,788.1318969726562,773.6264038085938
244,793.7728881835938,795.7875366210938,787.3259887695312,774.8351440429688
245,785.7142944335938,793.7728881835938,789.7435913085938,772.0146484375
246,782.893798828125,794.1758422851562,792.1611938476562,771.2088012695312
247,784.1025390625,791.3552856445312,790.5494384765625,772.8204956054688
248,787.3259887695312,790.5494384765625,789.7435913085938,774.029296875
249,784.5054931640625,791.3552856445312,787.3259887695312,772.0146484375
250,777.2527465820312,784.5054931640625,784.5054931640625,764.7619018554688
251,777.6557006835938,782.893798828125,782.4908447265625,773.2234497070312
252,780.0732421875,787.3259887695312,781.2820434570312,784.908447265625
253,785.3113403320312,787.3259887695312,781.2820434570312,782.087890625
254,788.5347900390625,787.7289428710938,783.6996459960938,778.4615478515625
255,782.087890625,788.5347900390625,788.937744140625,777.6557006835938
256,779.2673950195312,788.1318969726562,789.3406372070312,781.2820434570312
257,780.0732421875,788.5347900390625,786.5201416015625,780.0732421875
258,782.893798828125,789.3406372070312,785.3113403320312,784.908447265625
259,785.7142944335938,785.3113403320312,787.3259887695312,792.967041015625
260,782.087890625,786.5201416015625,788.5347900390625,792.5640869140625
261,780.879150390625,788.5347900390625,787.7289428710938,787.7289428710938
262,791.7582397460938,792.5640869140625,786.5201416015625,789.7435913085938
263,794.981689453125,791.7582397460938,789.3406372070312,793.7728881835938
264,791.7582397460938,784.5054931640625,792.5640869140625,795.7875366210938
265,789.7435913085938,782.4908447265625,791.7582397460938,794.1758422851562
266,789.3406372070312,781.2820434570312,788.1318969726562,786.923095703125
267,787.7289428710938,786.1171875,790.5494384765625,786.923095703125
268,785.7142944335938,790.1465454101562,792.967041015625,788.1318969726562
269,782.893798828125,788.937744140625,793.3699340820312,784.908447265625
270,785.3113403320312,792.1611938476562,794.5787353515625,790.1465454101562
271,789.3406372070312,792.1611938476562,797.8021850585938,799.4139404296875
272,786.1171875,786.5201416015625,799.010986328125,787.3259887695312
273,790.952392578125,786.1171875,795.3846435546875,780.879150390625
274,796.5933837890625,785.3113403320312,793.7728881835938,788.1318969726562
275,789.3406372070312,785.3113403320312,793.3699340820312,784.908447265625
276,782.087890625,784.908447265625,792.5640869140625,782.087890625
277,782.4908447265625,787.7289428710938,794.5787353515625,785.3113403320312
278,789.3406372070312,791.3552856445312,794.981689453125,788.1318969726562
279,799.8168334960938,797.8021850585938,794.1758422851562,794.981689453125
280,798.6080322265625,798.2051391601562,795.3846435546875,792.1611938476562
281,788.1318969726562,793.7728881835938,794.5787353515625,786.923095703125
282,788.1318969726562,792.967041015625,797.3992919921875,788.937744140625
283,792.967041015625,793.7728881835938,796.996337890625,781.6849975585938
284,794.981689453125,791.7582397460938,792.967041015625,779.6703491210938
285,791.3552856445312,786.1171875,791.3552856445312,779.6703491210938
286,788.937744140625,788.937744140625,788.1318969726562,785.3113403320312
287,789.7435913085938,793.7728881835938,784.908447265625,784.908447265625
288,793.3699340820312,792.1611938476562,785.7142944335938,784.908447265625
289,794.981689453125,793.7728881835938,784.1025390625,788.1318969726562
290,791.7582397460938,795.7875366210938,786.1171875,787.7289428710938
291,792.967041015625,793.7728881835938,788.1318969726562,783.6996459960938
292,796.996337890625,794.1758422851562,790.5494384765625,781.6849975585938
293,801.025634765625,799.4139404296875,794.981689453125,793.7728881835938
294,799.010986328125,799.4139404296875,793.7728881835938,794.981689453125
295,799.8168334960938,794.981689453125,792.5640869140625,791.3552856445312
296,801.025634765625,793.3699340820312,793.3699340820312,794.981689453125
297,798.6080322265625,794.1758422851562,791.3552856445312,787.7289428710938
298,798.6080322265625,795.3846435546875,790.952392578125,783.6996459960938
299,800.2197875976562,794.5787353515625,790.952392578125,783.6996459960938
300,800.2197875976562,794.5787353515625,792.5640869140625,787.7289428710938
301,793.7728881835938,797.8021850585938,793.7728881835938,792.967041015625
302,794.1758422851562,795.3846435546875,791.7582397460938,792.1611938476562
303,797.8021850585938,791.7582397460938,790.952392578125,792.967041015625
304,799.010986328125,795.3846435546875,790.952392578125,793.3699340820312
305,797.8021850585938,797.8021850585938,793.3699340820312,792.967041015625
306,792.1611938476562,793.3699340820312,794.5787353515625,791.7582397460938
307,792.1611938476562,792.5640869140625,794.1758422851562,790.5494384765625
308,794.5787353515625,796.1904907226562,791.3552856445312,789.3406372070312
309,794.5787353515625,792.5640869140625,788.937744140625,793.7728881835938
310,797.8021850585938,796.996337890625,791.3552856445312,797.3992919921875
311,799.010986328125,801.8314819335938,788.1318969726562,792.967041015625
312,803.040283203125,801.8314819335938,788.937744140625,790.1465454101562
313,806.6666870117188,800.2197875976562,792.5640869140625,792.5640869140625
314,803.040283203125,797.8021850585938,789.7435913085938,789.3406372070312
315,798.2051391601562,795.3846435546875,789.3406372070312,783.2966918945312
316,795.7875366210938,788.937744140625,788.937744140625,784.5054931640625
317,797.8021850585938,789.3406372070312,789.7435913085938,784.5054931640625
318,796.5933837890625,795.3846435546875,792.5640869140625,782.087890625
319,795.7875366210938,793.3699340820312,789.3406372070312,783.2966918945312
320,795.3846435546875,792.1611938476562,786.5201416015625,787.3259887695312
321,793.3699340820312,794.5787353515625,784.1025390625,788.1318969726562
322,793.7728881835938,795.7875366210938,787.3259887695312,782.087890625
323,797.3992919921875,794.1758422851562,791.3552856445312,784.5054931640625
324,795.3846435546875,794.981689453125,791.7582397460938,782.4908447265625
325,796.996337890625,796.1904907226562,787.7289428710938,780.0732421875
326,795.3846435546875,795.7875366210938,786.923095703125,781.6849975585938
327,790.5494384765625,799.010986328125,789.7435913085938,781.2820434570312
328,790.1465454101562,794.5787353515625,786.923095703125,784.5054931640625
329,790.1465454101562,792.1611938476562,788.5347900390625,786.923095703125
330,793.7728881835938,796.996337890625,794.1758422851562,787.3259887695312
331,792.5640869140625,796.1904907226562,789.7435913085938,786.5201416015625
332,784.908447265625,790.952392578125,791.7582397460938,790.5494384765625
333,788.5347900390625,796.1904907226562,804.6520385742188,796.1904907226562
334,790.1465454101562,793.7728881835938,794.1758422851562,787.3259887695312
335,780.0732421875,778.4615478515625,784.908447265625,772.4176025390625
336,768.3883056640625,772.8204956054688,798.2051391601562,767.1795043945312
337,773.2234497070312,783.6996459960938,803.8461303710938,776.0439453125
338,770.8058471679688,788.5347900390625,798.2051391601562,766.7765502929688
339,754.6886596679688,786.923095703125,809.084228515625,751.8681030273438
340,743.4066162109375,790.1465454101562,819.96337890625,748.2417602539062
341,731.7216186523438,800.2197875976562,809.89013671875,737.7655639648438
342,711.5750732421875,796.1904907226562,808.2783813476562,720.03662109375
343,696.2637329101562,792.1611938476562,817.1428833007812,709.96337890625
344,682.1611938476562,797.8021850585938,823.5897216796875,698.2783813476562
345,673.6996459960938,804.2490844726562,828.02197265625,676.923095703125
346,668.8644409179688,809.084228515625,830.4395751953125,665.6410522460938
347,659.1941528320312,801.8314819335938,833.6630249023438,662.4176025390625
348,664.4322509765625,798.6080322265625,837.2893676757812,667.2527465820312
349,661.2088012695312,802.2344360351562,840.915771484375,665.2380981445312
350,660.4029541015625,807.069580078125,845.7509155273438,662.0146484375
351,663.2234497070312,802.6373901367188,846.1538696289062,663.6264038085938
352,657.9853515625,798.2051391601562,842.930419921875,662.4176025390625
353,660.8058471679688,803.040283203125,844.945068359375,666.0439453125
354,669.6703491210938,806.6666870117188,848.974365234375,679.3406372070312
355,672.4908447265625,807.4725341796875,849.7802124023438,687.3992919921875
356,674.908447265625,802.6373901367188,844.945068359375,690.6226806640625
357,682.5640869140625,796.996337890625,842.5274658203125,691.4285888671875
358,695.054931640625,796.5933837890625,842.12451171875,703.91943359375
359,701.5018310546875,797.8021850585938,839.7069702148438,710.3662719726562
360,703.5164794921875,797.8021850585938,838.4981689453125,704.3223266601562
361,723.2600708007812,795.3846435546875,838.901123046875,721.2454223632812
362,743.003662109375,791.7582397460938,837.2893676757812,740.989013671875
363,740.5860595703125,791.3552856445312,833.2600708007812,746.6300659179688
364,733.7362670898438,792.1611938476562,821.97802734375,739.7802124023438
365,749.4505615234375,791.3552856445312,815.1282348632812,747.8388061523438
366,767.5823974609375,788.1318969726562,814.3223266601562,767.1795043945312
367,772.8204956054688,788.1318969726562,812.3076782226562,778.8644409179688
368,777.6557006835938,788.1318969726562,805.4578857421875,784.5054931640625
369,785.7142944335938,784.908447265625,801.025634765625,787.3259887695312
370,793.7728881835938,783.6996459960938,799.8168334960938,790.1465454101562
371,804.6520385742188,785.7142944335938,799.4139404296875,798.6080322265625
372,807.4725341796875,784.908447265625,797.3992919921875,802.6373901367188
373,803.8461303710938,784.5054931640625,790.5494384765625,799.8168334960938
374,805.8607788085938,782.893798828125,787.7289428710938,805.054931640625
375,812.3076782226562,782.087890625,784.5054931640625,812.7106323242188
376,822.3809814453125,784.1025390625,776.8497924804688,818.3516235351562
377,823.1868286132812,781.2820434570312,774.8351440429688,817.1428833007812
378,821.1721801757812,783.6996459960938,775.6410522460938,819.96337890625
379,821.5750732421875,783.6996459960938,773.6264038085938,818.7545776367188
380,822.3809814453125,777.6557006835938,767.1795043945312,817.5457763671875
381,828.4249267578125,780.4761962890625,768.7911987304688,821.5750732421875
382,828.02197265625,781.6849975585938,771.2088012695312,820.3662719726562
383,829.6337280273438,781.2820434570312,766.7765502929688,820.3662719726562
384,836.4835205078125,783.6996459960938,763.9560546875,827.6190185546875
385,837.2893676757812,786.5201416015625,767.5823974609375,830.4395751953125
386,837.2893676757812,788.937744140625,767.1795043945312,828.02197265625
387,836.4835205078125,780.879150390625,767.1795043945312,825.2014770507812
388,835.2747192382812,781.2820434570312,765.1648559570312,825.2014770507812
389,836.08056640625,785.3113403320312,763.5531005859375,827.6190185546875
390,836.886474609375,782.4908447265625,767.1795043945312,830.4395751953125
391,838.4981689453125,783.6996459960938,767.5823974609375,828.8278198242188
392,838.09521484375,784.1025390625,765.1648559570312,825.2014770507812
393,833.6630249023438,782.893798828125,761.94140625,830.4395751953125
394,830.4395751953125,784.5054931640625,767.9853515625,831.2454223632812
395,832.4542236328125,787.7289428710938,774.029296875,832.4542236328125
396,837.2893676757812,788.937744140625,774.029296875,838.901123046875
397,834.8717651367188,788.5347900390625,774.029296875,833.6630249023438
398,826.00732421875,790.1465454101562,775.6410522460938,827.2161254882812
399,822.7838745117188,792.1611938476562,774.029296875,824.3956298828125
400,829.2307739257812,794.981689453125,773.6264038085938,830.4395751953125
401,829.6337280273438,795.7875366210938,776.8497924804688,834.4688720703125
402,827.2161254882812,791.3552856445312,774.4322509765625,826.4102783203125
403,830.03662109375,786.5201416015625,773.6264038085938,819.1575317382812
404,825.2014770507812,782.087890625,774.4322509765625,815.93408203125
405,813.91943359375,778.4615478515625,774.4322509765625,817.94873046875
406,811.5018310546875,781.2820434570312,776.4468994140625,810.6959838867188
407,815.93408203125,781.6849975585938,775.2380981445312,801.025634765625
408,813.5164794921875,778.8644409179688,774.4322509765625,799.010986328125
409,814.7252807617188,782.4908447265625,774.8351440429688,803.8461303710938
410,814.7252807617188,784.908447265625,776.0439453125,804.6520385742188
411,815.1282348632812,784.908447265625,778.8644409179688,799.010986328125
412,818.7545776367188,786.5201416015625,779.6703491210938,799.8168334960938
413,810.6959838867188,791.3552856445312,780.4761962890625,796.1904907226562
414,809.084228515625,791.7582397460938,784.1025390625,797.3992919921875
415,809.4871826171875,786.1171875,785.7142944335938,797.8021850585938
416,808.2783813476562,784.5054931640625,786.1171875,801.8314819335938
417,810.2930297851562,787.7289428710938,784.5054931640625,803.040283203125
418,803.8461303710938,784.908447265625,778.4615478515625,786.5201416015625
419,798.2051391601562,788.5347900390625,777.6557006835938,783.6996459960938
420,796.5933837890625,790.1465454101562,776.4468994140625,789.7435913085938
421,798.2051391601562,788.937744140625,777.2527465820312,791.3552856445312
422,807.4725341796875,794.1758422851562,783.6996459960938,796.1904907226562
423,806.2637329101562,794.5787353515625,785.7142944335938,796.996337890625
424,801.4285888671875,793.3699340820312,786.923095703125,800.6226806640625
425,801.8314819335938,793.3699340820312,789.7435913085938,807.87548828125
426,800.6226806640625,792.967041015625,789.7435913085938,807.87548828125
427,803.4432373046875,794.981689453125,789.3406372070312,808.6813354492188
428,806.2637329101562,796.1904907226562,787.3259887695312,810.2930297851562
429,801.8314819335938,794.981689453125,784.5054931640625,802.6373901367188
430,801.025634765625,794.1758422851562,784.5054931640625,792.5640869140625
431,805.4578857421875,794.1758422851562,786.923095703125,791.7582397460938
432,801.025634765625,791.7582397460938,786.5201416015625,792.1611938476562
433,797.3992919921875,792.5640869140625,784.5054931640625,789.7435913085938
434,796.996337890625,792.1611938476562,780.0732421875,791.7582397460938
435,799.010986328125,788.5347900390625,786.1171875,793.3699340820312
436,798.6080322265625,788.5347900390625,790.1465454101562,794.981689453125
437,794.981689453125,788.1318969726562,784.5054931640625,795.3846435546875
438,796.5933837890625,788.5347900390625,786.923095703125,791.7582397460938
439,793.7728881835938,789.7435913085938,788.5347900390625,790.5494384765625
440,786.923095703125,788.1318969726562,788.937744140625,787.3259887695312
441,786.923095703125,789.7435913085938,788.937744140625,780.0732421875
442,785.7142944335938,786.923095703125,789.3406372070312,778.4615478515625
443,785.3113403320312,786.5201416015625,793.3699340820312,778.05859375
444,789.7435913085938,790.952392578125,794.5787353515625,777.6557006835938
445,790.1465454101562,786.5201416015625,794.5787353515625,776.4468994140625
446,791.3552856445312,784.1025390625,789.7435913085938,778.05859375
447,796.1904907226562,786.923095703125,788.1318969726562,786.923095703125
448,797.3992919921875,787.7289428710938,789.7435913085938,786.923095703125
449,792.967041015625,784.908447265625,788.1318969726562,779.6703491210938
450,798.2051391601562,788.937744140625,791.7582397460938,781.6849975585938
451,805.054931640625,791.3552856445312,796.5933837890625,791.3552856445312
452,800.2197875976562,791.3552856445312,788.1318969726562,787.3259887695312
453,799.010986328125,790.1465454101562,782.4908447265625,784.908447265625
454,801.4285888671875,791.7582397460938,784.5054931640625,786.923095703125
455,801.4285888671875,794.1758422851562,784.5054931640625,788.5347900390625
456,801.4285888671875,793.7728881835938,786.923095703125,789.7435913085938
457,803.8461303710938,793.3699340820312,785.3113403320312,790.5494384765625
458,805.8607788085938,791.3552856445312,782.4908447265625,792.967041015625
459,805.4578857421875,790.952392578125,788.5347900390625,794.5787353515625
460,801.025634765625,791.3552856445312,790.5494384765625,793.7728881835938
461,797.3992919921875,794.1758422851562,792.967041015625,794.1758422851562
462,799.8168334960938,793.3699340820312,795.7875366210938,797.8021850585938
463,798.6080322265625,789.3406372070312,794.5787353515625,799.4139404296875
464,791.7582397460938,787.7289428710938,792.967041015625,794.1758422851562
465,788.5347900390625,789.7435913085938,789.3406372070312,793.7728881835938
466,784.908447265625,792.1611938476562,788.5347900390625,794.1758422851562
467,789.3406372070312,793.7728881835938,795.3846435546875,803.040283203125
468,790.952392578125,790.1465454101562,796.1904907226562,800.6226806640625
469,789.3406372070312,789.3406372070312,796.1904907226562,792.1611938476562
470,788.937744140625,789.3406372070312,795.7875366210938,794.5787353515625
471,785.7142944335938,785.7142944335938,792.1611938476562,789.3406372070312
472,789.7435913085938,787.3259887695312,794.981689453125,792.1611938476562
473,794.5787353515625,789.7435913085938,796.1904907226562,798.6080322265625
474,799.8168334960938,793.3699340820312,792.1611938476562,795.7875366210938
475,803.8461303710938,792.1611938476562,795.3846435546875,793.3699340820312
476,798.6080322265625,791.7582397460938,800.6226806640625,789.3406372070312
477,794.981689453125,794.1758422851562,801.025634765625,787.3259887695312
478,795.7875366210938,792.1611938476562,798.2051391601562,788.5347900390625
479,798.6080322265625,786.923095703125,794.981689453125,788.937744140625
480,796.996337890625,786.5201416015625,799.010986328125,783.2966918945312
481,795.3846435546875,783.6996459960938,794.1758422851562,781.2820434570312
482,797.8021850585938,783.6996459960938,793.3699340820312,789.3406372070312
483,802.6373901367188,789.3406372070312,794.5787353515625,799.010986328125
484,801.025634765625,785.7142944335938,792.1611938476562,794.1758422851562
485,799.4139404296875,785.3113403320312,792.5640869140625,790.5494384765625
486,798.6080322265625,788.5347900390625,795.7875366210938,795.7875366210938
487,797.8021850585938,789.7435913085938,795.3846435546875,794.5787353515625
488,796.5933837890625,789.7435913085938,790.5494384765625,786.1171875
489,792.967041015625,788.5347900390625,790.952392578125,786.923095703125
490,790.952392578125,789.7435913085938,790.952392578125,785.3113403320312
491,791.3552856445312,788.937744140625,788.1318969726562,779.2673950195312
492,797.3992919921875,793.3699340820312,792.967041015625,788.1318969726562
493,799.4139404296875,795.7875366210938,795.3846435546875,794.1758422851562
494,799.4139404296875,792.1611938476562,796.5933837890625,793.3699340820312
495,801.4285888671875,792.1611938476562,795.7875366210938,797.3992919921875
496,801.025634765625,791.7582397460938,795.3846435546875,801.4285888671875
497,801.8314819335938,794.5787353515625,799.010986328125,799.8168334960938
498,803.8461303710938,797.3992919921875,797.8021850585938,793.3699340820312
499,805.054931640625,792.1611938476562,794.5787353515625,786.5201416015625
500,803.4432373046875,788.1318969726562,792.967041015625,786.923095703125
501,799.010986328125,786.1171875,791.3552856445312,790.1465454101562
502,792.5640869140625,788.1318969726562,786.923095703125,788.5347900390625
503,795.3846435546875,791.7582397460938,786.1171875,785.3113403320312
504,802.6373901367188,794.5787353515625,789.7435913085938,784.908447265625
505,801.8314819335938,791.3552856445312,792.967041015625,788.937744140625
506,793.7728881835938,793.3699340820312,792.5640869140625,791.3552856445312
507,791.7582397460938,796.5933837890625,789.3406372070312,787.3259887695312
508,793.3699340820312,794.1758422851562,792.5640869140625,784.908447265625
509,794.5787353515625,789.3406372070312,794.1758422851562,786.1171875
510,792.967041015625,788.1318969726562,791.3552856445312,787.3259887695312
511,788.5347900390625,788.5347900390625,790.952392578125,787.3259887695312
512,788.1318969726562,788.1318969726562,794.981689453125,793.3699340820312
513,784.908447265625,787.3259887695312,792.5640869140625,793.7728881835938
514,791.3552856445312,785.7142944335938,786.923095703125,789.3406372070312
515,796.996337890625,786.1171875,787.3259887695312,791.3552856445312
516,794.1758422851562,788.5347900390625,791.7582397460938,790.5494384765625
517,792.5640869140625,791.3552856445312,793.7728881835938,787.7289428710938
518,794.5787353515625,793.3699340820312,792.1611938476562,790.5494384765625
519,801.8314819335938,788.1318969726562,797.3992919921875,795.3846435546875
520,801.8314819335938,786.5201416015625,801.4285888671875,792.5640869140625
521,796.996337890625,792.967041015625,803.4432373046875,790.5494384765625
522,791.7582397460938,787.3259887695312,798.6080322265625,786.5201416015625
523,793.3699340820312,786.1171875,794.1758422851562,788.1318969726562
524,799.4139404296875,788.5347900390625,794.981689453125,796.996337890625
525,802.6373901367188,789.7435913085938,795.3846435546875,796.5933837890625
526,799.8168334960938,790.1465454101562,794.981689453125,788.1318969726562
527,801.025634765625,790.5494384765625,797.8021850585938,788.5347900390625
528,801.8314819335938,790.5494384765625,798.2051391601562,790.5494384765625
529,799.4139404296875,786.923095703125,795.7875366210938,789.3406372070312
530,803.8461303710938,790.1465454101562,797.3992919921875,789.3406372070312
531,802.2344360351562,794.1758422851562,794.5787353515625,794.981689453125
532,789.7435913085938,793.7728881835938,793.3699340820312,792.1611938476562
533,787.7289428710938,789.7435913085938,793.7728881835938,786.5201416015625
534,794.981689453125,788.1318969726562,792.1611938476562,788.5347900390625
535,796.996337890625,792.5640869140625,789.3406372070312,790.1465454101562
536,794.5787353515625,791.3552856445312,789.7435913085938,794.1758422851562
537,789.7435913085938,788.5347900390625,789.7435913085938,792.5640869140625
538,791.3552856445312,787.3259887695312,788.937744140625,791.3552856445312
539,791.3552856445312,784.5054931640625,788.5347900390625,786.5201416015625
540,786.923095703125,786.923095703125,786.5201416015625,780.879150390625
541,790.952392578125,789.7435913085938,787.3259887695312,783.2966918945312
542,790.1465454101562,790.1465454101562,787.7289428710938,776.8497924804688
543,784.5054931640625,787.3259887695312,790.1465454101562,782.4908447265625
544,784.5054931640625,788.5347900390625,787.7289428710938,782.087890625
545,790.952392578125,788.937744140625,790.5494384765625,778.8644409179688
546,790.952392578125,786.5201416015625,794.1758422851562,780.4761962890625
547,783.2966918945312,785.7142944335938,790.952392578125,779.6703491210938
548,782.087890625,786.923095703125,790.1465454101562,782.893798828125
549,789.3406372070312,787.3259887695312,787.7289428710938,786.5201416015625
550,791.7582397460938,785.3113403320312,788.1318969726562,786.5201416015625
551,790.5494384765625,785.7142944335938,789.7435913085938,783.6996459960938
552,794.1758422851562,787.7289428710938,788.937744140625,784.1025390625
553,793.7728881835938,788.5347900390625,791.7582397460938,791.3552856445312
554,797.3992919921875,785.3113403320312,794.1758422851562,797.3992919921875
555,801.025634765625,783.6996459960938,791.3552856445312,791.7582397460938
556,798.6080322265625,786.5201416015625,786.5201416015625,789.3406372070312
557,801.8314819335938,794.1758422851562,791.3552856445312,792.5640869140625
558,799.4139404296875,794.1758422851562,790.952392578125,791.3552856445312
559,797.3992919921875,790.952392578125,790.1465454101562,792.5640869140625
560,797.8021850585938,788.937744140625,790.1465454101562,797.3992919921875
561,790.5494384765625,786.923095703125,790.1465454101562,796.1904907226562
562,790.1465454101562,789.7435913085938,792.5640869140625,796.996337890625
563,801.025634765625,794.1758422851562,793.7728881835938,799.8168334960938
564,806.6666870117188,794.981689453125,799.4139404296875,796.1904907226562
565,805.8607788085938,794.981689453125,799.010986328125,791.3552856445312
566,799.8168334960938,793.7728881835938,795.7875366210938,789.7435913085938
567,799.010986328125,790.5494384765625,795.3846435546875,790.5494384765625
568,804.6520385742188,793.7728881835938,797.3992919921875,789.3406372070312
569,803.4432373046875,793.7728881835938,796.5933837890625,791.3552856445312
570,796.1904907226562,790.952392578125,793.3699340820312,790.952392578125
571,788.937744140625,791.3552856445312,792.1611938476562,787.3259887695312
572,787.3259887695312,792.967041015625,790.952392578125,787.7289428710938
573,790.1465454101562,793.3699340820312,790.952392578125,786.923095703125
574,793.7728881835938,794.1758422851562,790.952392578125,784.908447265625
575,789.7435913085938,791.7582397460938,793.7728881835938,786.1171875
576,789.7435913085938,792.1611938476562,794.1758422851562,787.3259887695312
577,792.5640869140625,788.937744140625,794.1758422851562,788.937744140625
578,790.1465454101562,785.3113403320312,796.996337890625,788.937744140625
579,793.7728881835938,787.7289428710938,796.996337890625,794.5787353515625
580,796.1904907226562,791.7582397460938,799.010986328125,803.4432373046875
581,794.1758422851562,795.7875366210938,801.4285888671875,796.1904907226562
582,796.5933837890625,796.1904907226562,799.4139404296875,790.952392578125
583,796.996337890625,793.3699340820312,797.3992919921875,793.3699340820312
584,800.2197875976562,793.7728881835938,797.8021850585938,797.3992919921875
585,799.8168334960938,793.3699340820312,795.3846435546875,790.5494384765625
586,797.3992919921875,794.1758422851562,797.3992919921875,790.952392578125
587,795.7875366210938,799.010986328125,800.6226806640625,792.5640869140625
588,798.6080322265625,798.2051391601562,799.8168334960938,789.3406372070312
589,800.6226806640625,795.7875366210938,801.025634765625,787.7289428710938
590,796.1904907226562,794.5787353515625,797.8021850585938,784.1025390625
591,792.1611938476562,792.5640869140625,793.7728881835938,780.0732421875
592,787.3259887695312,793.3699340820312,789.3406372070312,777.2527465820312
593,784.908447265625,793.3699340820312,788.1318969726562,776.4468994140625
594,790.952392578125,788.1318969726562,790.952392578125,779.2673950195312
595,797.8021850585938,786.5201416015625,786.5201416015625,783.2966918945312
596,793.3699340820312,788.5347900390625,788.1318969726562,779.6703491210938
597,788.937744140625,785.7142944335938,791.7582397460938,780.879150390625
598,785.3113403320312,786.923095703125,788.937744140625,780.4761962890625
599,789.7435913085938,790.1465454101562,790.5494384765625,782.893798828125
600,792.967041015625,790.952392578125,788.1318969726562,785.7142944335938
601,791.7582397460938,795.3846435546875,790.5494384765625,783.6996459960938
602,788.1318969726562,794.1758422851562,793.7728881835938,784.5054931640625
603,787.7289428710938,791.3552856445312,794.5787353515625,790.1465454101562
604,789.7435913085938,790.1465454101562,790.1465454101562,792.1611938476562
605,793.7728881835938,790.1465454101562,787.7289428710938,790.952392578125
606,796.996337890625,791.3552856445312,789.3406372070312,792.5640869140625
607,790.952392578125,789.7435913085938,787.3259887695312,790.1465454101562
608,796.1904907226562,789.3406372070312,786.5201416015625,785.3113403320312
609,805.8607788085938,788.937744140625,788.1318969726562,788.1318969726562
610,807.069580078125,788.937744140625,788.5347900390625,794.5787353515625
611,806.2637329101562,790.5494384765625,788.5347900390625,792.1611938476562
612,800.2197875976562,793.7728881835938,790.952392578125,782.893798828125
613,795.7875366210938,793.3699340820312,793.3699340820312,786.1171875
614,801.8314819335938,791.7582397460938,791.3552856445312,796.996337890625
615,807.069580078125,794.1758422851562,790.5494384765625,796.5933837890625
616,805.4578857421875,792.1611938476562,790.5494384765625,786.1171875
617,802.6373901367188,794.1758422851562,788.5347900390625,780.879150390625
618,796.1904907226562,791.7582397460938,790.5494384765625,777.6557006835938
619,796.996337890625,792.5640869140625,793.3699340820312,778.05859375
620,804.6520385742188,799.8168334960938,796.5933837890625,784.1025390625
621,806.2637329101562,796.5933837890625,794.1758422851562,784.1025390625
622,795.3846435546875,790.952392578125,790.5494384765625,781.2820434570312
623,785.3113403320312,790.952392578125,792.5640869140625,778.8644409179688
624,793.7728881835938,789.7435913085938,792.5640869140625,780.879150390625
625,797.8021850585938,788.1318969726562,792.1611938476562,784.1025390625
626,796.5933837890625,786.1171875,790.952392578125,786.5201416015625
627,797.3992919921875,786.923095703125,795.3846435546875,790.952392578125
628,795.3846435546875,788.5347900390625,794.981689453125,790.1465454101562
629,798.2051391601562,790.952392578125,793.3699340820312,788.937744140625
630,800.2197875976562,792.967041015625,794.1758422851562,790.952392578125
631,794.981689453125,790.952392578125,793.7728881835938,786.923095703125
632,789.7435913085938,787.7289428710938,792.1611938476562,782.893798828125
633,788.1318969726562,788.5347900390625,794.1758422851562,786.923095703125
634,787.7289428710938,791.7582397460938,793.7728881835938,783.2966918945312
635,788.1318969726562,788.937744140625,789.7435913085938,775.6410522460938
636,793.7728881835938,787.3259887695312,789.7435913085938,783.2966918945312
637,799.8168334960938,787.3259887695312,791.3552856445312,789.3406372070312
638,793.3699340820312,789.3406372070312,794.5787353515625,790.1465454101562
639,789.7435913085938,791.3552856445312,792.5640869140625,786.923095703125
640,791.3552856445312,788.937744140625,792.1611938476562,788.1318969726562
641,793.3699340820312,791.7582397460938,794.5787353515625,797.8021850585938
642,792.5640869140625,792.1611938476562,795.7875366210938,791.7582397460938
643,792.1611938476562,789.7435913085938,795.7875366210938,783.6996459960938
644,789.3406372070312,789.7435913085938,792.5640869140625,782.893798828125
645,790.1465454101562,791.7582397460938,791.3552856445312,790.952392578125
646,790.5494384765625,791.3552856445312,790.5494384765625,789.3406372070312
647,786.923095703125,790.5494384765625,793.7728881835938,788.1318969726562
648,786.5201416015625,793.7728881835938,798.6080322265625,792.5640869140625
649,782.893798828125,793.3699340820312,796.996337890625,787.3259887695312
650,785.7142944335938,790.952392578125,794.1758422851562,781.6849975585938
651,792.1611938476562,792.967041015625,796.996337890625,784.1025390625
652,794.5787353515625,792.5640869140625,796.1904907226562,782.893798828125
653,798.2051391601562,794.5787353515625,794.1758422851562,787.3259887695312
654,796.5933837890625,794.5787353515625,796.1904907226562,787.7289428710938
655,796.1904907226562,794.1758422851562,797.8021850585938,786.1171875
656,800.6226806640625,798.2051391601562,799.010986328125,791.7582397460938
657,800.6226806640625,798.6080322265625,798.2051391601562,790.952392578125
658,794.5787353515625,794.1758422851562,791.3552856445312,782.893798828125
659,790.5494384765625,794.1758422851562,788.5347900390625,779.2673950195312
660,792.1611938476562,795.7875366210938,787.7289428710938,789.7435913085938
661,793.7728881835938,792.1611938476562,787.7289428710938,794.1758422851562
662,796.1904907226562,791.3552856445312,787.3259887695312,787.7289428710938
663,792.5640869140625,791.7582397460938,787.3259887695312,782.893798828125
664,792.967041015625,790.952392578125,785.3113403320312,782.893798828125
665,796.5933837890625,792.967041015625,787.3259887695312,788.5347900390625
666,793.7728881835938,796.5933837890625,793.3699340820312,794.5787353515625
667,792.1611938476562,790.952392578125,793.7728881835938,792.1611938476562
668,792.5640869140625,786.923095703125,792.1611938476562,790.1465454101562
669,793.7728881835938,792.5640869140625,794.1758422851562,786.5201416015625
670,792.1611938476562,796.5933837890625,795.7875366210938,786.1171875
671,788.1318969726562,792.967041015625,791.3552856445312,782.893798828125
672,790.952392578125,789.3406372070312,785.7142944335938,776.0439453125
673,787.7289428710938,787.3259887695312,788.5347900390625,779.6703491210938
674,779.6703491210938,787.7289428710938,792.1611938476562,780.0732421875
675,783.6996459960938,790.1465454101562,786.5201416015625,781.6849975585938
676,787.7289428710938,785.7142944335938,783.6996459960938,778.05859375
677,788.5347900390625,783.6996459960938,785.3113403320312,778.4615478515625
678,792.5640869140625,786.5201416015625,786.1171875,784.5054931640625
679,790.5494384765625,786.1171875,786.923095703125,785.3113403320312
680,790.5494384765625,791.7582397460938,788.937744140625,788.1318969726562
681,793.7728881835938,795.3846435546875,789.7435913085938,785.7142944335938
682,791.7582397460938,793.7728881835938,787.3259887695312,786.923095703125
683,791.7582397460938,792.1611938476562,788.937744140625,790.952392578125
684,792.1611938476562,794.5787353515625,790.952392578125,785.7142944335938
685,795.3846435546875,799.4139404296875,789.3406372070312,784.5054931640625
686,794.5787353515625,797.8021850585938,787.3259887695312,786.923095703125
687,796.5933837890625,796.5933837890625,791.3552856445312,790.1465454101562
688,804.2490844726562,798.6080322265625,792.967041015625,796.996337890625
689,802.6373901367188,800.6226806640625,787.7289428710938,796.1904907226562
690,791.3552856445312,797.3992919921875,784.1025390625,784.908447265625
691,791.3552856445312,792.5640869140625,786.1171875,785.3113403320312
692,793.3699340820312,792.967041015625,783.2966918945312,782.893798828125
693,791.3552856445312,791.3552856445312,780.879150390625,780.4761962890625
694,787.7289428710938,789.7435913085938,787.3259887695312,782.893798828125
695,786.1171875,792.1611938476562,790.952392578125,782.4908447265625
696,788.5347900390625,793.3699340820312,791.3552856445312,784.1025390625
697,788.937744140625,795.3846435546875,792.1611938476562,783.6996459960938
698,789.3406372070312,794.5787353515625,791.3552856445312,785.3113403320312
699,785.7142944335938,792.967041015625,790.5494384765625,780.879150390625
700,784.5054931640625,791.3552856445312,793.3699340820312,776.0439453125
701,784.908447265625,786.923095703125,795.3846435546875,781.2820434570312
702,786.5201416015625,786.5201416015625,792.967041015625,788.5347900390625
703,788.1318969726562,790.952392578125,794.1758422851562,790.952392578125
704,784.5054931640625,794.1758422851562,796.1904907226562,790.1465454101562
705,786.5201416015625,792.967041015625,792.5640869140625,789.3406372070312
706,790.1465454101562,792.1611938476562,790.1465454101562,788.1318969726562
707,799.010986328125,794.1758422851562,794.1758422851562,792.967041015625
708,806.6666870117188,792.1611938476562,796.1904907226562,794.1758422851562
709,801.025634765625,790.5494384765625,790.952392578125,792.5640869140625
710,791.7582397460938,791.7582397460938,792.1611938476562,791.3552856445312
711,791.7582397460938,794.1758422851562,795.3846435546875,792.5640869140625
712,797.3992919921875,793.3699340820312,794.1758422851562,795.3846435546875
713,796.5933837890625,788.937744140625,794.1758422851562,795.7875366210938
714,793.3699340820312,788.5347900390625,797.3992919921875,799.4139404296875
715,791.7582397460938,788.1318969726562,796.996337890625,798.6080322265625
716,791.7582397460938,786.5201416015625,794.981689453125,794.5787353515625
717,797.3992919921875,789.7435913085938,794.1758422851562,793.7728881835938
718,798.6080322265625,790.1465454101562,790.5494384765625,790.1465454101562
719,794.5787353515625,788.5347900390625,790.1465454101562,789.3406372070312
720,788.5347900390625,785.3113403320312,789.7435913085938,790.5494384765625
721,787.7289428710938,783.2966918945312,787.7289428710938,790.1465454101562
722,786.923095703125,786.1171875,792.967041015625,784.5054931640625
723,788.1318969726562,785.3113403320312,795.3846435546875,783.6996459960938
724,790.5494384765625,784.908447265625,793.7728881835938,781.6849975585938
725,788.937744140625,787.3259887695312,795.3846435546875,780.4761962890625
726,790.5494384765625,786.5201416015625,795.3846435546875,784.5054931640625
727,785.7142944335938,787.3259887695312,790.5494384765625,782.4908447265625
728,784.1025390625,792.5640869140625,788.5347900390625,782.4908447265625
729,791.3552856445312,794.1758422851562,786.5201416015625,791.3552856445312
730,786.1171875,792.967041015625,788.937744140625,792.1611938476562
731,785.7142944335938,795.7875366210938,792.1611938476562,788.5347900390625
732,792.1611938476562,800.6226806640625,791.7582397460938,788.937744140625
733,789.7435913085938,798.2051391601562,792.5640869140625,781.6849975585938
734,785.3113403320312,794.1758422851562,790.952392578125,777.2527465820312
735,793.3699340820312,794.5787353515625,792.5640869140625,786.1171875
736,800.6226806640625,794.981689453125,792.1611938476562,790.952392578125
737,798.6080322265625,794.1758422851562,788.1318969726562,785.3113403320312
738,794.5787353515625,790.952392578125,788.937744140625,783.6996459960938
739,793.7728881835938,788.5347900390625,790.1465454101562,780.0732421875
740,791.7582397460938,787.3259887695312,787.7289428710938,780.879150390625
741,791.3552856445312,787.3259887695312,790.5494384765625,789.3406372070312
742,796.996337890625,790.5494384765625,794.1758422851562,784.5054931640625
743,805.054931640625,790.5494384765625,796.1904907226562,785.7142944335938
744,807.87548828125,788.5347900390625,799.4139404296875,799.8168334960938
745,801.4285888671875,788.5347900390625,802.2344360351562,799.4139404296875
746,792.1611938476562,791.3552856445312,799.4139404296875,786.923095703125
747,785.3113403320312,790.952392578125,790.1465454101562,781.6849975585938
748,782.893798828125,788.1318969726562,790.1465454101562,784.908447265625
749,781.6849975585938,789.3406372070312,799.010986328125,784.908447265625
750,780.4761962890625,784.1025390625,797.8021850585938,783.2966918945312
751,778.8644409179688,783.2966918945312,793.7728881835938,780.879150390625
752,780.0732421875,786.5201416015625,794.5787353515625,781.2820434570312
753,782.4908447265625,790.1465454101562,794.5787353515625,783.2966918945312
754,790.1465454101562,794.981689453125,794.981689453125,782.893798828125
755,793.7728881835938,793.7728881835938,801.025634765625,783.2966918945312
756,789.3406372070312,792.5640869140625,800.2197875976562,784.1025390625
757,787.7289428710938,792.1611938476562,796.1904907226562,780.4761962890625
758,792.1611938476562,794.1758422851562,794.5787353515625,781.2820434570312
759,797.8021850585938,794.1758422851562,794.5787353515625,790.1465454101562
760,797.3992919921875,790.952392578125,794.981689453125,786.5201416015625
761,795.3846435546875,793.7728881835938,793.3699340820312,785.3113403320312
762,791.7582397460938,796.5933837890625,791.3552856445312,784.5054931640625
763,792.967041015625,796.996337890625,794.1758422851562,786.1171875
764,796.996337890625,797.3992919921875,793.7728881835938,790.952392578125
765,792.5640869140625,799.010986328125,789.3406372070312,783.6996459960938
766,790.5494384765625,797.8021850585938,790.5494384765625,782.893798828125
767,792.5640869140625,796.5933837890625,787.7289428710938,789.3406372070312
768,792.1611938476562,792.967041015625,784.1025390625,785.7142944335938
769,796.5933837890625,792.5640869140625,786.5201416015625,784.5054931640625
770,796.5933837890625,787.3259887695312,789.3406372070312,784.5054931640625
771,789.7435913085938,788.1318969726562,790.1465454101562,782.4908447265625
772,787.3259887695312,797.3992919921875,788.937744140625,781.2820434570312
773,785.7142944335938,797.3992919921875,788.5347900390625,777.6557006835938
774,790.5494384765625,799.010986328125,789.3406372070312,779.2673950195312
775,793.7728881835938,801.8314819335938,789.3406372070312,780.0732421875
776,786.1171875,798.6080322265625,788.5347900390625,775.6410522460938
777,780.0732421875,793.3699340820312,786.923095703125,769.1941528320312
778,781.6849975585938,792.1611938476562,782.893798828125,767.5823974609375
779,785.7142944335938,796.996337890625,788.5347900390625,770.0
780,784.908447265625,799.8168334960938,790.1465454101562,772.4176025390625
781,780.879150390625,793.3699340820312,788.1318969726562,776.4468994140625
782,788.937744140625,794.981689453125,792.967041015625,781.6849975585938
783,794.981689453125,795.7875366210938,792.967041015625,787.3259887695312
784,796.996337890625,790.1465454101562,790.1465454101562,791.7582397460938
785,796.996337890625,791.7582397460938,789.3406372070312,790.1465454101562
786,799.010986328125,795.7875366210938,792.1611938476562,785.7142944335938
787,797.3992919921875,794.981689453125,791.7582397460938,787.7289428710938
788,799.010986328125,793.3699340820312,789.3406372070312,790.5494384765625
789,805.054931640625,797.3992919921875,789.7435913085938,793.3699340820312
790,805.054931640625,796.996337890625,791.3552856445312,794.981689453125
791,803.040283203125,791.3552856445312,794.1758422851562,790.952392578125
792,799.010986328125,791.7582397460938,794.1758422851562,790.1465454101562
793,796.1904907226562,788.937744140625,788.5347900390625,789.7435913085938
794,801.4285888671875,789.3406372070312,788.5347900390625,788.937744140625
795,803.4432373046875,794.1758422851562,792.967041015625,790.952392578125
796,799.4139404296875,798.2051391601562,794.981689453125,793.7728881835938
797,792.1611938476562,799.010986328125,794.5787353515625,789.3406372070312
798,787.3259887695312,797.3992919921875,789.7435913085938,783.2966918945312
799,788.5347900390625,792.967041015625,791.3552856445312,789.7435913085938
800,787.7289428710938,790.952392578125,790.1465454101562,780.879150390625
801,788.5347900390625,792.967041015625,790.5494384765625,774.029296875
802,793.3699340820312,796.1904907226562,793.3699340820312,779.2673950195312
803,790.952392578125,795.3846435546875,792.5640869140625,778.4615478515625
804,789.7435913085938,795.7875366210938,791.3552856445312,773.6264038085938
805,799.4139404296875,794.1758422851562,792.967041015625,779.2673950195312
806,801.4285888671875,794.981689453125,796.1904907226562,783.6996459960938
807,794.1758422851562,797.3992919921875,796.1904907226562,777.2527465820312
808,796.996337890625,795.3846435546875,794.981689453125,778.05859375
809,796.996337890625,790.5494384765625,792.967041015625,779.2673950195312
810,796.996337890625,790.5494384765625,792.1611938476562,786.1171875
811,798.2051391601562,790.5494384765625,792.967041015625,790.5494384765625
812,796.5933837890625,794.1758422851562,790.952392578125,787.7289428710938
813,794.981689453125,793.7728881835938,791.7582397460938,789.7435913085938
814,794.5787353515625,786.5201416015625,792.967041015625,792.967041015625
815,792.5640869140625,783.2966918945312,787.3259887695312,789.7435913085938
816,791.7582397460938,788.1318969726562,790.5494384765625,786.1171875
817,792.1611938476562,786.923095703125,791.7582397460938,786.923095703125
818,789.7435913085938,782.087890625,792.5640869140625,787.7289428710938
819,790.5494384765625,786.5201416015625,793.7728881835938,788.1318969726562
820,794.1758422851562,787.7289428710938,793.3699340820312,786.5201416015625
821,798.6080322265625,788.937744140625,797.8021850585938,789.7435913085938
822,793.3699340820312,790.952392578125,799.010986328125,785.3113403320312
823,789.3406372070312,791.3552856445312,796.996337890625,778.8644409179688
824,787.7289428710938,795.3846435546875,796.1904907226562,781.6849975585938
825,783.6996459960938,795.7875366210938,799.8168334960938,790.952392578125
826,788.1318969726562,795.7875366210938,798.6080322265625,799.4139404296875
827,789.7435913085938,793.7728881835938,797.8021850585938,787.7289428710938
828,785.7142944335938,787.7289428710938,798.6080322265625,777.2527465820312
829,790.5494384765625,788.5347900390625,795.3846435546875,778.4615478515625
830,795.7875366210938,788.5347900390625,797.3992919921875,780.879150390625
831,796.1904907226562,788.5347900390625,799.010986328125,786.1171875
832,797.3992919921875,793.7728881835938,796.1904907226562,786.5201416015625
833,793.7728881835938,792.5640869140625,796.1904907226562,786.923095703125
834,796.5933837890625,790.952392578125,799.8168334960938,788.937744140625
835,806.6666870117188,790.952392578125,798.2051391601562,794.1758422851562
836,803.8461303710938,787.7289428710938,794.981689453125,795.3846435546875
837,801.4285888671875,789.3406372070312,796.1904907226562,803.040283203125
838,795.7875366210938,792.5640869140625,799.8168334960938,798.6080322265625
839,796.996337890625,793.3699340820312,800.6226806640625,798.2051391601562
840,803.4432373046875,790.1465454101562,801.8314819335938,809.084228515625
841,806.2637329101562,789.7435913085938,800.2197875976562,807.069580078125
842,804.2490844726562,792.5640869140625,799.8168334960938,801.025634765625
843,797.3992919921875,792.5640869140625,800.6226806640625,799.8168334960938
844,795.7875366210938,784.908447265625,799.8168334960938,794.981689453125
845,797.3992919921875,783.6996459960938,797.8021850585938,789.7435913085938
846,796.996337890625,788.937744140625,794.5787353515625,787.3259887695312
847,795.7875366210938,791.3552856445312,795.7875366210938,788.5347900390625
848,796.996337890625,788.5347900390625,798.6080322265625,796.5933837890625
849,789.3406372070312,784.5054931640625,794.981689453125,794.1758422851562
850,785.7142944335938,789.7435913085938,790.5494384765625,787.3259887695312
851,784.1025390625,790.1465454101562,790.1465454101562,786.923095703125
852,782.893798828125,785.3113403320312,789.7435913085938,786.5201416015625
853,783.2966918945312,786.923095703125,787.3259887695312,779.6703491210938
854,779.2673950195312,784.1025390625,784.5054931640625,775.2380981445312
855,775.2380981445312,780.879150390625,785.7142944335938,774.4322509765625
856,781.2820434570312,783.6996459960938,786.5201416015625,772.8204956054688
857,785.3113403320312,785.3113403320312,791.3552856445312,774.8351440429688
858,782.4908447265625,790.5494384765625,793.3699340820312,773.2234497070312
859,785.7142944335938,791.7582397460938,790.952392578125,774.4322509765625
860,789.7435913085938,786.923095703125,791.3552856445312,787.7289428710938
861,792.5640869140625,787.3259887695312,790.1465454101562,790.1465454101562
862,796.1904907226562,789.3406372070312,788.937744140625,788.5347900390625
863,794.1758422851562,786.923095703125,788.5347900390625,782.087890625
864,792.1611938476562,788.937744140625,791.7582397460938,780.4761962890625
865,791.3552856445312,789.3406372070312,790.5494384765625,780.4761962890625
866,790.1465454101562,788.1318969726562,788.937744140625,779.6703491210938
867,796.1904907226562,790.1465454101562,788.937744140625,782.893798828125
868,792.5640869140625,786.5201416015625,785.3113403320312,780.0732421875
869,785.3113403320312,787.7289428710938,786.5201416015625,778.8644409179688
870,788.1318969726562,791.7582397460938,790.952392578125,781.2820434570312
871,790.1465454101562,794.5787353515625,790.1465454101562,780.879150390625
872,792.1611938476562,793.3699340820312,783.2966918945312,779.6703491210938
873,791.7582397460938,793.3699340820312,786.923095703125,774.8351440429688
874,788.5347900390625,796.5933837890625,789.3406372070312,776.4468994140625
875,788.937744140625,790.1465454101562,785.7142944335938,777.2527465820312
876,792.967041015625,787.3259887695312,784.1025390625,779.6703491210938
877,788.937744140625,787.3259887695312,785.7142944335938,778.4615478515625
878,787.3259887695312,784.1025390625,786.923095703125,781.6849975585938
879,788.5347900390625,784.908447265625,787.3259887695312,784.908447265625
880,790.1465454101562,786.5201416015625,788.937744140625,786.923095703125
881,794.981689453125,789.7435913085938,791.7582397460938,789.7435913085938
882,797.3992919921875,788.937744140625,794.1758422851562,795.3846435546875
883,796.1904907226562,788.937744140625,792.5640869140625,802.2344360351562
884,789.7435913085938,793.3699340820312,791.3552856445312,798.6080322265625
885,788.937744140625,790.5494384765625,791.3552856445312,799.4139404296875
886,791.7582397460938,791.7582397460938,794.1758422851562,802.6373901367188
887,795.3846435546875,794.5787353515625,793.7728881835938,799.8168334960938
888,796.996337890625,789.7435913085938,792.5640869140625,795.3846435546875
889,790.952392578125,790.952392578125,794.5787353515625,787.3259887695312
890,792.5640869140625,792.5640869140625,792.967041015625,784.5054931640625
891,795.7875366210938,791.7582397460938,792.5640869140625,788.1318969726562
892,799.010986328125,794.1758422851562,792.1611938476562,785.3113403320312
893,802.2344360351562,795.3846435546875,791.3552856445312,782.4908447265625
894,801.4285888671875,794.981689453125,788.937744140625,784.908447265625
895,798.2051391601562,793.3699340820312,787.3259887695312,781.6849975585938
896,800.6226806640625,795.7875366210938,781.2820434570312,773.2234497070312
897,805.8607788085938,798.2051391601562,784.908447265625,779.2673950195312
898,806.2637329101562,799.010986328125,794.5787353515625,785.3113403320312
899,799.4139404296875,797.8021850585938,792.1611938476562,779.2673950195312
900,790.5494384765625,794.1758422851562,788.937744140625,774.4322509765625
901,790.952392578125,795.7875366210938,788.937744140625,779.6703491210938
902,793.7728881835938,799.010986328125,791.7582397460938,787.7289428710938
903,788.937744140625,796.996337890625,792.967041015625,787.7289428710938
904,787.3259887695312,793.7728881835938,792.5640869140625,781.6849975585938
905,781.6849975585938,794.5787353515625,795.7875366210938,783.2966918945312
906,777.2527465820312,790.5494384765625,796.996337890625,789.3406372070312
907,782.893798828125,788.1318969726562,800.6226806640625,792.1611938476562
908,784.908447265625,791.3552856445312,798.2051391601562,788.937744140625
909,780.4761962890625,787.7289428710938,792.967041015625,787.7289428710938
910,772.0146484375,789.7435913085938,796.1904907226562,788.937744140625
911,768.3883056640625,794.1758422851562,796.996337890625,790.1465454101562
912,776.4468994140625,792.967041015625,799.8168334960938,793.7728881835938
913,787.3259887695312,793.3699340820312,797.3992919921875,792.1611938476562
914,790.1465454101562,794.1758422851562,796.1904907226562,790.1465454101562
915,789.7435913085938,796.1904907226562,794.1758422851562,788.1318969726562
916,794.5787353515625,792.967041015625,793.3699340820312,789.3406372070312
917,803.4432373046875,792.1611938476562,794.1758422851562,796.1904907226562
918,805.4578857421875,792.967041015625,793.7728881835938,794.981689453125
919,805.054931640625,793.7728881835938,797.3992919921875,795.3846435546875
920,808.2783813476562,800.2197875976562,798.2051391601562,799.8168334960938
921,803.040283203125,800.2197875976562,792.967041015625,799.4139404296875
922,806.6666870117188,796.5933837890625,793.3699340820312,792.967041015625
923,814.3223266601562,801.4285888671875,798.2051391601562,786.1171875
924,811.098876953125,801.8314819335938,794.1758422851562,785.7142944335938
925,805.054931640625,798.2051391601562,790.5494384765625,786.923095703125
926,801.8314819335938,796.5933837890625,789.3406372070312,785.7142944335938
927,803.8461303710938,794.1758422851562,786.5201416015625,785.7142944335938
928,800.2197875976562,790.952392578125,788.1318969726562,782.087890625
929,800.2197875976562,791.7582397460938,792.1611938476562,784.1025390625
930,794.5787353515625,788.937744140625,791.7582397460938,786.923095703125
931,782.893798828125,781.6849975585938,789.3406372070312,782.893798828125
932,782.087890625,784.1025390625,789.7435913085938,788.1318969726562
933,784.1025390625,786.5201416015625,791.7582397460938,799.4139404296875
934,786.5201416015625,788.1318969726562,792.1611938476562,793.7728881835938
935,786.923095703125,787.3259887695312,796.5933837890625,788.937744140625
936,785.7142944335938,787.7289428710938,799.010986328125,796.1904907226562
937,787.3259887695312,785.7142944335938,792.5640869140625,800.6226806640625
938,786.923095703125,781.2820434570312,791.3552856445312,797.3992919921875
939,794.981689453125,779.2673950195312,794.1758422851562,798.2051391601562
940,799.010986328125,782.4908447265625,793.7728881835938,799.4139404296875
941,789.3406372070312,787.3259887695312,789.7435913085938,791.3552856445312
942,792.1611938476562,786.5201416015625,788.937744140625,789.3406372070312
943,799.4139404296875,788.937744140625,790.5494384765625,795.7875366210938
944,797.8021850585938,788.1318969726562,789.7435913085938,797.8021850585938
945,796.1904907226562,790.5494384765625,784.5054931640625,790.1465454101562
946,792.5640869140625,792.967041015625,784.908447265625,782.4908447265625
947,793.3699340820312,795.7875366210938,790.5494384765625,781.2820434570312
948,794.981689453125,797.3992919921875,788.937744140625,784.908447265625
949,796.5933837890625,793.7728881835938,788.937744140625,785.7142944335938
950,796.5933837890625,795.3846435546875,792.1611938476562,784.5054931640625
951,788.1318969726562,798.2051391601562,788.5347900390625,782.893798828125
952,784.908447265625,793.7728881835938,787.3259887695312,781.2820434570312
953,789.3406372070312,793.3699340820312,791.7582397460938,784.1025390625
954,790.952392578125,794.5787353515625,785.3113403320312,787.3259887695312
955,792.1611938476562,793.7728881835938,786.1171875,788.5347900390625
956,787.3259887695312,794.1758422851562,788.5347900390625,797.3992919921875
957,783.2966918945312,792.1611938476562,784.1025390625,793.7728881835938
958,786.5201416015625,792.5640869140625,786.5201416015625,791.3552856445312
959,790.952392578125,788.937744140625,788.5347900390625,793.7728881835938
960,787.7289428710938,789.3406372070312,792.1611938476562,788.5347900390625
961,783.6996459960938,790.5494384765625,792.967041015625,786.923095703125
962,788.5347900390625,786.923095703125,790.952392578125,788.1318969726562
963,798.2051391601562,788.5347900390625,794.5787353515625,794.5787353515625
964,801.8314819335938,788.937744140625,796.5933837890625,794.1758422851562
965,801.8314819335938,787.3259887695312,795.3846435546875,795.3846435546875
966,795.7875366210938,786.1171875,792.967041015625,788.1318969726562
967,796.996337890625,786.1171875,797.3992919921875,788.937744140625
968,801.8314819335938,791.3552856445312,802.6373901367188,800.6226806640625
969,796.1904907226562,788.937744140625,800.2197875976562,790.952392578125
970,787.7289428710938,780.4761962890625,796.1904907226562,782.087890625
971,784.5054931640625,778.8644409179688,792.5640869140625,782.893798828125
972,787.3259887695312,783.6996459960938,792.1611938476562,784.1025390625
973,788.1318969726562,788.1318969726562,794.1758422851562,786.1171875
974,786.923095703125,789.3406372070312,792.967041015625,785.3113403320312
975,790.1465454101562,791.3552856445312,794.1758422851562,789.7435913085938
976,792.967041015625,792.5640869140625,795.3846435546875,790.5494384765625
977,798.2051391601562,789.7435913085938,796.996337890625,789.3406372070312
978,803.040283203125,790.1465454101562,796.996337890625,790.952392578125
979,798.6080322265625,785.3113403320312,795.7875366210938,789.3406372070312
980,795.3846435546875,785.7142944335938,794.1758422851562,782.4908447265625
981,794.981689453125,787.3259887695312,790.1465454101562,779.2673950195312
982,787.7289428710938,782.087890625,788.1318969726562,774.4322509765625
983,779.6703491210938,782.4908447265625,787.3259887695312,772.4176025390625
984,787.7289428710938,784.5054931640625,787.7289428710938,778.4615478515625
985,790.952392578125,782.4908447265625,790.5494384765625,776.4468994140625
986,786.923095703125,785.7142944335938,789.3406372070312,776.0439453125
987,784.1025390625,786.923095703125,785.3113403320312,777.6557006835938
988,787.3259887695312,786.923095703125,785.7142944335938,781.6849975585938
989,795.7875366210938,794.5787353515625,791.3552856445312,788.937744140625
990,794.981689453125,795.7875366210938,791.3552856445312,788.5347900390625
991,790.1465454101562,793.7728881835938,786.923095703125,788.937744140625
992,785.3113403320312,788.5347900390625,791.7582397460938,781.2820434570312
993,786.1171875,787.7289428710938,795.7875366210938,782.4908447265625
994,790.952392578125,790.952392578125,793.7728881835938,791.7582397460938
995,788.937744140625,784.908447265625,790.5494384765625,789.3406372070312
996,788.1318969726562,783.6996459960938,788.5347900390625,783.6996459960938
997,794.5787353515625,786.923095703125,792.1611938476562,786.1171875
998,794.1758422851562,787.7289428710938,792.1611938476562,789.7435913085938
999,794.981689453125,787.7289428710938,787.7289428710938,790.1465454101562
1000,800.6226806640625,790.952392578125,787.7289428710938,790.1465454101562
1001,798.6080322265625,789.3406372070312,789.7435913085938,788.5347900390625
1002,794.981689453125,784.908447265625,787.7289428710938,793.3699340820312
1003,795.3846435546875,790.1465454101562,788.5347900390625,790.5494384765625
1004,799.4139404296875,793.3699340820312,792.1611938476562,776.8497924804688
1005,803.040283203125,793.7728881835938,792.5640869140625,779.2673950195312
1006,801.8314819335938,799.010986328125,792.5640869140625,782.087890625
1007,790.952392578125,795.3846435546875,787.7289428710938,776.4468994140625
1008,788.937744140625,790.5494384765625,787.3259887695312,781.2820434570312
1009,794.981689453125,788.937744140625,791.7582397460938,784.1025390625
1010,790.952392578125,782.4908447265625,787.7289428710938,779.2673950195312
1011,787.3259887695312,779.2673950195312,787.7289428710938,778.4615478515625
1012,786.1171875,778.8644409179688,788.5347900390625,777.6557006835938
1013,782.893798828125,777.2527465820312,790.5494384765625,777.6557006835938
1014,782.4908447265625,780.879150390625,795.7875366210938,780.0732421875
1015,786.923095703125,782.893798828125,796.5933837890625,783.6996459960938
1016,790.5494384765625,786.923095703125,794.981689453125,786.5201416015625
1017,790.1465454101562,789.7435913085938,794.1758422851562,786.923095703125
1018,783.6996459960938,785.7142944335938,789.7435913085938,778.8644409179688
1019,784.1025390625,787.3259887695312,789.7435913085938,776.8497924804688
1020,791.3552856445312,794.1758422851562,790.952392578125,779.2673950195312
1021,789.3406372070312,792.967041015625,785.7142944335938,775.2380981445312
1022,786.923095703125,788.5347900390625,786.5201416015625,774.8351440429688
1023,783.6996459960938,791.3552856445312,790.1465454101562,773.6264038085938
1024,784.1025390625,793.7728881835938,789.3406372070312,783.2966918945312
1025,784.908447265625,787.7289428710938,788.1318969726562,788.937744140625
1026,788.937744140625,787.7289428710938,789.3406372070312,781.2820434570312
1027,790.1465454101562,790.5494384765625,788.937744140625,775.6410522460938
1028,781.6849975585938,789.3406372070312,790.952392578125,772.0146484375
1029,782.4908447265625,790.5494384765625,793.3699340820312,780.0732421875
1030,786.5201416015625,790.5494384765625,787.7289428710938,780.0732421875
1031,785.3113403320312,789.3406372070312,784.908447265625,779.6703491210938
1032,779.6703491210938,785.3113403320312,788.5347900390625,780.0732421875
1033,776.0439453125,781.6849975585938,789.7435913085938,778.05859375
1034,781.2820434570312,785.7142944335938,791.7582397460938,785.7142944335938
1035,780.879150390625,784.5054931640625,791.7582397460938,790.1465454101562
1036,785.3113403320312,781.6849975585938,793.3699340820312,787.7289428710938
1037,787.3259887695312,782.893798828125,794.981689453125,784.908447265625
1038,780.879150390625,782.087890625,795.3846435546875,786.5201416015625
1039,782.893798828125,780.0732421875,794.1758422851562,785.3113403320312
1040,792.1611938476562,785.7142944335938,790.1465454101562,790.5494384765625
1041,797.8021850585938,792.967041015625,789.7435913085938,796.1904907226562
1042,795.3846435546875,789.7435913085938,792.5640869140625,787.7289428710938
1043,791.7582397460938,786.5201416015625,791.7582397460938,780.879150390625
1044,791.7582397460938,785.7142944335938,790.952392578125,778.05859375
1045,787.7289428710938,785.7142944335938,788.5347900390625,775.6410522460938
1046,789.3406372070312,786.1171875,783.6996459960938,771.2088012695312
1047,797.3992919921875,786.5201416015625,783.6996459960938,776.0439453125
1048,796.1904907226562,786.923095703125,787.3259887695312,778.8644409179688
1049,795.3846435546875,792.967041015625,789.7435913085938,779.6703491210938
1050,792.967041015625,796.1904907226562,787.7289428710938,782.087890625
1051,795.7875366210938,794.1758422851562,782.087890625,783.2966918945312
1052,800.6226806640625,791.3552856445312,783.2966918945312,793.3699340820312
1053,792.1611938476562,787.3259887695312,782.087890625,787.7289428710938
1054,785.7142944335938,788.1318969726562,780.879150390625,778.8644409179688
1055,789.7435913085938,788.1318969726562,790.952392578125,782.4908447265625
1056,796.1904907226562,788.5347900390625,790.952392578125,788.1318969726562
1057,796.996337890625,787.7289428710938,787.7289428710938,788.1318969726562
1058,793.3699340820312,786.5201416015625,788.937744140625,784.1025390625
1059,787.7289428710938,786.1171875,788.1318969726562,786.5201416015625
1060,790.1465454101562,787.3259887695312,794.1758422851562,796.996337890625
1061,798.6080322265625,789.3406372070312,798.2051391601562,807.069580078125
1062,801.4285888671875,786.5201416015625,798.2051391601562,806.6666870117188
1063,793.7728881835938,783.6996459960938,797.8021850585938,806.6666870117188
1064,781.2820434570312,779.2673950195312,792.1611938476562,799.8168334960938
1065,778.4615478515625,778.4615478515625,790.952392578125,794.1758422851562
1066,781.6849975585938,780.879150390625,797.8021850585938,796.5933837890625
1067,778.8644409179688,782.087890625,794.5787353515625,796.5933837890625
1068,775.2380981445312,783.2966918945312,788.5347900390625,792.1611938476562
1069,776.4468994140625,786.923095703125,790.1465454101562,790.1465454101562
1070,782.893798828125,793.7728881835938,791.7582397460938,790.952392578125
1071,782.4908447265625,792.5640869140625,790.5494384765625,786.5201416015625
1072,784.908447265625,792.5640869140625,789.7435913085938,786.1171875
1073,792.967041015625,797.8021850585938,791.7582397460938,788.5347900390625
1074,793.7728881835938,796.5933837890625,790.1465454101562,783.2966918945312
1075,797.8021850585938,794.981689453125,788.1318969726562,784.5054931640625
1076,804.2490844726562,790.1465454101562,786.5201416015625,785.3113403320312
1077,806.6666870117188,787.3259887695312,784.1025390625,781.2820434570312
1078,807.069580078125,790.5494384765625,788.5347900390625,785.3113403320312
1079,802.6373901367188,791.3552856445312,792.5640869140625,790.1465454101562
1080,800.6226806640625,789.3406372070312,792.1611938476562,790.952392578125
1081,791.3552856445312,786.5201416015625,792.5640869140625,789.7435913085938
1082,790.952392578125,786.923095703125,795.7875366210938,799.4139404296875
1083,791.3552856445312,790.1465454101562,796.1904907226562,806.6666870117188
1084,780.879150390625,786.923095703125,794.1758422851562,799.010986328125
1085,778.05859375,785.7142944335938,796.996337890625,797.3992919921875
1086,774.8351440429688,785.3113403320312,800.2197875976562,798.2051391601562
1087,772.0146484375,783.6996459960938,800.2197875976562,797.3992919921875
1088,767.9853515625,781.2820434570312,796.5933837890625,788.5347900390625
1089,761.1355590820312,780.0732421875,795.3846435546875,783.6996459960938
1090,751.8681030273438,780.4761962890625,792.967041015625,781.6849975585938
1091,756.7033081054688,783.2966918945312,796.1904907226562,786.1171875
1092,766.7765502929688,786.923095703125,801.025634765625,791.7582397460938
1093,763.9560546875,790.5494384765625,799.4139404296875,792.5640869140625
1094,761.5384521484375,788.1318969726562,794.981689453125,791.7582397460938
1095,758.3150024414062,788.5347900390625,791.3552856445312,786.5201416015625
1096,759.9267578125,789.7435913085938,791.3552856445312,784.908447265625
1097,774.8351440429688,790.5494384765625,789.7435913085938,790.952392578125
1098,772.4176025390625,788.5347900390625,784.908447265625,785.3113403320312
1099,762.3442993164062,788.937744140625,783.2966918945312,779.6703491210938
1100,768.3883056640625,792.5640869140625,784.5054931640625,779.6703491210938
1101,776.4468994140625,796.5933837890625,784.908447265625,778.8644409179688
1102,785.7142944335938,798.2051391601562,784.908447265625,781.6849975585938
1103,792.5640869140625,797.8021850585938,784.1025390625,780.4761962890625
1104,794.1758422851562,797.3992919921875,788.937744140625,777.2527465820312
1105,793.3699340820312,799.4139404296875,790.1465454101562,779.6703491210938
1106,796.996337890625,798.6080322265625,788.1318969726562,782.893798828125
1107,805.054931640625,791.3552856445312,787.3259887695312,780.879150390625
1108,813.113525390625,790.1465454101562,784.5054931640625,783.6996459960938
1109,813.91943359375,794.1758422851562,784.1025390625,781.6849975585938
1110,805.054931640625,792.967041015625,786.1171875,785.3113403320312
1111,799.8168334960938,794.1758422851562,785.7142944335938,784.1025390625
1112,804.6520385742188,794.5787353515625,786.5201416015625,780.4761962890625
1113,807.069580078125,792.5640869140625,784.908447265625,783.6996459960938
1114,802.6373901367188,794.5787353515625,783.6996459960938,781.6849975585938
1115,799.010986328125,795.3846435546875,788.5347900390625,778.4615478515625
1116,796.996337890625,791.7582397460938,787.7289428710938,781.2820434570312
1117,797.3992919921875,790.1465454101562,783.2966918945312,786.923095703125
1118,796.996337890625,790.1465454101562,784.5054931640625,786.5201416015625
1119,794.5787353515625,786.5201416015625,789.3406372070312,784.5054931640625
1120,784.1025390625,783.6996459960938,788.1318969726562,780.4761962890625
1121,780.879150390625,788.1318969726562,790.1465454101562,782.893798828125
1122,786.923095703125,790.1465454101562,792.1611938476562,791.7582397460938
1123,787.7289428710938,784.5054931640625,790.952392578125,795.7875366210938
1124,789.3406372070312,784.908447265625,796.5933837890625,798.6080322265625
1125,789.3406372070312,786.923095703125,792.967041015625,794.5787353515625
1126,789.7435913085938,786.923095703125,792.1611938476562,790.952392578125
1127,793.3699340820312,789.7435913085938,794.981689453125,793.7728881835938
1128,799.4139404296875,788.937744140625,793.3699340820312,793.3699340820312
1129,806.6666870117188,789.3406372070312,794.981689453125,796.5933837890625
1130,804.2490844726562,792.5640869140625,793.7728881835938,796.1904907226562
1131,802.2344360351562,794.981689453125,795.7875366210938,796.996337890625
1132,808.2783813476562,799.010986328125,794.981689453125,799.4139404296875
1133,808.6813354492188,801.025634765625,796.1904907226562,802.6373901367188
1134,804.6520385742188,802.6373901367188,799.010986328125,795.3846435546875
1135,803.8461303710938,802.6373901367188,797.3992919921875,786.923095703125
1136,806.6666870117188,800.2197875976562,796.5933837890625,790.952392578125
1137,801.8314819335938,799.010986328125,796.996337890625,794.1758422851562
1138,799.4139404296875,797.3992919921875,797.8021850585938,795.3846435546875
1139,805.8607788085938,796.1904907226562,794.1758422851562,796.1904907226562
1140,804.6520385742188,796.996337890625,794.981689453125,794.1758422851562
1141,798.6080322265625,799.010986328125,798.2051391601562,794.1758422851562
1142,794.1758422851562,790.952392578125,795.3846435546875,795.3846435546875
1143,797.8021850585938,790.5494384765625,794.981689453125,794.1758422851562
1144,802.6373901367188,794.5787353515625,794.5787353515625,795.3846435546875
1145,801.8314819335938,792.967041015625,794.1758422851562,794.1758422851562
1146,797.8021850585938,788.5347900390625,793.7728881835938,793.7728881835938
1147,798.2051391601562,786.1171875,792.1611938476562,799.4139404296875
1148,798.2051391601562,790.952392578125,796.996337890625,802.2344360351562
1149,794.981689453125,792.5640869140625,796.996337890625,804.2490844726562
1150,793.3699340820312,787.7289428710938,794.981689453125,800.6226806640625
1151,792.967041015625,789.7435913085938,794.1758422851562,790.952392578125
1152,791.3552856445312,789.7435913085938,793.3699340820312,792.5640869140625
1153,786.5201416015625,792.5640869140625,795.3846435546875,789.7435913085938
1154,788.937744140625,796.1904907226562,796.996337890625,783.2966918945312
1155,787.3259887695312,790.1465454101562,795.7875366210938,784.5054931640625
1156,786.5201416015625,786.1171875,791.3552856445312,785.3113403320312
1157,787.3259887695312,789.7435913085938,788.5347900390625,778.4615478515625
1158,787.7289428710938,790.5494384765625,788.5347900390625,774.8351440429688
1159,798.6080322265625,789.3406372070312,786.923095703125,780.879150390625
1160,793.7728881835938,793.3699340820312,784.908447265625,779.6703491210938
1161,781.6849975585938,791.3552856445312,785.3113403320312,777.6557006835938
1162,784.1025390625,784.5054931640625,784.1025390625,781.2820434570312
1163,789.3406372070312,787.3259887695312,783.6996459960938,781.6849975585938
1164,788.5347900390625,788.937744140625,784.5054931640625,780.4761962890625
1165,788.5347900390625,787.7289428710938,785.7142944335938,780.879150390625
1166,788.1318969726562,790.952392578125,786.5201416015625,779.6703491210938
1167,786.923095703125,795.7875366210938,788.1318969726562,782.087890625
1168,786.1171875,797.8021850585938,790.1465454101562,780.4761962890625
1169,790.1465454101562,798.6080322265625,790.1465454101562,773.2234497070312
1170,792.967041015625,797.3992919921875,791.3552856445312,772.4176025390625
1171,792.5640869140625,794.981689453125,793.3699340820312,783.6996459960938
1172,790.1465454101562,795.3846435546875,788.5347900390625,778.05859375
1173,790.952392578125,797.3992919921875,787.7289428710938,781.2820434570312
1174,797.3992919921875,797.8021850585938,791.3552856445312,786.1171875
1175,799.8168334960938,796.996337890625,790.1465454101562,784.5054931640625
1176,799.4139404296875,798.6080322265625,792.967041015625,789.3406372070312
1177,800.6226806640625,800.2197875976562,790.952392578125,787.7289428710938
1178,803.040283203125,800.6226806640625,788.937744140625,790.5494384765625
1179,808.2783813476562,801.4285888671875,790.1465454101562,792.1611938476562
1180,812.3076782226562,798.6080322265625,785.7142944335938,788.937744140625
1181,810.6959838867188,798.2051391601562,784.908447265625,790.1465454101562
1182,809.4871826171875,796.996337890625,788.5347900390625,792.5640869140625
1183,809.89013671875,793.3699340820312,792.5640869140625,799.010986328125
1184,808.2783813476562,792.5640869140625,792.967041015625,802.2344360351562
1185,810.6959838867188,793.7728881835938,790.952392578125,802.2344360351562
1186,815.1282348632812,793.3699340820312,793.3699340820312,797.3992919921875
1187,812.3076782226562,792.967041015625,792.967041015625,794.5787353515625
1188,801.8314819335938,796.1904907226562,790.5494384765625,794.981689453125
1189,806.2637329101562,799.4139404296875,786.1171875,798.6080322265625
1190,809.89013671875,795.7875366210938,784.908447265625,800.2197875976562
1191,808.6813354492188,795.3846435546875,784.5054931640625,796.5933837890625
1192,806.2637329101562,795.7875366210938,786.1171875,792.5640869140625
1193,799.8168334960938,796.996337890625,787.3259887695312,791.3552856445312
1194,803.4432373046875,794.1758422851562,790.1465454101562,795.3846435546875
1195,807.87548828125,793.7728881835938,791.7582397460938,794.1758422851562
1196,803.4432373046875,794.981689453125,790.1465454101562,791.3552856445312
1197,794.1758422851562,791.3552856445312,789.7435913085938,790.952392578125
1198,790.952392578125,792.967041015625,792.1611938476562,789.7435913085938
1199,785.7142944335938,788.5347900390625,788.5347900390625,782.087890625
1200,786.5201416015625,782.893798828125,786.923095703125,783.2966918945312
1201,787.3259887695312,785.7142944335938,788.937744140625,786.5201416015625
1202,782.4908447265625,786.923095703125,790.1465454101562,781.6849975585938
1203,788.1318969726562,788.937744140625,790.952392578125,786.923095703125
1204,788.937744140625,789.7435913085938,789.3406372070312,786.923095703125
1205,790.952392578125,789.7435913085938,791.3552856445312,789.7435913085938
1206,789.3406372070312,789.7435913085938,789.7435913085938,789.3406372070312
1207,785.7142944335938,789.7435913085938,785.3113403320312,786.5201416015625
1208,789.7435913085938,788.937744140625,788.1318969726562,782.087890625
1209,792.1611938476562,787.7289428710938,790.1465454101562,784.908447265625
1210,788.1318969726562,785.3113403320312,788.5347900390625,788.5347900390625
1211,792.967041015625,786.923095703125,786.1171875,785.7142944335938
1212,799.8168334960938,787.7289428710938,785.3113403320312,789.7435913085938
1213,791.7582397460938,784.5054931640625,783.2966918945312,784.908447265625
1214,790.5494384765625,782.087890625,779.6703491210938,786.5201416015625
1215,799.8168334960938,785.3113403320312,778.8644409179688,786.1171875
1216,803.8461303710938,791.7582397460938,784.1025390625,788.1318969726562
1217,801.4285888671875,792.967041015625,789.3406372070312,796.1904907226562
1218,796.996337890625,790.5494384765625,790.952392578125,797.8021850585938
1219,805.054931640625,792.1611938476562,791.7582397460938,795.7875366210938
1220,804.2490844726562,794.981689453125,791.3552856445312,790.5494384765625
1221,794.1758422851562,789.7435913085938,788.937744140625,789.7435913085938
1222,793.7728881835938,784.5054931640625,788.1318969726562,784.5054931640625
1223,794.5787353515625,784.5054931640625,789.3406372070312,778.8644409179688
1224,786.5201416015625,782.4908447265625,792.5640869140625,779.2673950195312
1225,783.2966918945312,779.2673950195312,790.5494384765625,778.8644409179688
1226,787.7289428710938,776.8497924804688,790.5494384765625,777.2527465820312
1227,789.3406372070312,777.6557006835938,794.1758422851562,780.879150390625
1228,788.5347900390625,783.2966918945312,792.1611938476562,778.4615478515625
1229,784.908447265625,784.1025390625,790.1465454101562,771.2088012695312
1230,785.3113403320312,782.4908447265625,788.1318969726562,765.1648559570312
1231,786.923095703125,788.1318969726562,790.1465454101562,771.2088012695312
1232,783.6996459960938,785.7142944335938,788.1318969726562,772.4176025390625
1233,785.7142944335938,786.1171875,784.908447265625,771.6116943359375
1234,792.1611938476562,788.937744140625,786.1171875,777.2527465820312
1235,792.1611938476562,784.1025390625,786.5201416015625,773.6264038085938
1236,792.5640869140625,784.1025390625,785.7142944335938,778.8644409179688
1237,782.893798828125,781.2820434570312,784.5054931640625,783.2966918945312
1238,782.893798828125,782.4908447265625,783.2966918945312,773.2234497070312
1239,790.5494384765625,789.3406372070312,783.2966918945312,775.2380981445312
1240,789.3406372070312,790.952392578125,784.5054931640625,784.1025390625
1241,800.2197875976562,792.1611938476562,787.3259887695312,788.937744140625
1242,803.040283203125,795.3846435546875,791.7582397460938,783.6996459960938
1243,791.3552856445312,794.981689453125,791.7582397460938,776.4468994140625
1244,790.1465454101562,791.3552856445312,792.1611938476562,782.4908447265625
1245,794.981689453125,786.1171875,794.5787353515625,785.7142944335938
1246,798.6080322265625,784.5054931640625,794.5787353515625,784.908447265625
1247,801.8314819335938,786.5201416015625,792.967041015625,782.893798828125
1248,794.1758422851562,781.6849975585938,789.7435913085938,786.1171875
1249,786.5201416015625,779.2673950195312,792.967041015625,789.3406372070312
1250,791.7582397460938,782.087890625,794.981689453125,788.937744140625
1251,790.952392578125,778.4615478515625,793.7728881835938,786.923095703125
1252,790.1465454101562,781.6849975585938,789.7435913085938,784.908447265625
1253,789.7435913085938,784.5054931640625,787.7289428710938,780.0732421875
1254,784.1025390625,784.908447265625,790.5494384765625,775.2380981445312
1255,789.7435913085938,789.7435913085938,790.952392578125,786.1171875
1256,793.3699340820312,790.952392578125,791.3552856445312,790.952392578125
1257,794.5787353515625,790.1465454101562,794.5787353515625,783.6996459960938
1258,803.040283203125,790.952392578125,797.8021850585938,788.937744140625
1259,800.2197875976562,792.1611938476562,796.996337890625,788.937744140625
1260,797.3992919921875,792.5640869140625,799.010986328125,784.1025390625
1261,801.4285888671875,792.1611938476562,801.025634765625,785.7142944335938
1262,798.2051391601562,791.7582397460938,795.7875366210938,786.5201416015625
1263,799.8168334960938,793.3699340820312,794.981689453125,792.1611938476562
1264,799.8168334960938,794.5787353515625,795.3846435546875,788.937744140625
1265,795.3846435546875,793.7728881835938,794.5787353515625,784.1025390625
1266,802.2344360351562,792.967041015625,794.1758422851562,791.3552856445312
1267,804.6520385742188,793.7728881835938,788.937744140625,796.996337890625
1268,796.1904907226562,792.967041015625,788.1318969726562,790.5494384765625
1269,792.5640869140625,788.937744140625,790.952392578125,784.1025390625
1270,788.5347900390625,786.923095703125,783.6996459960938,782.893798828125
1271,789.3406372070312,784.908447265625,783.2966918945312,785.3113403320312
1272,794.1758422851562,786.1171875,789.7435913085938,785.7142944335938
1273,793.3699340820312,788.1318969726562,789.3406372070312,783.2966918945312
1274,790.1465454101562,786.923095703125,787.3259887695312,784.1025390625
1275,785.3113403320312,785.3113403320312,783.6996459960938,778.8644409179688
1276,787.3259887695312,784.1025390625,781.6849975585938,780.879150390625
1277,794.981689453125,782.893798828125,785.7142944335938,786.5201416015625
1278,795.7875366210938,785.3113403320312,788.5347900390625,789.7435913085938
1279,792.967041015625,792.1611938476562,786.5201416015625,790.5494384765625
1280,790.5494384765625,790.5494384765625,782.893798828125,784.5054931640625
1281,790.952392578125,788.1318969726562,783.2966918945312,784.5054931640625
1282,794.981689453125,790.1465454101562,785.7142944335938,785.3113403320312
1283,793.3699340820312,790.1465454101562,785.7142944335938,780.4761962890625
1284,789.7435913085938,783.2966918945312,786.1171875,774.4322509765625
1285,794.5787353515625,784.1025390625,792.5640869140625,780.4761962890625
1286,794.981689453125,788.1318969726562,795.3846435546875,786.5201416015625
1287,797.8021850585938,781.6849975585938,791.7582397460938,783.6996459960938
1288,801.025634765625,781.2820434570312,791.3552856445312,781.2820434570312
1289,797.8021850585938,792.5640869140625,791.7582397460938,784.1025390625
1290,790.952392578125,789.7435913085938,791.3552856445312,786.1171875
1291,786.5201416015625,785.3113403320312,794.1758422851562,784.1025390625
1292,789.3406372070312,787.7289428710938,792.1611938476562,784.1025390625
1293,792.5640869140625,788.1318969726562,788.937744140625,788.1318969726562
1294,791.3552856445312,788.937744140625,788.937744140625,791.3552856445312
1295,789.7435913085938,789.3406372070312,791.3552856445312,790.1465454101562
1296,788.937744140625,788.5347900390625,792.5640869140625,784.908447265625
1297,796.5933837890625,786.923095703125,789.3406372070312,784.908447265625
1298,804.6520385742188,790.952392578125,790.5494384765625,790.1465454101562
1299,800.2197875976562,796.1904907226562,790.952392578125,791.7582397460938
1300,788.937744140625,791.3552856445312,787.3259887695312,789.7435913085938
1301,788.1318969726562,785.7142944335938,786.5201416015625,789.3406372070312
1302,793.7728881835938,787.7289428710938,785.7142944335938,786.923095703125
1303,790.1465454101562,790.5494384765625,786.923095703125,788.5347900390625
1304,790.1465454101562,790.1465454101562,791.3552856445312,792.5640869140625
1305,794.1758422851562,790.952392578125,792.5640869140625,794.5787353515625
1306,792.1611938476562,791.3552856445312,789.7435913085938,787.7289428710938
1307,791.3552856445312,787.3259887695312,789.3406372070312,777.6557006835938
1308,799.8168334960938,787.3259887695312,790.952392578125,789.7435913085938
1309,809.4871826171875,790.952392578125,793.7728881835938,798.2051391601562
1310,801.4285888671875,790.952392578125,790.952392578125,786.5201416015625
1311,791.7582397460938,791.3552856445312,790.952392578125,784.1025390625
1312,792.1611938476562,790.952392578125,789.7435913085938,784.5054931640625
1313,791.7582397460938,787.7289428710938,788.937744140625,780.879150390625
1314,784.5054931640625,786.5201416015625,785.3113403320312,776.4468994140625
1315,783.2966918945312,789.3406372070312,783.2966918945312,775.2380981445312
1316,787.3259887695312,792.1611938476562,784.1025390625,779.2673950195312
1317,788.937744140625,790.952392578125,782.087890625,787.7289428710938
1318,785.7142944335938,788.1318969726562,778.4615478515625,783.2966918945312
1319,786.1171875,787.3259887695312,783.2966918945312,778.4615478515625
1320,782.893798828125,789.3406372070312,788.937744140625,779.6703491210938
1321,782.4908447265625,793.3699340820312,789.3406372070312,782.087890625
1322,782.893798828125,792.1611938476562,790.1465454101562,783.6996459960938
1323,783.2966918945312,785.7142944335938,786.5201416015625,778.4615478515625
1324,782.893798828125,786.923095703125,786.1171875,773.6264038085938
1325,787.3259887695312,791.7582397460938,787.7289428710938,780.4761962890625
1326,789.7435913085938,792.967041015625,784.5054931640625,783.6996459960938
1327,783.2966918945312,792.5640869140625,782.087890625,781.2820434570312
1328,789.7435913085938,794.981689453125,781.6849975585938,789.7435913085938
1329,798.2051391601562,796.5933837890625,782.087890625,792.5640869140625
1330,791.3552856445312,791.3552856445312,784.5054931640625,784.5054931640625
1331,788.5347900390625,785.3113403320312,786.923095703125,789.3406372070312
1332,793.3699340820312,786.923095703125,786.923095703125,792.967041015625
1333,789.3406372070312,786.1171875,784.908447265625,786.923095703125
1334,790.952392578125,782.893798828125,784.5054931640625,785.3113403320312
1335,798.2051391601562,787.7289428710938,788.937744140625,794.1758422851562
1336,790.5494384765625,787.3259887695312,791.3552856445312,798.2051391601562
1337,787.3259887695312,783.6996459960938,791.3552856445312,796.5933837890625
1338,795.7875366210938,784.908447265625,793.7728881835938,799.010986328125
1339,797.8021850585938,786.923095703125,792.5640869140625,796.996337890625
1340,793.7728881835938,786.1171875,792.1611938476562,799.010986328125
1341,788.5347900390625,786.923095703125,792.967041015625,796.996337890625
1342,787.3259887695312,789.7435913085938,794.981689453125,789.7435913085938
1343,790.5494384765625,789.3406372070312,796.1904907226562,784.908447265625
1344,795.7875366210938,787.3259887695312,795.7875366210938,785.7142944335938
1345,792.5640869140625,788.1318969726562,796.5933837890625,788.5347900390625
1346,783.6996459960938,790.1465454101562,795.7875366210938,787.7289428710938
1347,784.5054931640625,791.3552856445312,797.8021850585938,786.923095703125
1348,790.952392578125,793.7728881835938,801.8314819335938,791.7582397460938
1349,793.7728881835938,791.7582397460938,796.996337890625,790.952392578125
1350,792.5640869140625,789.7435913085938,795.3846435546875,787.3259887695312
1351,791.7582397460938,792.5640869140625,799.010986328125,785.7142944335938
1352,790.1465454101562,792.1611938476562,797.8021850585938,784.5054931640625
1353,787.3259887695312,788.1318969726562,793.7728881835938,784.908447265625
1354,788.1318969726562,789.3406372070312,794.1758422851562,788.1318969726562
1355,792.1611938476562,791.3552856445312,794.981689453125,795.7875366210938
1356,789.7435913085938,792.1611938476562,798.2051391601562,801.025634765625
1357,784.5054931640625,791.7582397460938,794.981689453125,791.3552856445312
1358,794.1758422851562,792.5640869140625,794.981689453125,788.5347900390625
1359,799.010986328125,794.981689453125,801.025634765625,790.5494384765625
1360,794.981689453125,795.3846435546875,796.996337890625,788.937744140625
1361,794.5787353515625,796.1904907226562,790.952392578125,783.2966918945312
1362,797.3992919921875,796.1904907226562,794.1758422851562,782.4908447265625
1363,797.3992919921875,794.5787353515625,796.5933837890625,791.7582397460938
1364,796.1904907226562,795.3846435546875,794.1758422851562,788.937744140625
1365,799.8168334960938,796.5933837890625,793.7728881835938,785.7142944335938
1366,796.996337890625,798.2051391601562,792.5640869140625,784.908447265625
1367,793.3699340820312,798.6080322265625,792.967041015625,778.05859375
1368,794.981689453125,798.2051391601562,794.1758422851562,781.2820434570312
1369,790.1465454101562,794.5787353515625,792.967041015625,784.1025390625
1370,791.3552856445312,792.967041015625,792.1611938476562,783.6996459960938
1371,792.5640869140625,794.5787353515625,792.5640869140625,783.6996459960938
1372,786.923095703125,793.3699340820312,790.5494384765625,779.2673950195312
1373,786.5201416015625,790.1465454101562,790.952392578125,776.8497924804688
1374,792.5640869140625,791.7582397460938,788.5347900390625,782.087890625
1375,796.1904907226562,792.1611938476562,787.3259887695312,780.4761962890625
1376,795.3846435546875,793.3699340820312,787.7289428710938,773.6264038085938
1377,793.3699340820312,790.5494384765625,789.3406372070312,776.8497924804688
1378,788.937744140625,786.923095703125,792.967041015625,782.4908447265625
1379,789.7435913085938,789.3406372070312,795.7875366210938,786.923095703125
1380,796.1904907226562,788.1318969726562,794.5787353515625,785.7142944335938
1381,794.1758422851562,786.923095703125,793.3699340820312,782.087890625
1382,790.1465454101562,789.3406372070312,793.3699340820312,781.2820434570312
1383,788.5347900390625,790.1465454101562,794.1758422851562,780.4761962890625
1384,789.7435913085938,786.5201416015625,797.3992919921875,782.893798828125
1385,792.5640869140625,784.1025390625,797.3992919921875,784.908447265625
1386,794.1758422851562,790.952392578125,798.6080322265625,793.7728881835938
1387,789.3406372070312,794.1758422851562,795.7875366210938,791.7582397460938
1388,787.3259887695312,788.937744140625,795.7875366210938,786.1171875
1389,790.1465454101562,790.5494384765625,796.996337890625,790.952392578125
1390,789.3406372070312,794.981689453125,796.5933837890625,790.952392578125
1391,788.1318969726562,794.5787353515625,796.996337890625,786.1171875
1392,790.1465454101562,797.3992919921875,791.7582397460938,786.923095703125
1393,788.937744140625,794.1758422851562,788.5347900390625,785.3113403320312
1394,787.3259887695312,793.7728881835938,789.3406372070312,779.2673950195312
1395,791.7582397460938,793.7728881835938,792.1611938476562,779.2673950195312
1396,791.3552856445312,789.3406372070312,792.967041015625,780.4761962890625
1397,786.923095703125,790.5494384765625,789.3406372070312,779.6703491210938
1398,785.3113403320312,789.7435913085938,791.3552856445312,781.2820434570312
1399,790.5494384765625,790.952392578125,793.3699340820312,783.2966918945312
1400,798.6080322265625,793.3699340820312,792.1611938476562,783.6996459960938
1401,797.3992919921875,792.1611938476562,793.7728881835938,789.3406372070312
1402,794.981689453125,798.2051391601562,799.4139404296875,790.952392578125
1403,800.2197875976562,800.2197875976562,800.2197875976562,787.7289428710938
1404,807.4725341796875,796.5933837890625,796.1904907226562,794.1758422851562
1405,804.6520385742188,792.5640869140625,793.3699340820312,796.5933837890625
1406,800.2197875976562,790.5494384765625,792.1611938476562,791.7582397460938
1407,797.8021850585938,792.967041015625,792.5640869140625,792.967041015625
1408,794.5787353515625,792.1611938476562,790.1465454101562,792.5640869140625
1409,791.7582397460938,789.3406372070312,792.5640869140625,793.3699340820312
1410,790.5494384765625,786.923095703125,796.1904907226562,794.1758422851562
1411,793.7728881835938,787.3259887695312,796.1904907226562,792.5640869140625
1412,791.7582397460938,788.1318969726562,795.7875366210938,790.952392578125
1413,786.5201416015625,791.7582397460938,796.5933837890625,791.3552856445312
1414,792.1611938476562,797.8021850585938,796.5933837890625,793.7728881835938
1415,794.981689453125,793.7728881835938,794.981689453125,792.967041015625
1416,794.5787353515625,789.3406372070312,793.7728881835938,790.5494384765625
1417,792.1611938476562,786.1171875,795.3846435546875,790.952392578125
1418,786.5201416015625,784.908447265625,795.3846435546875,790.952392578125
1419,791.3552856445312,795.3846435546875,796.1904907226562,790.1465454101562
1420,800.6226806640625,801.025634765625,794.981689453125,796.1904907226562
1421,804.2490844726562,799.8168334960938,793.7728881835938,801.8314819335938
1422,799.010986328125,795.3846435546875,793.7728881835938,792.1611938476562
1423,796.996337890625,792.967041015625,791.3552856445312,788.1318969726562
1424,796.1904907226562,795.3846435546875,790.5494384765625,797.8021850585938
1425,797.8021850585938,792.1611938476562,790.952392578125,798.2051391601562
1426,805.054931640625,786.5201416015625,789.3406372070312,792.5640869140625
1427,803.040283203125,791.3552856445312,784.908447265625,790.952392578125
1428,798.6080322265625,792.5640869140625,788.1318969726562,786.923095703125
1429,799.010986328125,792.967041015625,792.1611938476562,782.893798828125
1430,801.4285888671875,794.981689453125,790.5494384765625,784.908447265625
1431,803.040283203125,794.1758422851562,791.3552856445312,792.1611938476562
1432,801.025634765625,795.7875366210938,793.7728881835938,794.1758422851562
1433,801.8314819335938,797.8021850585938,795.7875366210938,799.010986328125
1434,795.3846435546875,794.981689453125,796.5933837890625,799.8168334960938
1435,791.7582397460938,789.3406372070312,795.7875366210938,794.981689453125
1436,798.2051391601562,788.937744140625,796.996337890625,794.981689453125
1437,798.6080322265625,788.1318969726562,797.8021850585938,792.1611938476562
1438,789.3406372070312,786.5201416015625,794.5787353515625,783.6996459960938
1439,784.5054931640625,787.7289428710938,792.967041015625,785.7142944335938
1440,793.3699340820312,789.3406372070312,794.1758422851562,794.5787353515625
1441,796.1904907226562,786.1171875,791.7582397460938,794.5787353515625
1442,791.3552856445312,782.087890625,791.7582397460938,794.1758422851562
1443,793.7728881835938,782.087890625,792.1611938476562,794.5787353515625
1444,792.1611938476562,783.2966918945312,792.5640869140625,792.5640869140625
1445,790.952392578125,782.4908447265625,792.5640869140625,795.3846435546875
1446,799.4139404296875,785.3113403320312,788.5347900390625,791.3552856445312
1447,805.054931640625,792.5640869140625,790.5494384765625,793.3699340820312
1448,801.025634765625,791.7582397460938,792.1611938476562,799.8168334960938
1449,799.010986328125,792.5640869140625,789.7435913085938,793.3699340820312
1450,799.8168334960938,793.3699340820312,793.7728881835938,789.3406372070312
1451,802.6373901367188,790.952392578125,794.5787353515625,791.7582397460938
1452,801.4285888671875,790.1465454101562,795.3846435546875,791.7582397460938
1453,795.7875366210938,793.3699340820312,796.5933837890625,792.5640869140625
1454,795.3846435546875,796.1904907226562,797.8021850585938,791.3552856445312
1455,798.6080322265625,796.1904907226562,799.010986328125,788.1318969726562
1456,793.7728881835938,793.7728881835938,795.7875366210938,784.5054931640625
1457,790.5494384765625,788.1318969726562,796.5933837890625,781.2820434570312
1458,787.7289428710938,788.937744140625,799.010986328125,784.1025390625
1459,785.3113403320312,790.952392578125,799.4139404296875,792.1611938476562
1460,787.3259887695312,792.1611938476562,799.4139404296875,788.937744140625
1461,791.3552856445312,791.3552856445312,795.7875366210938,782.4908447265625
1462,789.7435913085938,786.923095703125,794.981689453125,786.923095703125
1463,787.3259887695312,785.7142944335938,798.6080322265625,790.952392578125
1464,789.7435913085938,789.3406372070312,798.2051391601562,794.1758422851562
1465,788.5347900390625,791.7582397460938,796.996337890625,796.5933837890625
1466,791.3552856445312,794.5787353515625,800.2197875976562,799.8168334960938
1467,796.1904907226562,794.1758422851562,797.8021850585938,798.6080322265625
1468,799.010986328125,794.981689453125,796.5933837890625,794.1758422851562
1469,797.8021850585938,791.7582397460938,798.2051391601562,790.5494384765625
1470,795.7875366210938,788.5347900390625,794.981689453125,792.5640869140625
1471,799.010986328125,791.3552856445312,795.3846435546875,799.010986328125
1472,800.6226806640625,792.5640869140625,799.4139404296875,796.5933837890625
1473,797.8021850585938,792.1611938476562,793.3699340820312,793.3699340820312
1474,798.6080322265625,788.937744140625,790.952392578125,794.1758422851562
1475,792.1611938476562,786.1171875,793.7728881835938,790.952392578125
1476,789.3406372070312,786.923095703125,794.5787353515625,786.1171875
1477,793.7728881835938,787.7289428710938,797.3992919921875,785.7142944335938
1478,799.010986328125,788.937744140625,800.2197875976562,792.1611938476562
1479,792.1611938476562,784.908447265625,797.8021850585938,780.4761962890625
1480,784.908447265625,786.1171875,799.010986328125,772.0146484375
1481,786.1171875,786.1171875,797.8021850585938,778.05859375
1482,786.923095703125,782.4908447265625,795.3846435546875,786.5201416015625
1483,781.6849975585938,783.2966918945312,794.1758422851562,779.6703491210938
1484,776.8497924804688,783.6996459960938,788.5347900390625,773.2234497070312
1485,779.6703491210938,785.3113403320312,790.952392578125,775.6410522460938
1486,776.8497924804688,785.7142944335938,790.952392578125,772.8204956054688
1487,778.4615478515625,785.7142944335938,787.7289428710938,776.8497924804688
1488,787.7289428710938,787.7289428710938,786.1171875,782.4908447265625
1489,787.3259887695312,787.3259887695312,783.2966918945312,776.0439453125
1490,786.923095703125,787.3259887695312,788.5347900390625,770.4029541015625
1491,786.5201416015625,790.5494384765625,791.3552856445312,770.0
1492,787.7289428710938,789.3406372070312,788.1318969726562,764.3589477539062
1493,793.7728881835938,788.5347900390625,790.1465454101562,770.0
1494,794.1758422851562,793.3699340820312,796.996337890625,784.5054931640625
1495,796.1904907226562,796.5933837890625,797.3992919921875,783.6996459960938
1496,799.4139404296875,795.3846435546875,796.996337890625,782.893798828125
1497,793.7728881835938,793.7728881835938,795.3846435546875,788.5347900390625
1498,797.3992919921875,798.2051391601562,796.5933837890625,791.3552856445312
1499,800.2197875976562,797.3992919921875,796.996337890625,790.5494384765625
1500,787.7289428710938,790.1465454101562,794.981689453125,781.6849975585938
1501,789.3406372070312,790.952392578125,795.7875366210938,780.0732421875
1502,794.5787353515625,794.981689453125,796.1904907226562,780.4761962890625
1503,787.3259887695312,792.5640869140625,792.1611938476562,778.8644409179688
1504,783.6996459960938,790.952392578125,788.937744140625,780.879150390625
1505,784.908447265625,790.952392578125,788.1318969726562,782.4908447265625
1506,782.087890625,793.3699340820312,790.1465454101562,785.3113403320312
1507,783.2966918945312,790.952392578125,789.7435913085938,785.7142944335938
1508,791.3552856445312,788.937744140625,788.1318969726562,786.1171875
1509,792.967041015625,792.967041015625,789.7435913085938,790.1465454101562
1510,789.7435913085938,796.5933837890625,792.1611938476562,783.2966918945312
1511,791.7582397460938,793.7728881835938,790.952392578125,783.6996459960938
1512,791.3552856445312,792.1611938476562,789.7435913085938,788.5347900390625
1513,789.7435913085938,793.3699340820312,791.7582397460938,784.908447265625
1514,793.3699340820312,794.5787353515625,788.937744140625,789.7435913085938
1515,790.5494384765625,795.7875366210938,789.3406372070312,790.1465454101562
1516,791.7582397460938,797.8021850585938,793.7728881835938,788.5347900390625
1517,799.4139404296875,796.1904907226562,796.1904907226562,789.3406372070312
1518,801.025634765625,791.3552856445312,797.3992919921875,791.3552856445312
1519,794.981689453125,793.3699340820312,796.996337890625,795.3846435546875
1520,794.1758422851562,797.3992919921875,796.996337890625,799.010986328125
1521,791.7582397460938,796.1904907226562,794.5787353515625,797.3992919921875
1522,791.7582397460938,798.6080322265625,791.3552856445312,791.3552856445312
1523,797.3992919921875,800.2197875976562,789.7435913085938,791.7582397460938
1524,796.5933837890625,796.996337890625,794.981689453125,793.3699340820312
1525,788.5347900390625,792.5640869140625,797.8021850585938,786.5201416015625
1526,780.879150390625,791.7582397460938,793.7728881835938,780.0732421875
1527,782.4908447265625,790.1465454101562,793.7728881835938,782.893798828125
1528,790.5494384765625,791.7582397460938,798.2051391601562,790.952392578125
1529,788.5347900390625,792.1611938476562,796.996337890625,794.5787353515625
1530,788.1318969726562,792.5640869140625,797.3992919921875,785.7142944335938
1531,790.5494384765625,796.5933837890625,795.3846435546875,781.6849975585938
1532,790.5494384765625,796.5933837890625,793.3699340820312,783.6996459960938
1533,791.7582397460938,794.1758422851562,797.3992919921875,778.8644409179688
1534,787.7289428710938,792.5640869140625,797.8021850585938,777.2527465820312
1535,790.952392578125,786.5201416015625,796.996337890625,789.7435913085938
1536,795.7875366210938,783.6996459960938,801.025634765625,796.5933837890625
1537,784.5054931640625,787.7289428710938,800.2197875976562,779.6703491210938
1538,777.2527465820312,793.3699340820312,794.5787353515625,772.8204956054688
1539,790.5494384765625,795.3846435546875,790.952392578125,781.6849975585938
1540,794.981689453125,793.7728881835938,795.7875366210938,779.6703491210938
1541,790.5494384765625,794.5787353515625,799.8168334960938,775.6410522460938
1542,779.2673950195312,793.3699340820312,795.7875366210938,768.7911987304688
1543,781.6849975585938,792.1611938476562,791.7582397460938,774.4322509765625
1544,788.1318969726562,790.952392578125,793.7728881835938,786.1171875
1545,781.6849975585938,789.7435913085938,791.3552856445312,783.6996459960938
1546,778.05859375,791.7582397460938,787.3259887695312,783.2966918945312
1547,776.8497924804688,792.1611938476562,788.5347900390625,781.6849975585938
1548,780.879150390625,788.937744140625,792.1611938476562,782.087890625
1549,789.7435913085938,790.1465454101562,794.981689453125,782.893798828125
1550,786.5201416015625,791.3552856445312,794.1758422851562,785.7142944335938
1551,782.087890625,790.5494384765625,795.3846435546875,786.923095703125
1552,786.1171875,790.952392578125,798.2051391601562,787.3259887695312
1553,790.1465454101562,789.7435913085938,794.1758422851562,790.5494384765625
1554,788.1318969726562,790.1465454101562,791.7582397460938,788.1318969726562
1555,789.3406372070312,791.3552856445312,791.3552856445312,788.937744140625
1556,793.7728881835938,789.7435913085938,790.1465454101562,784.1025390625
1557,794.5787353515625,788.937744140625,789.3406372070312,775.2380981445312
1558,795.3846435546875,790.5494384765625,788.937744140625,781.6849975585938
1559,793.7728881835938,793.3699340820312,789.3406372070312,784.908447265625
1560,790.1465454101562,789.7435913085938,790.952392578125,775.6410522460938
1561,787.7289428710938,782.087890625,789.7435913085938,769.1941528320312
1562,784.1025390625,782.087890625,789.3406372070312,770.4029541015625
1563,786.5201416015625,784.5054931640625,791.3552856445312,778.05859375
1564,788.937744140625,785.7142944335938,791.7582397460938,781.6849975585938
1565,788.937744140625,787.7289428710938,792.5640869140625,778.4615478515625
1566,785.3113403320312,789.3406372070312,795.3846435546875,783.6996459960938
1567,782.893798828125,786.5201416015625,797.3992919921875,791.7582397460938
1568,784.5054931640625,785.3113403320312,794.1758422851562,781.6849975585938
1569,785.3113403320312,785.7142944335938,794.1758422851562,778.05859375
1570,784.5054931640625,787.7289428710938,796.996337890625,781.2820434570312
1571,789.7435913085938,790.952392578125,794.5787353515625,779.6703491210938
1572,791.7582397460938,790.1465454101562,789.3406372070312,776.8497924804688
1573,782.893798828125,785.3113403320312,785.3113403320312,774.029296875
1574,783.2966918945312,788.1318969726562,786.923095703125,777.2527465820312
1575,786.5201416015625,791.3552856445312,791.3552856445312,782.4908447265625
1576,786.923095703125,788.5347900390625,792.1611938476562,783.6996459960938
1577,784.1025390625,787.3259887695312,790.1465454101562,781.2820434570312
1578,782.893798828125,783.6996459960938,786.923095703125,781.2820434570312
1579,784.1025390625,779.2673950195312,786.1171875,780.0732421875
1580,784.1025390625,781.6849975585938,785.3113403320312,777.2527465820312
1581,790.952392578125,788.1318969726562,788.937744140625,785.3113403320312
1582,788.5347900390625,786.923095703125,791.3552856445312,778.8644409179688
1583,789.7435913085938,784.908447265625,791.3552856445312,775.2380981445312
1584,793.7728881835938,787.3259887695312,794.1758422851562,780.879150390625
1585,799.010986328125,790.952392578125,796.1904907226562,784.908447265625
