timestamp,RAW_TP9,RAW_AF7,RAW_AF8,RAW_TP10
1,810.6959838867188,796.1904907226562,791.7582397460938,801.025634765625
2,807.87548828125,799.4139404296875,790.1465454101562,797.8021850585938
3,803.4432373046875,799.4139404296875,790.952392578125,788.5347900390625
4,798.6080322265625,795.7875366210938,788.1318969726562,788.1318969726562
5,798.2051391601562,792.1611938476562,785.3113403320312,789.3406372070312
6,788.937744140625,794.5787353515625,784.908447265625,786.5201416015625
7,780.4761962890625,796.1904907226562,790.1465454101562,788.1318969726562
8,784.908447265625,796.996337890625,792.967041015625,789.7435913085938
9,782.087890625,793.3699340820312,789.7435913085938,788.1318969726562
10,777.6557006835938,790.5494384765625,790.1465454101562,785.3113403320312
11,779.2673950195312,786.923095703125,789.7435913085938,785.7142944335938
12,781.2820434570312,788.1318969726562,790.5494384765625,787.7289428710938
13,787.3259887695312,792.967041015625,794.1758422851562,788.937744140625
14,787.3259887695312,786.923095703125,794.5787353515625,785.7142944335938
15,784.908447265625,784.5054931640625,797.8021850585938,783.6996459960938
16,788.937744140625,787.3259887695312,797.3992919921875,791.3552856445312
17,789.7435913085938,791.3552856445312,799.010986328125,795.3846435546875
18,795.7875366210938,795.3846435546875,799.8168334960938,788.5347900390625
19,791.3552856445312,794.1758422851562,795.3846435546875,785.7142944335938
20,795.7875366210938,796.1904907226562,794.5787353515625,801.4285888671875
21,803.8461303710938,796.5933837890625,800.2197875976562,799.8168334960938
22,789.3406372070312,792.967041015625,800.2197875976562,776.0439453125
23,788.1318969726562,794.1758422851562,800.6226806640625,779.2673950195312
24,790.5494384765625,797.3992919921875,801.025634765625,784.5054931640625
25,792.5640869140625,795.7875366210938,799.010986328125,784.1025390625
26,800.6226806640625,792.967041015625,802.6373901367188,794.5787353515625
27,804.6520385742188,793.3699340820312,801.4285888671875,797.3992919921875
28,790.952392578125,792.5640869140625,797.8021850585938,782.087890625
29,778.8644409179688,790.952392578125,797.8021850585938,772.0146484375
30,778.4615478515625,790.1465454101562,796.1904907226562,773.6264038085938
31,773.6264038085938,789.3406372070312,791.3552856445312,781.6849975585938
32,765.1648559570312,786.1171875,789.3406372070312,783.6996459960938
33,767.9853515625,786.5201416015625,793.7728881835938,783.2966918945312
34,772.4176025390625,786.1171875,794.5787353515625,787.7289428710938
35,772.8204956054688,788.1318969726562,793.3699340820312,786.923095703125
36,776.8497924804688,792.5640869140625,791.3552856445312,785.3113403320312
37,777.6557006835938,790.1465454101562,792.1611938476562,785.3113403320312
38,784.5054931640625,794.5787353515625,795.3846435546875,789.7435913085938
39,796.996337890625,801.8314819335938,792.967041015625,790.5494384765625
40,798.2051391601562,800.2197875976562,794.1758422851562,790.5494384765625
41,795.3846435546875,792.967041015625,796.1904907226562,788.5347900390625
42,794.1758422851562,788.937744140625,791.7582397460938,786.1171875
43,793.3699340820312,786.923095703125,788.5347900390625,790.1465454101562
44,799.010986328125,790.1465454101562,786.923095703125,789.3406372070312
45,801.4285888671875,792.5640869140625,784.1025390625,786.923095703125
46,801.4285888671875,792.5640869140625,780.879150390625,790.5494384765625
47,805.8607788085938,796.1904907226562,782.087890625,794.1758422851562
48,811.5018310546875,803.8461303710938,786.923095703125,794.981689453125
49,809.084228515625,803.040283203125,788.5347900390625,789.7435913085938
50,800.2197875976562,796.5933837890625,785.7142944335938,786.1171875
51,796.1904907226562,796.5933837890625,784.5054931640625,786.923095703125
52,790.1465454101562,795.3846435546875,784.908447265625,778.8644409179688
53,791.7582397460938,794.1758422851562,786.923095703125,780.4761962890625
54,794.5787353515625,795.3846435546875,789.3406372070312,782.893798828125
55,794.1758422851562,794.981689453125,791.7582397460938,776.0439453125
56,788.937744140625,790.952392578125,792.1611938476562,775.2380981445312
57,785.3113403320312,792.5640869140625,793.7728881835938,780.879150390625
58,785.7142944335938,796.1904907226562,793.3699340820312,789.7435913085938
59,784.5054931640625,795.3846435546875,798.2051391601562,789.3406372070312
60,787.7289428710938,801.025634765625,802.6373901367188,786.1171875
61,788.5347900390625,799.4139404296875,799.4139404296875,785.3113403320312
62,778.05859375,792.1611938476562,796.996337890625,781.6849975585938
63,767.9853515625,793.7728881835938,795.3846435546875,781.2820434570312
64,772.0146484375,793.3699340820312,793.3699340820312,780.0732421875
65,778.8644409179688,789.7435913085938,790.1465454101562,780.4761962890625
66,778.4615478515625,791.3552856445312,788.937744140625,783.6996459960938
67,779.6703491210938,794.981689453125,790.952392578125,782.893798828125
68,788.5347900390625,794.1758422851562,791.7582397460938,785.7142944335938
69,788.1318969726562,792.1611938476562,791.3552856445312,790.952392578125
70,788.5347900390625,793.7728881835938,789.7435913085938,793.7728881835938
71,788.1318969726562,796.5933837890625,792.5640869140625,789.3406372070312
72,787.7289428710938,795.7875366210938,791.7582397460938,788.1318969726562
73,788.5347900390625,797.8021850585938,786.923095703125,792.967041015625
74,792.967041015625,800.6226806640625,787.7289428710938,794.5787353515625
75,801.4285888671875,801.025634765625,788.937744140625,798.2051391601562
76,796.5933837890625,794.1758422851562,787.7289428710938,798.2051391601562
77,790.952392578125,790.1465454101562,785.7142944335938,797.3992919921875
78,791.7582397460938,791.7582397460938,786.923095703125,797.3992919921875
79,792.1611938476562,793.3699340820312,786.923095703125,796.996337890625
80,789.3406372070312,793.7728881835938,786.923095703125,797.8021850585938
81,788.1318969726562,789.7435913085938,788.1318969726562,800.6226806640625
82,788.1318969726562,791.3552856445312,786.923095703125,801.025634765625
83,789.7435913085938,792.5640869140625,783.6996459960938,790.1465454101562
84,786.5201416015625,788.5347900390625,783.2966918945312,786.5201416015625
85,786.5201416015625,785.3113403320312,787.7289428710938,795.7875366210938
86,787.7289428710938,785.3113403320312,787.3259887695312,792.5640869140625
87,784.5054931640625,787.7289428710938,789.3406372070312,782.087890625
88,778.4615478515625,785.3113403320312,794.1758422851562,778.8644409179688
89,776.8497924804688,785.7142944335938,794.1758422851562,780.0732421875
90,776.8497924804688,784.1025390625,794.5787353515625,781.6849975585938
91,774.029296875,778.8644409179688,794.981689453125,778.05859375
92,776.8497924804688,780.0732421875,796.5933837890625,774.4322509765625
93,782.4908447265625,784.908447265625,798.2051391601562,782.893798828125
94,780.4761962890625,784.908447265625,799.8168334960938,778.05859375
95,785.3113403320312,786.1171875,796.5933837890625,769.1941528320312
96,790.952392578125,786.5201416015625,792.1611938476562,776.8497924804688
97,781.6849975585938,788.5347900390625,790.952392578125,777.6557006835938
98,778.8644409179688,792.5640869140625,794.5787353515625,775.2380981445312
99,779.6703491210938,796.5933837890625,793.7728881835938,780.879150390625
100,782.4908447265625,794.5787353515625,792.1611938476562,783.2966918945312
101,782.893798828125,793.3699340820312,789.3406372070312,778.05859375
102,781.2820434570312,796.5933837890625,787.3259887695312,779.2673950195312
103,780.879150390625,795.7875366210938,785.7142944335938,780.0732421875
104,783.6996459960938,794.981689453125,788.937744140625,788.5347900390625
105,792.5640869140625,799.4139404296875,794.1758422851562,795.7875366210938
106,801.025634765625,805.4578857421875,793.3699340820312,792.967041015625
107,804.6520385742188,810.6959838867188,792.967041015625,793.3699340820312
108,805.4578857421875,813.113525390625,790.1465454101562,799.8168334960938
109,804.2490844726562,807.4725341796875,789.7435913085938,799.4139404296875
110,801.8314819335938,801.8314819335938,785.7142944335938,788.937744140625
111,809.4871826171875,799.8168334960938,786.923095703125,794.981689453125
112,813.5164794921875,803.4432373046875,794.981689453125,801.025634765625
113,806.2637329101562,808.2783813476562,794.1758422851562,801.8314819335938
114,795.3846435546875,806.2637329101562,788.5347900390625,799.010986328125
115,792.5640869140625,798.6080322265625,789.3406372070312,791.7582397460938
116,799.4139404296875,797.3992919921875,790.1465454101562,789.7435913085938
117,803.040283203125,801.4285888671875,793.7728881835938,790.952392578125
118,805.4578857421875,798.2051391601562,798.6080322265625,790.952392578125
119,801.8314819335938,792.5640869140625,797.3992919921875,789.3406372070312
120,794.1758422851562,794.1758422851562,801.4285888671875,790.952392578125
121,791.3552856445312,797.3992919921875,805.4578857421875,788.5347900390625
122,791.7582397460938,794.981689453125,803.4432373046875,785.3113403320312
123,780.0732421875,790.5494384765625,803.4432373046875,785.7142944335938
124,771.2088012695312,788.5347900390625,806.2637329101562,784.5054931640625
125,772.0146484375,786.923095703125,804.6520385742188,783.6996459960938
126,774.8351440429688,787.3259887695312,805.4578857421875,786.1171875
127,774.029296875,782.4908447265625,801.025634765625,787.7289428710938
128,768.7911987304688,780.879150390625,800.2197875976562,785.7142944335938
129,776.0439453125,790.952392578125,803.4432373046875,783.2966918945312
130,785.3113403320312,791.3552856445312,802.2344360351562,787.7289428710938
131,788.937744140625,790.952392578125,802.2344360351562,784.908447265625
132,790.1465454101562,790.952392578125,801.025634765625,781.6849975585938
133,784.5054931640625,786.1171875,799.4139404296875,785.3113403320312
134,780.0732421875,786.5201416015625,796.996337890625,786.1171875
135,783.6996459960938,787.7289428710938,794.981689453125,786.923095703125
136,796.996337890625,785.7142944335938,796.1904907226562,790.5494384765625
137,796.5933837890625,786.923095703125,794.981689453125,798.6080322265625
138,796.5933837890625,795.3846435546875,794.5787353515625,806.2637329101562
139,805.4578857421875,799.4139404296875,793.7728881835938,803.4432373046875
140,803.4432373046875,798.6080322265625,788.1318969726562,798.2051391601562
141,804.2490844726562,801.8314819335938,786.5201416015625,795.3846435546875
142,805.8607788085938,801.8314819335938,788.1318969726562,800.2197875976562
143,803.040283203125,796.1904907226562,787.3259887695312,800.6226806640625
144,807.4725341796875,797.8021850585938,786.923095703125,795.3846435546875
145,807.87548828125,803.040283203125,786.1171875,796.996337890625
146,808.2783813476562,805.4578857421875,790.5494384765625,797.3992919921875
147,807.87548828125,807.4725341796875,794.5787353515625,798.6080322265625
148,804.2490844726562,802.6373901367188,794.981689453125,799.010986328125
149,797.3992919921875,798.2051391601562,796.1904907226562,791.7582397460938
150,788.937744140625,796.1904907226562,796.1904907226562,792.5640869140625
151,788.937744140625,798.6080322265625,798.2051391601562,789.3406372070312
152,787.7289428710938,800.2197875976562,801.025634765625,778.4615478515625
153,784.5054931640625,794.981689453125,802.6373901367188,783.6996459960938
154,779.2673950195312,790.952392578125,799.8168334960938,784.5054931640625
155,777.2527465820312,788.937744140625,798.2051391601562,769.5970458984375
156,779.6703491210938,786.5201416015625,798.2051391601562,765.5677490234375
157,784.5054931640625,783.6996459960938,801.8314819335938,775.2380981445312
158,779.6703491210938,782.4908447265625,804.6520385742188,775.2380981445312
159,774.029296875,788.937744140625,801.4285888671875,778.05859375
160,779.6703491210938,795.7875366210938,804.6520385742188,785.7142944335938
161,778.4615478515625,794.5787353515625,803.4432373046875,786.1171875
162,771.2088012695312,791.7582397460938,797.3992919921875,784.5054931640625
163,769.1941528320312,796.1904907226562,800.2197875976562,784.908447265625
164,774.8351440429688,798.6080322265625,803.8461303710938,787.7289428710938
165,782.087890625,795.7875366210938,801.025634765625,791.3552856445312
166,787.3259887695312,793.3699340820312,800.6226806640625,790.5494384765625
167,793.3699340820312,795.7875366210938,802.6373901367188,790.1465454101562
168,794.1758422851562,796.996337890625,800.2197875976562,791.3552856445312
169,790.1465454101562,795.3846435546875,796.996337890625,790.952392578125
170,785.3113403320312,793.3699340820312,792.5640869140625,787.7289428710938
171,791.3552856445312,791.3552856445312,796.5933837890625,785.7142944335938
172,800.6226806640625,791.7582397460938,797.3992919921875,790.1465454101562
173,799.010986328125,792.1611938476562,793.7728881835938,800.2197875976562
174,794.1758422851562,793.3699340820312,794.981689453125,796.996337890625
175,791.3552856445312,797.3992919921875,797.8021850585938,787.7289428710938
176,792.5640869140625,800.2197875976562,802.6373901367188,785.3113403320312
177,794.5787353515625,796.5933837890625,802.6373901367188,788.937744140625
178,796.1904907226562,794.1758422851562,800.6226806640625,788.937744140625
179,795.7875366210938,796.1904907226562,801.4285888671875,782.4908447265625
180,793.7728881835938,796.996337890625,799.4139404296875,779.2673950195312
181,792.1611938476562,793.7728881835938,798.6080322265625,779.2673950195312
182,787.3259887695312,788.1318969726562,801.025634765625,781.6849975585938
183,791.3552856445312,786.1171875,796.5933837890625,782.087890625
184,795.3846435546875,792.5640869140625,797.3992919921875,781.2820434570312
185,785.3113403320312,794.5787353515625,798.6080322265625,784.908447265625
186,782.087890625,792.967041015625,796.996337890625,789.7435913085938
187,788.937744140625,790.1465454101562,802.2344360351562,792.5640869140625
188,786.5201416015625,788.937744140625,799.8168334960938,793.3699340820312
189,784.908447265625,789.3406372070312,798.2051391601562,792.967041015625
190,785.7142944335938,788.1318969726562,794.981689453125,786.1171875
191,784.5054931640625,788.1318969726562,790.5494384765625,779.6703491210938
192,792.1611938476562,792.5640869140625,795.7875366210938,788.1318969726562
193,796.5933837890625,793.3699340820312,796.1904907226562,791.7582397460938
194,791.3552856445312,788.5347900390625,791.7582397460938,783.2966918945312
195,786.923095703125,787.7289428710938,787.7289428710938,775.6410522460938
196,784.1025390625,790.1465454101562,791.3552856445312,773.6264038085938
197,780.879150390625,791.7582397460938,794.1758422851562,778.05859375
198,783.2966918945312,790.5494384765625,794.1758422851562,781.6849975585938
199,790.1465454101562,792.5640869140625,797.3992919921875,782.087890625
200,798.2051391601562,796.5933837890625,798.6080322265625,792.967041015625
201,799.8168334960938,799.010986328125,797.8021850585938,802.2344360351562
202,792.967041015625,799.8168334960938,795.3846435546875,795.3846435546875
203,790.952392578125,798.2051391601562,793.3699340820312,791.3552856445312
204,792.1611938476562,796.996337890625,796.1904907226562,790.5494384765625
205,790.5494384765625,794.5787353515625,795.7875366210938,788.937744140625
206,790.1465454101562,793.3699340820312,793.3699340820312,792.5640869140625
207,790.5494384765625,794.1758422851562,791.7582397460938,796.996337890625
208,791.3552856445312,794.981689453125,793.7728881835938,797.3992919921875
209,793.3699340820312,796.5933837890625,798.2051391601562,800.2197875976562
210,795.7875366210938,798.2051391601562,796.996337890625,796.996337890625
211,796.1904907226562,794.1758422851562,791.3552856445312,789.7435913085938
212,792.5640869140625,788.5347900390625,787.3259887695312,791.3552856445312
213,790.1465454101562,790.5494384765625,786.5201416015625,790.5494384765625
214,794.981689453125,795.3846435546875,787.3259887695312,790.952392578125
215,790.5494384765625,794.5787353515625,789.3406372070312,793.3699340820312
216,791.3552856445312,794.981689453125,794.1758422851562,791.7582397460938
217,792.1611938476562,799.010986328125,796.1904907226562,786.1171875
218,784.5054931640625,797.8021850585938,799.8168334960938,787.3259887695312
219,787.3259887695312,791.7582397460938,801.025634765625,791.7582397460938
220,787.3259887695312,791.3552856445312,794.1758422851562,787.3259887695312
221,784.908447265625,794.5787353515625,794.1758422851562,784.5054931640625
222,783.6996459960938,788.937744140625,792.967041015625,782.893798828125
223,784.5054931640625,787.7289428710938,791.7582397460938,782.893798828125
224,787.7289428710938,789.7435913085938,794.981689453125,789.7435913085938
225,785.3113403320312,784.5054931640625,791.7582397460938,780.4761962890625
226,783.2966918945312,783.6996459960938,789.3406372070312,773.2234497070312
227,779.6703491210938,788.937744140625,796.1904907226562,780.879150390625
228,782.4908447265625,781.2820434570312,799.4139404296875,784.908447265625
229,786.923095703125,776.4468994140625,797.8021850585938,780.879150390625
230,784.5054931640625,790.5494384765625,797.3992919921875,784.908447265625
231,780.879150390625,792.967041015625,794.981689453125,793.3699340820312
232,782.087890625,785.3113403320312,791.7582397460938,790.5494384765625
233,790.5494384765625,782.893798828125,791.3552856445312,786.1171875
234,793.7728881835938,786.923095703125,790.1465454101562,787.3259887695312
235,787.7289428710938,788.5347900390625,788.5347900390625,795.3846435546875
236,777.2527465820312,791.3552856445312,785.3113403320312,790.952392578125
237,781.6849975585938,795.7875366210938,786.5201416015625,781.6849975585938
238,788.937744140625,793.7728881835938,789.3406372070312,785.7142944335938
239,788.1318969726562,795.7875366210938,788.5347900390625,787.7289428710938
240,787.3259887695312,794.5787353515625,787.7289428710938,787.7289428710938
241,784.5054931640625,789.7435913085938,788.1318969726562,785.7142944335938
242,785.3113403320312,789.3406372070312,788.1318969726562,782.893798828125
243,796.996337890625,785.3113403320312,788.5347900390625,782.893798828125
244,801.4285888671875,783.2966918945312,792.5640869140625,781.2820434570312
245,788.5347900390625,785.7142944335938,788.1318969726562,779.2673950195312
246,782.4908447265625,791.7582397460938,788.1318969726562,786.5201416015625
247,790.5494384765625,796.5933837890625,792.5640869140625,791.7582397460938
248,792.5640869140625,797.3992919921875,789.7435913085938,790.5494384765625
249,795.3846435546875,796.1904907226562,793.3699340820312,793.7728881835938
250,796.5933837890625,795.3846435546875,795.3846435546875,802.2344360351562
251,790.1465454101562,798.2051391601562,792.5640869140625,801.8314819335938
252,787.7289428710938,794.5787353515625,791.7582397460938,793.3699340820312
253,792.967041015625,788.5347900390625,795.3846435546875,793.7728881835938
254,800.2197875976562,790.5494384765625,796.996337890625,796.1904907226562
255,798.2051391601562,790.1465454101562,791.7582397460938,796.1904907226562
256,796.996337890625,792.5640869140625,790.1465454101562,799.010986328125
257,792.5640869140625,791.7582397460938,794.981689453125,794.5787353515625
258,792.967041015625,787.7289428710938,790.952392578125,792.967041015625
259,798.2051391601562,790.1465454101562,793.7728881835938,796.1904907226562
260,794.5787353515625,790.1465454101562,796.5933837890625,790.952392578125
261,790.5494384765625,786.5201416015625,793.3699340820312,788.5347900390625
262,785.3113403320312,784.908447265625,793.3699340820312,789.7435913085938
263,781.6849975585938,787.3259887695312,791.7582397460938,788.937744140625
264,782.893798828125,790.1465454101562,793.3699340820312,784.908447265625
265,785.3113403320312,791.3552856445312,796.1904907226562,787.7289428710938
266,786.1171875,792.967041015625,796.5933837890625,789.3406372070312
267,780.879150390625,789.3406372070312,794.981689453125,778.4615478515625
268,781.6849975585938,787.3259887695312,796.1904907226562,777.2527465820312
269,786.923095703125,788.1318969726562,796.1904907226562,782.893798828125
270,786.5201416015625,783.6996459960938,793.3699340820312,785.3113403320312
271,780.4761962890625,783.2966918945312,791.7582397460938,784.1025390625
272,778.4615478515625,782.893798828125,790.1465454101562,782.893798828125
273,783.6996459960938,781.2820434570312,788.1318969726562,785.3113403320312
274,780.4761962890625,780.4761962890625,786.5201416015625,780.4761962890625
275,778.05859375,779.6703491210938,788.5347900390625,779.2673950195312
276,784.1025390625,778.8644409179688,790.5494384765625,781.6849975585938
277,782.4908447265625,781.6849975585938,793.3699340820312,776.0439453125
278,776.8497924804688,787.7289428710938,793.7728881835938,774.029296875
279,775.6410522460938,786.5201416015625,794.5787353515625,777.2527465820312
280,782.893798828125,784.1025390625,798.2051391601562,784.5054931640625
281,789.7435913085938,786.1171875,792.1611938476562,778.8644409179688
282,786.5201416015625,784.908447265625,786.923095703125,776.8497924804688
283,783.2966918945312,785.7142944335938,784.5054931640625,782.893798828125
284,784.5054931640625,785.7142944335938,784.5054931640625,783.2966918945312
285,789.7435913085938,786.923095703125,782.4908447265625,787.3259887695312
286,786.5201416015625,792.967041015625,780.879150390625,786.923095703125
287,783.6996459960938,792.5640869140625,784.908447265625,778.8644409179688
288,785.3113403320312,786.1171875,785.7142944335938,779.6703491210938
289,787.3259887695312,782.893798828125,784.1025390625,784.5054931640625
290,790.1465454101562,786.1171875,784.5054931640625,784.908447265625
291,794.1758422851562,787.7289428710938,787.3259887695312,784.908447265625
292,789.7435913085938,782.893798828125,786.1171875,784.1025390625
293,782.087890625,780.0732421875,787.3259887695312,782.087890625
294,785.3113403320312,782.893798828125,784.1025390625,782.893798828125
295,786.923095703125,787.3259887695312,784.908447265625,786.1171875
296,785.7142944335938,790.1465454101562,793.7728881835938,790.1465454101562
297,783.6996459960938,790.5494384765625,797.8021850585938,788.1318969726562
298,780.0732421875,789.7435913085938,795.7875366210938,778.8644409179688
299,781.2820434570312,789.3406372070312,792.967041015625,777.2527465820312
300,780.4761962890625,792.5640869140625,793.7728881835938,780.0732421875
301,781.6849975585938,793.3699340820312,796.996337890625,783.2966918945312
302,779.6703491210938,787.3259887695312,796.1904907226562,776.4468994140625
303,772.0146484375,788.5347900390625,793.3699340820312,771.2088012695312
304,767.5823974609375,792.5640869140625,794.5787353515625,772.8204956054688
305,767.9853515625,790.1465454101562,796.996337890625,772.4176025390625
306,779.2673950195312,784.5054931640625,797.3992919921875,780.0732421875
307,786.5201416015625,786.1171875,796.5933837890625,784.908447265625
308,785.3113403320312,796.5933837890625,792.1611938476562,777.2527465820312
309,789.3406372070312,802.2344360351562,790.5494384765625,770.8058471679688
310,787.7289428710938,796.1904907226562,790.952392578125,769.5970458984375
311,780.879150390625,788.937744140625,788.5347900390625,774.4322509765625
312,777.2527465820312,790.5494384765625,788.5347900390625,781.6849975585938
313,778.8644409179688,792.967041015625,790.5494384765625,783.6996459960938
314,784.5054931640625,792.967041015625,795.3846435546875,783.6996459960938
315,778.05859375,789.7435913085938,796.1904907226562,788.1318969726562
316,777.2527465820312,788.5347900390625,796.996337890625,799.010986328125
317,780.0732421875,790.952392578125,794.981689453125,799.8168334960938
318,776.8497924804688,793.7728881835938,792.5640869140625,793.7728881835938
319,777.6557006835938,790.5494384765625,791.3552856445312,796.996337890625
320,787.7289428710938,789.3406372070312,790.952392578125,804.6520385742188
321,792.967041015625,795.7875366210938,796.5933837890625,799.8168334960938
322,795.3846435546875,792.1611938476562,794.981689453125,793.7728881835938
323,799.010986328125,790.1465454101562,794.981689453125,798.2051391601562
324,799.4139404296875,796.996337890625,799.4139404296875,799.4139404296875
325,803.8461303710938,795.7875366210938,796.996337890625,804.6520385742188
326,799.8168334960938,793.7728881835938,791.7582397460938,809.4871826171875
327,789.3406372070312,792.967041015625,792.5640869140625,806.2637329101562
328,791.3552856445312,793.7728881835938,792.1611938476562,799.010986328125
329,798.2051391601562,788.1318969726562,788.5347900390625,791.7582397460938
330,800.6226806640625,783.2966918945312,789.3406372070312,794.5787353515625
331,796.1904907226562,786.1171875,796.1904907226562,796.5933837890625
332,791.3552856445312,789.7435913085938,796.996337890625,787.7289428710938
333,790.952392578125,791.3552856445312,792.967041015625,787.3259887695312
334,785.3113403320312,785.3113403320312,788.5347900390625,788.1318969726562
335,783.6996459960938,784.908447265625,790.1465454101562,791.3552856445312
336,784.5054931640625,788.5347900390625,791.7582397460938,794.5787353515625
337,785.7142944335938,787.3259887695312,789.7435913085938,789.3406372070312
338,784.1025390625,786.5201416015625,795.3846435546875,782.4908447265625
339,777.6557006835938,784.908447265625,796.5933837890625,778.8644409179688
340,778.05859375,784.908447265625,790.1465454101562,777.2527465820312
341,776.4468994140625,781.6849975585938,786.923095703125,774.4322509765625
342,776.0439453125,780.879150390625,788.5347900390625,776.8497924804688
343,778.4615478515625,786.1171875,790.952392578125,782.893798828125
344,776.4468994140625,788.1318969726562,794.1758422851562,777.2527465820312
345,778.8644409179688,789.7435913085938,794.1758422851562,776.0439453125
346,784.1025390625,794.5787353515625,794.981689453125,784.5054931640625
347,782.087890625,795.3846435546875,793.7728881835938,779.6703491210938
348,779.6703491210938,789.7435913085938,790.1465454101562,772.4176025390625
349,783.6996459960938,788.5347900390625,792.5640869140625,778.8644409179688
350,786.923095703125,791.7582397460938,796.996337890625,784.908447265625
351,789.3406372070312,796.5933837890625,795.3846435546875,788.5347900390625
352,793.3699340820312,794.981689453125,796.996337890625,785.3113403320312
353,788.937744140625,790.1465454101562,794.981689453125,782.893798828125
354,783.6996459960938,788.937744140625,789.7435913085938,786.923095703125
355,783.6996459960938,786.5201416015625,790.952392578125,784.908447265625
356,785.3113403320312,790.952392578125,792.1611938476562,784.5054931640625
357,782.087890625,794.981689453125,788.937744140625,786.1171875
358,783.2966918945312,793.3699340820312,788.1318969726562,790.952392578125
359,783.6996459960938,792.967041015625,788.1318969726562,786.5201416015625
360,788.937744140625,793.3699340820312,788.5347900390625,786.1171875
361,796.1904907226562,795.3846435546875,792.1611938476562,796.996337890625
362,797.8021850585938,793.7728881835938,792.5640869140625,799.010986328125
363,790.952392578125,789.3406372070312,793.7728881835938,792.1611938476562
364,784.5054931640625,789.3406372070312,792.1611938476562,788.1318969726562
365,786.5201416015625,788.5347900390625,788.5347900390625,786.5201416015625
366,789.7435913085938,788.1318969726562,790.1465454101562,783.2966918945312
367,792.967041015625,792.967041015625,793.7728881835938,785.7142944335938
368,795.3846435546875,794.1758422851562,792.967041015625,788.5347900390625
369,792.5640869140625,789.7435913085938,790.952392578125,796.1904907226562
370,786.5201416015625,790.1465454101562,791.3552856445312,796.996337890625
371,799.010986328125,795.3846435546875,790.952392578125,786.5201416015625
372,807.069580078125,797.3992919921875,790.952392578125,788.5347900390625
373,791.3552856445312,790.952392578125,791.3552856445312,794.1758422851562
374,776.8497924804688,784.908447265625,788.937744140625,789.7435913085938
375,775.6410522460938,782.4908447265625,790.1465454101562,792.967041015625
376,775.6410522460938,788.1318969726562,788.1318969726562,796.996337890625
377,780.879150390625,787.3259887695312,784.908447265625,795.7875366210938
378,788.1318969726562,782.4908447265625,789.3406372070312,789.7435913085938
379,786.923095703125,786.1171875,788.5347900390625,788.937744140625
380,784.5054931640625,781.6849975585938,787.3259887695312,793.3699340820312
381,788.937744140625,781.6849975585938,791.7582397460938,795.7875366210938
382,791.3552856445312,788.1318969726562,794.981689453125,792.967041015625
383,790.952392578125,787.3259887695312,790.5494384765625,785.7142944335938
384,788.937744140625,784.1025390625,789.7435913085938,784.5054931640625
385,778.4615478515625,782.893798828125,789.7435913085938,782.893798828125
386,782.4908447265625,784.5054931640625,792.967041015625,782.087890625
387,790.1465454101562,788.1318969726562,796.996337890625,784.1025390625
388,786.1171875,788.937744140625,790.952392578125,778.8644409179688
389,786.5201416015625,788.937744140625,787.7289428710938,779.2673950195312
390,786.923095703125,789.3406372070312,788.937744140625,781.6849975585938
391,788.937744140625,786.1171875,786.1171875,779.6703491210938
392,791.3552856445312,783.6996459960938,782.893798828125,782.087890625
393,788.1318969726562,785.7142944335938,783.6996459960938,784.908447265625
394,780.4761962890625,788.937744140625,783.6996459960938,778.8644409179688
395,781.2820434570312,788.937744140625,784.5054931640625,779.6703491210938
396,788.937744140625,788.5347900390625,792.1611938476562,788.5347900390625
397,790.952392578125,792.967041015625,792.967041015625,792.5640869140625
398,792.5640869140625,790.952392578125,786.1171875,793.3699340820312
399,796.5933837890625,788.5347900390625,786.5201416015625,796.1904907226562
400,796.1904907226562,792.1611938476562,793.3699340820312,799.010986328125
401,795.3846435546875,790.952392578125,794.981689453125,798.6080322265625
402,789.3406372070312,790.1465454101562,790.1465454101562,793.3699340820312
403,790.952392578125,791.3552856445312,792.967041015625,789.3406372070312
404,795.7875366210938,788.937744140625,796.1904907226562,793.7728881835938
405,790.5494384765625,786.923095703125,789.7435913085938,790.5494384765625
406,793.7728881835938,785.7142944335938,786.5201416015625,788.937744140625
407,799.4139404296875,782.4908447265625,785.3113403320312,791.7582397460938
408,797.8021850585938,786.1171875,786.923095703125,787.7289428710938
409,794.1758422851562,790.1465454101562,789.3406372070312,788.1318969726562
410,794.5787353515625,785.7142944335938,790.1465454101562,786.5201416015625
411,794.5787353515625,787.7289428710938,788.5347900390625,780.879150390625
412,789.3406372070312,789.3406372070312,792.967041015625,786.923095703125
413,790.5494384765625,786.923095703125,796.1904907226562,791.3552856445312
414,790.5494384765625,788.1318969726562,790.1465454101562,790.1465454101562
415,787.7289428710938,789.3406372070312,786.923095703125,792.1611938476562
416,783.2966918945312,790.1465454101562,790.5494384765625,790.5494384765625
417,781.6849975585938,789.3406372070312,793.3699340820312,783.6996459960938
418,786.1171875,789.3406372070312,798.2051391601562,788.937744140625
419,786.1171875,792.1611938476562,796.1904907226562,789.7435913085938
420,786.923095703125,796.996337890625,794.1758422851562,789.3406372070312
421,789.3406372070312,792.967041015625,792.5640869140625,794.981689453125
422,790.952392578125,788.5347900390625,792.5640869140625,795.3846435546875
423,798.2051391601562,794.5787353515625,796.996337890625,796.1904907226562
424,802.2344360351562,799.010986328125,798.6080322265625,796.1904907226562
425,796.1904907226562,796.996337890625,792.1611938476562,791.3552856445312
426,795.3846435546875,794.1758422851562,789.7435913085938,792.1611938476562
427,804.6520385742188,792.5640869140625,795.3846435546875,800.6226806640625
428,801.4285888671875,789.7435913085938,797.8021850585938,797.8021850585938
429,796.5933837890625,791.3552856445312,796.996337890625,799.010986328125
430,795.7875366210938,788.5347900390625,796.1904907226562,798.2051391601562
431,789.3406372070312,788.937744140625,793.7728881835938,791.3552856445312
432,794.981689453125,795.3846435546875,794.1758422851562,792.5640869140625
433,796.1904907226562,792.967041015625,794.5787353515625,794.5787353515625
434,790.952392578125,788.937744140625,786.923095703125,797.3992919921875
435,797.3992919921875,792.1611938476562,786.1171875,796.1904907226562
436,794.5787353515625,795.3846435546875,789.3406372070312,790.5494384765625
437,787.3259887695312,798.2051391601562,790.952392578125,787.7289428710938
438,790.1465454101562,801.025634765625,790.1465454101562,786.5201416015625
439,792.1611938476562,801.8314819335938,787.3259887695312,779.6703491210938
440,786.923095703125,798.6080322265625,784.5054931640625,781.6849975585938
441,780.0732421875,796.5933837890625,787.7289428710938,788.1318969726562
442,777.6557006835938,793.3699340820312,789.7435913085938,790.1465454101562
443,782.087890625,790.952392578125,791.3552856445312,789.7435913085938
444,788.1318969726562,786.1171875,794.981689453125,788.937744140625
445,790.1465454101562,782.087890625,794.5787353515625,796.996337890625
446,790.5494384765625,783.6996459960938,791.7582397460938,794.5787353515625
447,797.8021850585938,784.908447265625,796.996337890625,795.7875366210938
448,801.4285888671875,790.952392578125,799.010986328125,802.6373901367188
449,803.040283203125,794.5787353515625,798.2051391601562,805.8607788085938
450,805.4578857421875,790.5494384765625,801.8314819335938,806.6666870117188
451,801.8314819335938,788.1318969726562,799.010986328125,799.010986328125
452,807.069580078125,791.3552856445312,800.6226806640625,800.6226806640625
453,806.2637329101562,788.937744140625,799.4139404296875,803.8461303710938
454,796.5933837890625,783.6996459960938,794.1758422851562,798.2051391601562
455,792.5640869140625,786.923095703125,794.5787353515625,788.5347900390625
456,791.3552856445312,789.3406372070312,793.7728881835938,785.3113403320312
457,788.5347900390625,784.1025390625,792.967041015625,788.937744140625
458,791.3552856445312,783.6996459960938,797.8021850585938,794.981689453125
459,800.2197875976562,787.3259887695312,794.1758422851562,794.1758422851562
460,794.981689453125,790.1465454101562,788.5347900390625,786.1171875
461,787.7289428710938,792.5640869140625,790.5494384765625,784.5054931640625
462,789.3406372070312,797.8021850585938,793.7728881835938,786.1171875
463,785.7142944335938,800.2197875976562,794.1758422851562,783.6996459960938
464,783.2966918945312,801.025634765625,794.1758422851562,788.5347900390625
465,787.3259887695312,799.4139404296875,793.7728881835938,794.5787353515625
466,785.7142944335938,797.3992919921875,790.5494384765625,791.7582397460938
467,780.879150390625,794.5787353515625,792.1611938476562,790.1465454101562
468,786.1171875,792.5640869140625,792.967041015625,794.1758422851562
469,786.5201416015625,795.7875366210938,793.7728881835938,792.967041015625
470,780.4761962890625,798.2051391601562,793.3699340820312,787.7289428710938
471,782.087890625,802.2344360351562,790.952392578125,786.5201416015625
472,789.7435913085938,801.025634765625,793.3699340820312,784.908447265625
473,795.3846435546875,798.6080322265625,797.3992919921875,793.7728881835938
474,799.4139404296875,799.4139404296875,798.2051391601562,797.8021850585938
475,803.040283203125,802.2344360351562,796.996337890625,796.1904907226562
476,795.7875366210938,807.4725341796875,801.4285888671875,796.996337890625
477,787.7289428710938,807.4725341796875,804.6520385742188,794.5787353515625
478,792.1611938476562,805.4578857421875,805.8607788085938,797.3992919921875
479,791.3552856445312,803.8461303710938,803.8461303710938,795.3846435546875
480,790.5494384765625,795.7875366210938,799.8168334960938,797.8021850585938
481,792.1611938476562,793.7728881835938,799.8168334960938,798.2051391601562
482,791.7582397460938,796.996337890625,792.5640869140625,796.1904907226562
483,794.1758422851562,794.1758422851562,790.1465454101562,799.010986328125
484,798.6080322265625,795.7875366210938,792.1611938476562,803.040283203125
485,796.5933837890625,795.3846435546875,790.5494384765625,805.054931640625
486,794.981689453125,790.5494384765625,792.967041015625,797.8021850585938
487,797.8021850585938,796.1904907226562,794.981689453125,793.7728881835938
488,796.996337890625,802.2344360351562,795.3846435546875,799.010986328125
489,796.996337890625,796.996337890625,794.5787353515625,799.010986328125
490,798.2051391601562,793.3699340820312,788.5347900390625,793.3699340820312
491,798.2051391601562,790.5494384765625,792.1611938476562,794.1758422851562
492,805.4578857421875,792.5640869140625,801.025634765625,801.025634765625
493,805.8607788085938,792.967041015625,798.6080322265625,808.6813354492188
494,789.7435913085938,787.7289428710938,790.5494384765625,800.2197875976562
495,783.6996459960938,787.7289428710938,785.7142944335938,791.3552856445312
496,786.5201416015625,787.3259887695312,788.1318969726562,788.937744140625
497,792.1611938476562,787.7289428710938,790.5494384765625,788.937744140625
498,794.1758422851562,786.1171875,793.7728881835938,795.3846435546875
499,795.7875366210938,786.1171875,793.3699340820312,801.025634765625
500,796.996337890625,785.3113403320312,792.1611938476562,803.8461303710938
501,792.967041015625,785.3113403320312,795.3846435546875,805.4578857421875
502,794.981689453125,787.7289428710938,794.1758422851562,797.3992919921875
503,798.2051391601562,788.5347900390625,793.3699340820312,793.3699340820312
504,787.7289428710938,793.7728881835938,793.7728881835938,798.2051391601562
505,777.6557006835938,794.1758422851562,797.8021850585938,791.3552856445312
506,779.2673950195312,791.7582397460938,800.6226806640625,784.908447265625
507,782.893798828125,790.5494384765625,801.8314819335938,782.893798828125
508,785.7142944335938,787.7289428710938,802.2344360351562,785.7142944335938
509,790.952392578125,787.7289428710938,797.8021850585938,791.3552856445312
510,796.1904907226562,787.7289428710938,795.7875366210938,790.1465454101562
511,789.3406372070312,784.1025390625,792.967041015625,788.5347900390625
512,783.6996459960938,787.3259887695312,790.1465454101562,788.5347900390625
513,786.923095703125,793.7728881835938,792.1611938476562,788.1318969726562
514,790.5494384765625,794.981689453125,792.5640869140625,789.7435913085938
515,795.3846435546875,792.1611938476562,795.3846435546875,793.7728881835938
516,796.5933837890625,789.3406372070312,801.025634765625,799.4139404296875
517,792.1611938476562,792.5640869140625,796.1904907226562,794.5787353515625
518,794.981689453125,788.1318969726562,788.1318969726562,789.7435913085938
519,797.8021850585938,785.7142944335938,791.3552856445312,798.6080322265625
520,799.010986328125,790.5494384765625,791.3552856445312,801.025634765625
521,791.3552856445312,793.7728881835938,786.923095703125,779.6703491210938
522,786.923095703125,796.1904907226562,784.1025390625,773.6264038085938
523,792.967041015625,800.6226806640625,785.3113403320312,786.923095703125
524,792.967041015625,796.996337890625,790.5494384765625,787.3259887695312
525,794.1758422851562,792.1611938476562,789.3406372070312,786.1171875
526,798.2051391601562,791.3552856445312,786.1171875,784.1025390625
527,794.5787353515625,792.1611938476562,783.2966918945312,782.4908447265625
528,794.1758422851562,791.7582397460938,784.1025390625,785.3113403320312
529,794.5787353515625,791.7582397460938,790.1465454101562,789.3406372070312
530,790.5494384765625,791.7582397460938,790.5494384765625,789.7435913085938
531,790.1465454101562,791.7582397460938,792.5640869140625,786.923095703125
532,788.5347900390625,792.5640869140625,793.7728881835938,784.1025390625
533,791.7582397460938,794.981689453125,793.3699340820312,784.1025390625
534,793.3699340820312,792.967041015625,792.967041015625,787.7289428710938
535,790.952392578125,791.3552856445312,796.5933837890625,790.5494384765625
536,788.937744140625,787.7289428710938,799.010986328125,786.923095703125
537,788.1318969726562,786.5201416015625,799.010986328125,793.7728881835938
538,786.1171875,791.7582397460938,797.8021850585938,794.1758422851562
539,786.5201416015625,792.1611938476562,793.3699340820312,783.2966918945312
540,789.7435913085938,792.967041015625,795.3846435546875,788.1318969726562
541,782.087890625,790.952392578125,796.1904907226562,788.5347900390625
542,778.05859375,786.5201416015625,792.967041015625,778.8644409179688
543,784.5054931640625,786.5201416015625,791.3552856445312,781.2820434570312
544,788.5347900390625,786.923095703125,790.5494384765625,784.908447265625
545,788.937744140625,784.5054931640625,789.7435913085938,784.1025390625
546,796.996337890625,786.1171875,790.5494384765625,788.5347900390625
547,800.2197875976562,790.952392578125,796.1904907226562,793.3699340820312
548,790.5494384765625,788.5347900390625,796.1904907226562,783.2966918945312
549,784.908447265625,781.2820434570312,788.1318969726562,779.6703491210938
550,785.3113403320312,778.05859375,784.1025390625,788.1318969726562
551,793.3699340820312,781.2820434570312,787.3259887695312,788.5347900390625
552,795.3846435546875,784.5054931640625,790.5494384765625,785.3113403320312
553,788.5347900390625,785.3113403320312,789.3406372070312,781.2820434570312
554,786.1171875,784.908447265625,789.3406372070312,778.05859375
555,792.5640869140625,785.3113403320312,797.8021850585938,783.2966918945312
556,792.5640869140625,785.3113403320312,796.5933837890625,788.5347900390625
557,788.1318969726562,789.3406372070312,792.5640869140625,788.937744140625
558,788.937744140625,793.3699340820312,795.7875366210938,786.1171875
559,790.1465454101562,795.3846435546875,792.967041015625,787.3259887695312
560,795.3846435546875,799.8168334960938,790.5494384765625,787.3259887695312
561,795.3846435546875,795.3846435546875,790.952392578125,785.7142944335938
562,789.7435913085938,789.7435913085938,788.5347900390625,787.3259887695312
563,788.937744140625,790.1465454101562,788.1318969726562,785.3113403320312
564,788.1318969726562,790.1465454101562,790.5494384765625,783.2966918945312
565,795.7875366210938,792.967041015625,792.1611938476562,789.7435913085938
566,798.2051391601562,794.5787353515625,788.1318969726562,789.3406372070312
567,794.1758422851562,794.1758422851562,788.5347900390625,786.5201416015625
568,794.981689453125,796.1904907226562,790.5494384765625,786.923095703125
569,787.3259887695312,794.1758422851562,782.4908447265625,781.2820434570312
570,778.4615478515625,791.7582397460938,784.5054931640625,780.0732421875
571,782.893798828125,792.5640869140625,788.937744140625,781.2820434570312
572,788.5347900390625,795.7875366210938,788.5347900390625,780.0732421875
573,789.7435913085938,796.5933837890625,792.1611938476562,786.1171875
574,787.3259887695312,791.3552856445312,791.3552856445312,785.7142944335938
575,788.5347900390625,786.5201416015625,786.5201416015625,777.2527465820312
576,791.7582397460938,786.923095703125,785.7142944335938,781.6849975585938
577,784.5054931640625,785.3113403320312,786.1171875,787.7289428710938
578,780.0732421875,784.908447265625,787.3259887695312,783.6996459960938
579,781.6849975585938,783.2966918945312,790.5494384765625,780.879150390625
580,785.7142944335938,781.6849975585938,795.7875366210938,785.3113403320312
581,787.7289428710938,784.1025390625,798.2051391601562,786.1171875
582,785.7142944335938,781.2820434570312,794.1758422851562,778.4615478515625
583,781.2820434570312,786.1171875,791.3552856445312,777.6557006835938
584,780.0732421875,792.1611938476562,790.952392578125,786.1171875
585,787.3259887695312,788.5347900390625,794.5787353515625,791.7582397460938
586,795.3846435546875,788.5347900390625,794.1758422851562,787.3259887695312
587,792.1611938476562,786.923095703125,792.1611938476562,784.5054931640625
588,789.7435913085938,788.937744140625,796.1904907226562,788.937744140625
589,789.3406372070312,790.952392578125,793.3699340820312,790.952392578125
590,784.908447265625,788.937744140625,792.1611938476562,791.3552856445312
591,789.3406372070312,790.952392578125,792.5640869140625,794.5787353515625
592,791.3552856445312,788.5347900390625,791.7582397460938,790.5494384765625
593,786.1171875,790.1465454101562,791.3552856445312,787.7289428710938
594,786.1171875,792.1611938476562,790.1465454101562,787.7289428710938
595,787.7289428710938,788.937744140625,790.1465454101562,787.3259887695312
596,794.1758422851562,792.5640869140625,790.1465454101562,792.967041015625
597,801.4285888671875,795.7875366210938,789.3406372070312,788.1318969726562
598,799.4139404296875,796.1904907226562,788.5347900390625,784.908447265625
599,796.996337890625,796.996337890625,791.7582397460938,786.1171875
600,794.981689453125,795.3846435546875,794.981689453125,787.7289428710938
601,790.952392578125,798.6080322265625,798.2051391601562,790.1465454101562
602,786.923095703125,794.981689453125,797.8021850585938,786.1171875
603,787.3259887695312,789.7435913085938,798.2051391601562,790.952392578125
604,785.3113403320312,793.7728881835938,800.6226806640625,792.5640869140625
605,780.879150390625,794.1758422851562,801.025634765625,789.7435913085938
606,782.893798828125,791.7582397460938,801.025634765625,786.5201416015625
607,784.908447265625,795.3846435546875,795.3846435546875,786.923095703125
608,783.6996459960938,796.996337890625,791.7582397460938,788.5347900390625
609,789.3406372070312,790.952392578125,795.7875366210938,781.2820434570312
610,784.1025390625,794.5787353515625,794.1758422851562,784.5054931640625
611,777.2527465820312,795.7875366210938,792.1611938476562,786.923095703125
612,787.3259887695312,791.7582397460938,790.952392578125,788.937744140625
613,787.3259887695312,786.1171875,790.5494384765625,787.3259887695312
614,778.4615478515625,786.923095703125,792.5640869140625,783.6996459960938
615,781.6849975585938,789.7435913085938,796.1904907226562,789.7435913085938
616,788.1318969726562,786.1171875,794.5787353515625,788.5347900390625
617,790.1465454101562,786.1171875,790.952392578125,784.908447265625
618,792.5640869140625,785.3113403320312,792.5640869140625,787.3259887695312
619,796.996337890625,783.6996459960938,791.3552856445312,795.7875366210938
620,798.2051391601562,792.967041015625,789.7435913085938,800.6226806640625
621,799.010986328125,800.6226806640625,796.5933837890625,800.2197875976562
622,801.4285888671875,797.3992919921875,794.1758422851562,796.5933837890625
623,798.6080322265625,792.1611938476562,791.3552856445312,791.3552856445312
624,791.3552856445312,790.1465454101562,794.5787353515625,786.923095703125
625,787.7289428710938,791.7582397460938,790.952392578125,784.1025390625
626,792.5640869140625,788.1318969726562,790.1465454101562,788.1318969726562
627,793.3699340820312,779.2673950195312,790.5494384765625,788.937744140625
628,787.3259887695312,782.4908447265625,789.7435913085938,787.7289428710938
629,783.2966918945312,790.952392578125,786.923095703125,784.5054931640625
630,786.5201416015625,793.7728881835938,788.937744140625,789.7435913085938
631,789.3406372070312,792.5640869140625,797.8021850585938,797.3992919921875
632,792.967041015625,794.1758422851562,799.8168334960938,797.8021850585938
633,792.1611938476562,797.3992919921875,795.3846435546875,795.3846435546875
634,793.3699340820312,791.3552856445312,793.3699340820312,798.6080322265625
635,796.1904907226562,789.7435913085938,796.5933837890625,796.1904907226562
636,788.5347900390625,791.3552856445312,796.1904907226562,788.1318969726562
637,789.3406372070312,783.6996459960938,795.7875366210938,794.5787353515625
638,792.5640869140625,784.1025390625,799.4139404296875,797.8021850585938
639,787.7289428710938,791.7582397460938,802.6373901367188,790.952392578125
640,791.7582397460938,789.7435913085938,800.6226806640625,789.7435913085938
641,796.996337890625,786.1171875,801.4285888671875,797.8021850585938
642,796.5933837890625,787.7289428710938,803.8461303710938,800.6226806640625
643,792.5640869140625,788.937744140625,801.4285888671875,788.1318969726562
644,783.6996459960938,788.937744140625,795.3846435546875,778.8644409179688
645,783.2966918945312,790.952392578125,793.7728881835938,784.1025390625
646,793.3699340820312,795.7875366210938,795.7875366210938,798.2051391601562
647,792.967041015625,798.6080322265625,793.3699340820312,790.5494384765625
648,789.3406372070312,793.3699340820312,792.967041015625,779.2673950195312
649,795.3846435546875,789.7435913085938,793.7728881835938,788.1318969726562
650,799.010986328125,791.3552856445312,791.7582397460938,789.3406372070312
651,792.5640869140625,788.937744140625,789.7435913085938,782.4908447265625
652,788.937744140625,788.937744140625,792.967041015625,786.1171875
653,794.981689453125,796.1904907226562,798.2051391601562,792.5640869140625
654,791.7582397460938,792.967041015625,795.7875366210938,794.5787353515625
655,792.5640869140625,790.952392578125,796.1904907226562,794.981689453125
656,798.6080322265625,791.3552856445312,798.6080322265625,792.5640869140625
657,796.5933837890625,787.7289428710938,797.3992919921875,799.8168334960938
658,798.6080322265625,791.3552856445312,796.1904907226562,798.2051391601562
659,797.3992919921875,796.996337890625,795.7875366210938,790.952392578125
660,786.923095703125,792.5640869140625,797.8021850585938,788.937744140625
661,783.6996459960938,795.7875366210938,793.7728881835938,789.3406372070312
662,790.1465454101562,795.7875366210938,792.5640869140625,788.937744140625
663,792.5640869140625,791.3552856445312,792.5640869140625,785.7142944335938
664,788.937744140625,791.3552856445312,790.5494384765625,788.5347900390625
665,790.952392578125,789.7435913085938,792.5640869140625,790.5494384765625
666,792.5640869140625,790.952392578125,793.7728881835938,791.7582397460938
667,791.3552856445312,789.3406372070312,792.1611938476562,792.1611938476562
668,795.3846435546875,788.1318969726562,793.7728881835938,796.5933837890625
669,800.6226806640625,787.7289428710938,796.996337890625,810.6959838867188
670,799.010986328125,788.937744140625,799.010986328125,805.8607788085938
671,799.010986328125,787.7289428710938,800.2197875976562,795.3846435546875
672,798.2051391601562,789.3406372070312,794.5787353515625,798.2051391601562
673,794.981689453125,792.967041015625,793.3699340820312,797.8021850585938
674,796.5933837890625,789.7435913085938,795.7875366210938,795.3846435546875
675,793.3699340820312,788.1318969726562,796.5933837890625,792.967041015625
676,787.7289428710938,791.7582397460938,802.6373901367188,794.1758422851562
677,790.5494384765625,786.923095703125,802.6373901367188,794.5787353515625
678,795.3846435546875,782.893798828125,799.4139404296875,788.5347900390625
679,790.952392578125,786.1171875,796.996337890625,786.1171875
680,784.908447265625,791.7582397460938,797.3992919921875,794.981689453125
681,784.908447265625,797.8021850585938,799.010986328125,796.996337890625
682,788.1318969726562,799.4139404296875,800.2197875976562,787.7289428710938
683,788.5347900390625,796.5933837890625,797.3992919921875,787.3259887695312
684,786.1171875,796.996337890625,793.3699340820312,788.937744140625
685,784.5054931640625,799.010986328125,796.5933837890625,785.7142944335938
686,784.1025390625,799.4139404296875,799.4139404296875,788.1318969726562
687,784.908447265625,801.025634765625,796.1904907226562,788.1318969726562
688,791.3552856445312,801.4285888671875,794.981689453125,792.967041015625
689,793.3699340820312,796.996337890625,798.2051391601562,796.5933837890625
690,791.7582397460938,794.981689453125,799.4139404296875,790.1465454101562
691,792.967041015625,795.7875366210938,796.1904907226562,785.7142944335938
692,792.5640869140625,795.3846435546875,794.981689453125,792.1611938476562
693,797.3992919921875,801.4285888671875,800.6226806640625,798.6080322265625
694,800.6226806640625,802.2344360351562,797.8021850585938,793.3699340820312
695,802.2344360351562,794.1758422851562,792.1611938476562,790.952392578125
696,797.3992919921875,788.5347900390625,788.937744140625,791.3552856445312
697,790.5494384765625,790.1465454101562,787.3259887695312,792.967041015625
698,796.5933837890625,795.3846435546875,792.967041015625,792.1611938476562
699,800.2197875976562,792.967041015625,791.7582397460938,790.1465454101562
700,801.8314819335938,789.3406372070312,791.3552856445312,794.1758422851562
701,799.8168334960938,794.981689453125,793.7728881835938,789.3406372070312
702,794.5787353515625,795.3846435546875,792.967041015625,784.5054931640625
703,799.010986328125,791.3552856445312,791.3552856445312,794.5787353515625
704,797.8021850585938,796.5933837890625,793.7728881835938,799.8168334960938
705,789.7435913085938,798.2051391601562,799.8168334960938,796.996337890625
706,785.3113403320312,796.1904907226562,799.010986328125,791.3552856445312
707,785.3113403320312,796.996337890625,794.1758422851562,786.923095703125
708,791.7582397460938,802.2344360351562,800.2197875976562,796.1904907226562
709,793.7728881835938,801.025634765625,803.040283203125,801.025634765625
710,792.5640869140625,793.7728881835938,801.025634765625,790.952392578125
711,792.1611938476562,797.8021850585938,799.4139404296875,787.7289428710938
712,795.3846435546875,802.6373901367188,799.010986328125,790.952392578125
713,797.3992919921875,799.4139404296875,802.2344360351562,792.967041015625
714,798.6080322265625,796.5933837890625,802.6373901367188,791.7582397460938
715,805.054931640625,796.1904907226562,803.8461303710938,793.3699340820312
716,804.2490844726562,793.7728881835938,805.4578857421875,796.1904907226562
717,796.1904907226562,796.996337890625,798.2051391601562,790.5494384765625
718,800.2197875976562,796.996337890625,798.6080322265625,792.5640869140625
719,805.8607788085938,797.8021850585938,806.2637329101562,804.2490844726562
720,803.4432373046875,800.2197875976562,809.89013671875,801.4285888671875
721,795.3846435546875,792.967041015625,809.084228515625,796.1904907226562
722,796.5933837890625,786.5201416015625,806.6666870117188,807.069580078125
723,803.040283203125,785.3113403320312,809.084228515625,808.2783813476562
724,796.5933837890625,787.7289428710938,809.084228515625,796.1904907226562
725,790.952392578125,788.1318969726562,805.4578857421875,795.3846435546875
726,789.3406372070312,788.5347900390625,805.8607788085938,797.3992919921875
727,791.3552856445312,792.1611938476562,805.8607788085938,798.2051391601562
728,785.7142944335938,791.7582397460938,802.2344360351562,796.996337890625
729,784.5054931640625,790.1465454101562,800.6226806640625,792.967041015625
730,791.3552856445312,795.7875366210938,799.4139404296875,799.8168334960938
731,796.5933837890625,800.6226806640625,799.010986328125,803.8461303710938
732,790.1465454101562,794.1758422851562,796.5933837890625,790.5494384765625
733,782.4908447265625,794.5787353515625,793.7728881835938,788.1318969726562
734,782.893798828125,799.4139404296875,792.967041015625,790.1465454101562
735,784.5054931640625,800.6226806640625,794.1758422851562,789.7435913085938
736,787.3259887695312,799.8168334960938,797.8021850585938,791.7582397460938
737,788.5347900390625,794.981689453125,798.6080322265625,788.5347900390625
738,793.3699340820312,794.981689453125,795.7875366210938,786.5201416015625
739,795.3846435546875,795.3846435546875,792.5640869140625,783.6996459960938
740,795.7875366210938,790.5494384765625,789.7435913085938,784.908447265625
741,800.6226806640625,786.923095703125,788.937744140625,794.981689453125
742,803.040283203125,784.908447265625,793.3699340820312,801.025634765625
743,795.3846435546875,784.908447265625,795.3846435546875,794.5787353515625
744,789.7435913085938,786.1171875,790.1465454101562,786.1171875
745,791.7582397460938,786.1171875,792.967041015625,790.5494384765625
746,781.6849975585938,786.923095703125,794.981689453125,785.3113403320312
747,778.8644409179688,785.3113403320312,788.1318969726562,782.893798828125
748,787.3259887695312,784.5054931640625,795.7875366210938,791.7582397460938
749,784.908447265625,784.1025390625,796.5933837890625,795.3846435546875
750,798.2051391601562,787.3259887695312,794.981689453125,801.025634765625
751,797.8021850585938,794.1758422851562,799.010986328125,799.4139404296875
752,780.4761962890625,790.1465454101562,796.1904907226562,792.967041015625
753,780.0732421875,789.3406372070312,797.3992919921875,795.3846435546875
754,787.7289428710938,792.967041015625,797.3992919921875,801.4285888671875
755,792.967041015625,792.5640869140625,793.3699340820312,802.2344360351562
756,785.7142944335938,794.1758422851562,792.5640869140625,794.1758422851562
757,779.2673950195312,794.981689453125,794.1758422851562,786.923095703125
758,786.923095703125,794.981689453125,798.2051391601562,787.7289428710938
759,796.5933837890625,798.6080322265625,801.8314819335938,793.3699340820312
760,795.7875366210938,795.7875366210938,803.040283203125,793.7728881835938
761,790.1465454101562,791.7582397460938,801.8314819335938,796.1904907226562
762,788.1318969726562,791.3552856445312,798.6080322265625,792.967041015625
763,791.3552856445312,790.5494384765625,798.2051391601562,786.923095703125
764,794.981689453125,792.1611938476562,798.2051391601562,791.3552856445312
765,794.5787353515625,792.967041015625,797.8021850585938,801.8314819335938
766,790.1465454101562,790.5494384765625,798.2051391601562,800.6226806640625
767,793.7728881835938,790.1465454101562,795.7875366210938,792.5640869140625
768,790.5494384765625,787.3259887695312,792.967041015625,790.5494384765625
769,786.5201416015625,789.7435913085938,791.7582397460938,785.7142944335938
770,787.3259887695312,795.3846435546875,789.7435913085938,787.7289428710938
771,786.923095703125,795.7875366210938,790.952392578125,793.7728881835938
772,792.5640869140625,796.1904907226562,790.952392578125,787.3259887695312
773,788.1318969726562,796.1904907226562,793.7728881835938,784.908447265625
774,778.4615478515625,798.6080322265625,799.010986328125,790.1465454101562
775,781.2820434570312,796.996337890625,796.1904907226562,782.893798828125
776,785.7142944335938,792.967041015625,794.1758422851562,781.2820434570312
777,792.5640869140625,791.3552856445312,792.967041015625,790.952392578125
778,790.5494384765625,790.5494384765625,790.952392578125,785.3113403320312
779,783.6996459960938,789.7435913085938,793.3699340820312,776.8497924804688
780,788.5347900390625,792.5640869140625,794.5787353515625,780.879150390625
781,791.7582397460938,799.010986328125,796.5933837890625,786.5201416015625
782,794.981689453125,799.010986328125,799.010986328125,789.7435913085938
783,792.967041015625,794.981689453125,798.2051391601562,793.3699340820312
784,786.5201416015625,792.1611938476562,795.7875366210938,796.1904907226562
785,790.5494384765625,791.3552856445312,790.952392578125,791.7582397460938
786,794.1758422851562,789.7435913085938,788.5347900390625,792.967041015625
787,787.7289428710938,785.7142944335938,786.923095703125,791.3552856445312
788,784.1025390625,787.3259887695312,788.937744140625,793.3699340820312
789,781.2820434570312,787.7289428710938,792.5640869140625,792.5640869140625
790,782.087890625,785.3113403320312,792.1611938476562,786.923095703125
791,790.952392578125,788.5347900390625,794.1758422851562,788.937744140625
792,792.1611938476562,785.3113403320312,798.6080322265625,790.1465454101562
793,783.6996459960938,782.087890625,795.3846435546875,788.1318969726562
794,781.6849975585938,788.1318969726562,792.967041015625,784.908447265625
795,785.7142944335938,788.1318969726562,795.7875366210938,786.1171875
796,788.937744140625,790.952392578125,795.7875366210938,786.5201416015625
797,791.3552856445312,792.1611938476562,802.2344360351562,785.3113403320312
798,789.3406372070312,792.967041015625,801.8314819335938,783.2966918945312
799,783.6996459960938,798.6080322265625,796.1904907226562,783.2966918945312
800,782.4908447265625,797.3992919921875,794.981689453125,779.6703491210938
801,787.3259887695312,797.8021850585938,795.3846435546875,775.2380981445312
802,787.7289428710938,796.1904907226562,795.3846435546875,774.4322509765625
803,790.5494384765625,792.967041015625,799.010986328125,777.6557006835938
804,795.3846435546875,797.8021850585938,798.2051391601562,780.0732421875
805,790.952392578125,799.010986328125,795.7875366210938,777.6557006835938
806,787.7289428710938,796.996337890625,793.3699340820312,785.3113403320312
807,787.3259887695312,792.5640869140625,792.5640869140625,786.1171875
808,790.1465454101562,790.5494384765625,793.7728881835938,786.5201416015625
809,790.1465454101562,795.7875366210938,792.967041015625,787.7289428710938
810,792.967041015625,795.3846435546875,792.5640869140625,788.937744140625
811,805.4578857421875,791.7582397460938,794.1758422851562,799.8168334960938
812,813.113525390625,793.3699340820312,795.7875366210938,807.87548828125
813,803.4432373046875,792.5640869140625,799.010986328125,796.996337890625
814,784.908447265625,791.3552856445312,794.981689453125,778.8644409179688
815,780.879150390625,795.3846435546875,790.5494384765625,780.0732421875
816,786.5201416015625,799.4139404296875,797.8021850585938,782.4908447265625
817,788.5347900390625,794.981689453125,799.010986328125,781.2820434570312
818,783.2966918945312,790.952392578125,792.5640869140625,780.4761962890625
819,776.4468994140625,794.5787353515625,792.5640869140625,773.6264038085938
820,780.4761962890625,799.4139404296875,792.1611938476562,776.0439453125
821,788.5347900390625,796.1904907226562,789.3406372070312,787.3259887695312
822,792.1611938476562,791.3552856445312,789.3406372070312,789.7435913085938
823,788.1318969726562,794.981689453125,793.7728881835938,791.7582397460938
824,794.5787353515625,794.5787353515625,797.3992919921875,795.7875366210938
825,804.2490844726562,797.8021850585938,800.2197875976562,792.5640869140625
826,797.8021850585938,797.8021850585938,799.010986328125,794.1758422851562
827,794.5787353515625,790.1465454101562,795.3846435546875,799.4139404296875
828,792.967041015625,794.981689453125,795.3846435546875,794.5787353515625
829,780.879150390625,793.3699340820312,795.3846435546875,786.5201416015625
830,780.4761962890625,792.1611938476562,792.967041015625,789.3406372070312
831,783.6996459960938,794.1758422851562,789.7435913085938,791.3552856445312
832,780.879150390625,790.1465454101562,788.5347900390625,788.1318969726562
833,785.3113403320312,790.5494384765625,786.5201416015625,790.5494384765625
834,786.5201416015625,793.3699340820312,789.3406372070312,795.7875366210938
835,781.2820434570312,791.7582397460938,791.3552856445312,787.3259887695312
836,783.2966918945312,788.5347900390625,790.1465454101562,779.6703491210938
837,786.923095703125,790.1465454101562,791.3552856445312,783.2966918945312
838,783.6996459960938,794.1758422851562,794.5787353515625,788.5347900390625
839,783.6996459960938,799.4139404296875,797.8021850585938,793.3699340820312
840,782.893798828125,796.5933837890625,797.3992919921875,790.5494384765625
841,783.6996459960938,792.967041015625,797.8021850585938,784.1025390625
842,789.3406372070312,792.1611938476562,798.2051391601562,784.1025390625
843,791.3552856445312,790.1465454101562,793.7728881835938,784.1025390625
844,794.981689453125,791.3552856445312,792.5640869140625,779.2673950195312
845,793.7728881835938,796.1904907226562,792.967041015625,788.5347900390625
846,784.1025390625,796.5933837890625,789.7435913085938,792.1611938476562
847,787.7289428710938,796.996337890625,790.5494384765625,791.7582397460938
848,788.937744140625,796.996337890625,790.5494384765625,793.3699340820312
849,788.5347900390625,791.7582397460938,788.1318969726562,794.5787353515625
850,791.3552856445312,788.5347900390625,790.5494384765625,797.8021850585938
851,788.5347900390625,791.3552856445312,792.1611938476562,792.1611938476562
852,792.1611938476562,794.981689453125,791.3552856445312,792.1611938476562
853,796.996337890625,796.1904907226562,792.1611938476562,798.6080322265625
854,796.5933837890625,795.7875366210938,795.7875366210938,802.2344360351562
855,794.1758422851562,800.2197875976562,799.010986328125,796.5933837890625
856,796.996337890625,800.2197875976562,801.025634765625,801.4285888671875
857,797.3992919921875,791.7582397460938,799.4139404296875,802.2344360351562
858,792.5640869140625,786.5201416015625,799.010986328125,796.1904907226562
859,792.1611938476562,788.937744140625,800.2197875976562,794.981689453125
860,787.3259887695312,784.908447265625,795.3846435546875,786.1171875
861,790.1465454101562,786.1171875,794.5787353515625,794.981689453125
862,793.3699340820312,791.3552856445312,794.1758422851562,799.4139404296875
863,787.7289428710938,791.3552856445312,788.5347900390625,790.952392578125
864,787.3259887695312,792.1611938476562,790.1465454101562,790.5494384765625
865,788.1318969726562,796.1904907226562,790.952392578125,788.937744140625
866,782.893798828125,794.1758422851562,791.3552856445312,784.5054931640625
867,782.893798828125,793.3699340820312,792.967041015625,780.0732421875
868,787.3259887695312,791.3552856445312,791.3552856445312,784.1025390625
869,789.7435913085938,786.923095703125,793.3699340820312,783.6996459960938
870,787.3259887695312,790.5494384765625,794.5787353515625,778.05859375
871,788.1318969726562,796.5933837890625,794.5787353515625,780.4761962890625
872,794.1758422851562,796.1904907226562,792.967041015625,792.1611938476562
873,799.4139404296875,794.1758422851562,790.952392578125,796.996337890625
874,793.7728881835938,795.7875366210938,789.3406372070312,787.7289428710938
875,789.3406372070312,791.7582397460938,787.7289428710938,788.5347900390625
876,795.3846435546875,789.3406372070312,789.7435913085938,791.7582397460938
877,795.3846435546875,793.7728881835938,790.5494384765625,786.5201416015625
878,796.5933837890625,794.981689453125,790.1465454101562,789.3406372070312
879,792.967041015625,787.7289428710938,794.1758422851562,795.3846435546875
880,780.879150390625,784.5054931640625,796.1904907226562,792.1611938476562
881,781.6849975585938,789.7435913085938,789.3406372070312,784.5054931640625
882,788.5347900390625,791.3552856445312,791.3552856445312,786.1171875
883,784.908447265625,788.1318969726562,793.3699340820312,786.923095703125
884,784.908447265625,784.5054931640625,793.3699340820312,791.3552856445312
885,784.1025390625,788.937744140625,795.3846435546875,791.7582397460938
886,778.8644409179688,790.952392578125,790.5494384765625,784.1025390625
887,784.1025390625,789.7435913085938,792.967041015625,788.1318969726562
888,791.3552856445312,792.5640869140625,799.8168334960938,791.3552856445312
889,792.5640869140625,793.7728881835938,795.3846435546875,789.3406372070312
890,789.3406372070312,793.7728881835938,788.937744140625,788.1318969726562
891,787.3259887695312,793.7728881835938,792.967041015625,786.1171875
892,791.3552856445312,795.7875366210938,799.8168334960938,787.3259887695312
893,796.996337890625,792.967041015625,802.2344360351562,792.967041015625
894,796.5933837890625,787.7289428710938,800.6226806640625,792.967041015625
895,791.3552856445312,788.5347900390625,800.2197875976562,796.1904907226562
896,787.7289428710938,793.7728881835938,800.6226806640625,796.1904907226562
897,787.7289428710938,795.3846435546875,798.6080322265625,788.937744140625
898,784.1025390625,794.1758422851562,797.8021850585938,792.1611938476562
899,785.3113403320312,795.3846435546875,798.2051391601562,792.5640869140625
900,794.1758422851562,799.4139404296875,802.2344360351562,791.3552856445312
901,797.8021850585938,803.8461303710938,806.2637329101562,792.1611938476562
902,798.6080322265625,801.4285888671875,806.6666870117188,791.7582397460938
903,799.8168334960938,798.6080322265625,803.4432373046875,795.3846435546875
904,800.2197875976562,800.2197875976562,803.4432373046875,795.3846435546875
905,794.981689453125,796.996337890625,804.6520385742188,790.1465454101562
906,785.7142944335938,796.1904907226562,804.2490844726562,791.7582397460938
907,784.908447265625,794.981689453125,807.4725341796875,798.6080322265625
908,792.967041015625,790.1465454101562,806.6666870117188,802.2344360351562
909,804.6520385742188,788.1318969726562,804.6520385742188,801.8314819335938
910,800.2197875976562,787.7289428710938,809.4871826171875,799.4139404296875
911,784.908447265625,793.3699340820312,808.6813354492188,790.952392578125
912,778.05859375,799.8168334960938,802.2344360351562,782.893798828125
913,780.879150390625,800.6226806640625,803.4432373046875,786.1171875
914,784.908447265625,793.3699340820312,800.6226806640625,787.7289428710938
915,780.0732421875,790.5494384765625,794.981689453125,781.6849975585938
916,781.6849975585938,793.7728881835938,798.6080322265625,780.879150390625
917,788.937744140625,792.1611938476562,800.6226806640625,784.908447265625
918,789.7435913085938,786.923095703125,801.8314819335938,787.7289428710938
919,784.908447265625,788.1318969726562,797.8021850585938,785.7142944335938
920,785.7142944335938,793.7728881835938,796.996337890625,788.5347900390625
921,789.7435913085938,794.981689453125,799.010986328125,791.7582397460938
922,785.7142944335938,793.7728881835938,795.7875366210938,790.1465454101562
923,789.7435913085938,794.5787353515625,792.5640869140625,788.1318969726562
924,794.5787353515625,802.6373901367188,794.981689453125,782.087890625
925,792.1611938476562,802.6373901367188,798.6080322265625,782.4908447265625
926,792.5640869140625,795.3846435546875,797.8021850585938,787.3259887695312
927,790.952392578125,795.7875366210938,802.2344360351562,795.3846435546875
928,792.1611938476562,796.5933837890625,805.4578857421875,799.4139404296875
929,799.010986328125,794.981689453125,801.025634765625,799.4139404296875
930,801.025634765625,792.967041015625,801.8314819335938,800.6226806640625
931,793.7728881835938,794.5787353515625,802.2344360351562,798.6080322265625
932,788.937744140625,794.5787353515625,799.010986328125,796.996337890625
933,789.3406372070312,788.5347900390625,797.8021850585938,796.1904907226562
934,790.5494384765625,794.1758422851562,798.6080322265625,796.996337890625
935,791.7582397460938,798.2051391601562,798.6080322265625,796.5933837890625
936,796.1904907226562,793.7728881835938,798.6080322265625,794.5787353515625
937,797.8021850585938,790.5494384765625,799.010986328125,793.3699340820312
938,794.981689453125,788.5347900390625,796.5933837890625,794.1758422851562
939,791.7582397460938,790.5494384765625,793.7728881835938,790.5494384765625
940,790.5494384765625,789.7435913085938,795.3846435546875,787.3259887695312
941,790.952392578125,790.1465454101562,795.3846435546875,786.1171875
942,786.923095703125,794.5787353515625,795.7875366210938,787.3259887695312
943,782.893798828125,796.1904907226562,803.4432373046875,792.5640869140625
944,785.3113403320312,794.1758422851562,807.4725341796875,795.7875366210938
945,787.3259887695312,793.3699340820312,805.4578857421875,800.6226806640625
946,790.5494384765625,789.7435913085938,801.8314819335938,800.2197875976562
947,790.952392578125,788.5347900390625,802.2344360351562,792.967041015625
948,794.981689453125,791.7582397460938,802.2344360351562,795.3846435546875
949,801.4285888671875,792.967041015625,800.6226806640625,800.6226806640625
950,795.7875366210938,791.7582397460938,803.4432373046875,796.5933837890625
951,792.1611938476562,793.7728881835938,802.2344360351562,793.3699340820312
952,794.1758422851562,790.5494384765625,800.2197875976562,791.7582397460938
953,794.1758422851562,786.1171875,801.8314819335938,787.7289428710938
954,794.981689453125,794.5787353515625,801.8314819335938,785.7142944335938
955,799.010986328125,795.3846435546875,801.4285888671875,788.937744140625
956,801.4285888671875,792.1611938476562,802.2344360351562,792.967041015625
957,802.2344360351562,789.3406372070312,802.2344360351562,795.7875366210938
958,794.5787353515625,782.893798828125,801.025634765625,790.1465454101562
959,799.010986328125,788.5347900390625,799.010986328125,789.3406372070312
960,804.6520385742188,792.1611938476562,798.2051391601562,792.967041015625
961,792.5640869140625,789.7435913085938,796.1904907226562,786.1171875
962,785.3113403320312,787.7289428710938,793.3699340820312,787.3259887695312
963,787.3259887695312,790.5494384765625,795.7875366210938,790.952392578125
964,790.1465454101562,793.7728881835938,795.7875366210938,793.3699340820312
965,793.7728881835938,789.3406372070312,790.952392578125,791.3552856445312
966,789.3406372070312,792.1611938476562,789.7435913085938,789.7435913085938
967,783.2966918945312,794.1758422851562,795.3846435546875,792.5640869140625
968,788.1318969726562,794.981689453125,798.6080322265625,796.996337890625
969,798.2051391601562,798.2051391601562,793.7728881835938,798.6080322265625
970,801.8314819335938,801.4285888671875,795.7875366210938,794.5787353515625
971,799.8168334960938,801.8314819335938,799.010986328125,794.981689453125
972,795.7875366210938,793.7728881835938,794.981689453125,795.7875366210938
973,789.3406372070312,790.952392578125,796.996337890625,795.3846435546875
974,790.5494384765625,794.1758422851562,801.025634765625,793.7728881835938
975,798.6080322265625,794.5787353515625,802.2344360351562,798.2051391601562
976,797.8021850585938,794.981689453125,799.010986328125,795.7875366210938
977,794.5787353515625,792.1611938476562,794.981689453125,794.5787353515625
978,797.8021850585938,792.1611938476562,798.6080322265625,801.8314819335938
979,798.6080322265625,793.3699340820312,803.4432373046875,801.4285888671875
980,798.6080322265625,792.5640869140625,799.4139404296875,802.2344360351562
981,801.8314819335938,790.5494384765625,794.981689453125,799.4139404296875
982,803.040283203125,790.952392578125,799.8168334960938,796.1904907226562
983,795.3846435546875,793.3699340820312,805.4578857421875,802.6373901367188
984,796.1904907226562,789.3406372070312,804.2490844726562,801.4285888671875
985,795.7875366210938,788.937744140625,800.6226806640625,790.5494384765625
986,799.4139404296875,792.5640869140625,799.010986328125,786.923095703125
987,805.8607788085938,793.7728881835938,798.2051391601562,788.937744140625
988,792.5640869140625,794.5787353515625,801.4285888671875,790.5494384765625
989,788.1318969726562,797.3992919921875,801.8314819335938,790.5494384765625
990,793.3699340820312,799.010986328125,797.8021850585938,788.1318969726562
991,796.5933837890625,793.7728881835938,796.996337890625,790.952392578125
992,793.3699340820312,792.1611938476562,795.7875366210938,794.981689453125
993,785.7142944335938,792.967041015625,796.5933837890625,788.937744140625
994,788.5347900390625,789.7435913085938,797.8021850585938,785.7142944335938
995,788.937744140625,792.967041015625,795.7875366210938,791.3552856445312
996,786.1171875,788.937744140625,793.7728881835938,792.5640869140625
997,789.7435913085938,791.7582397460938,792.1611938476562,786.5201416015625
998,793.3699340820312,794.981689453125,790.952392578125,785.7142944335938
999,790.952392578125,790.5494384765625,786.923095703125,784.1025390625
1000,786.5201416015625,790.952392578125,781.2820434570312,784.5054931640625
1001,792.5640869140625,791.3552856445312,782.4908447265625,790.1465454101562
1002,793.3699340820312,789.3406372070312,784.908447265625,789.3406372070312
1003,792.5640869140625,786.923095703125,782.893798828125,787.7289428710938
1004,795.3846435546875,790.5494384765625,785.3113403320312,789.7435913085938
1005,791.7582397460938,790.952392578125,792.5640869140625,786.923095703125
1006,791.3552856445312,788.1318969726562,788.5347900390625,785.3113403320312
1007,793.7728881835938,793.3699340820312,785.7142944335938,784.908447265625
1008,786.5201416015625,794.5787353515625,789.3406372070312,782.087890625
1009,784.5054931640625,790.5494384765625,790.952392578125,782.893798828125
1010,792.1611938476562,794.5787353515625,793.3699340820312,787.7289428710938
1011,794.5787353515625,797.3992919921875,792.1611938476562,788.5347900390625
1012,793.7728881835938,794.1758422851562,789.7435913085938,785.7142944335938
1013,796.5933837890625,792.1611938476562,786.923095703125,782.087890625
1014,797.3992919921875,794.5787353515625,788.1318969726562,788.937744140625
1015,794.981689453125,794.981689453125,790.1465454101562,801.8314819335938
1016,795.7875366210938,793.7728881835938,791.3552856445312,794.981689453125
1017,793.3699340820312,794.5787353515625,794.1758422851562,787.3259887695312
1018,786.5201416015625,796.1904907226562,794.1758422851562,792.5640869140625
1019,789.3406372070312,796.1904907226562,796.996337890625,791.7582397460938
1020,803.4432373046875,799.8168334960938,799.4139404296875,788.5347900390625
1021,802.6373901367188,803.040283203125,796.1904907226562,790.5494384765625
1022,795.3846435546875,800.6226806640625,795.7875366210938,789.7435913085938
1023,790.952392578125,799.8168334960938,796.996337890625,788.937744140625
1024,791.3552856445312,799.4139404296875,799.010986328125,788.1318969726562
1025,795.7875366210938,796.5933837890625,795.7875366210938,789.3406372070312
1026,797.8021850585938,794.5787353515625,796.1904907226562,791.7582397460938
1027,792.967041015625,795.7875366210938,798.6080322265625,786.923095703125
1028,783.6996459960938,795.3846435546875,792.967041015625,778.8644409179688
1029,784.1025390625,790.1465454101562,794.981689453125,782.087890625
1030,786.1171875,791.7582397460938,797.3992919921875,790.1465454101562
1031,791.7582397460938,793.7728881835938,796.5933837890625,793.3699340820312
1032,794.981689453125,797.8021850585938,796.1904907226562,792.1611938476562
1033,786.5201416015625,800.6226806640625,792.1611938476562,792.5640869140625
1034,782.087890625,794.981689453125,793.7728881835938,788.1318969726562
1035,791.7582397460938,794.1758422851562,796.996337890625,790.5494384765625
1036,794.5787353515625,793.7728881835938,791.7582397460938,790.1465454101562
1037,789.3406372070312,792.1611938476562,788.5347900390625,787.3259887695312
1038,790.5494384765625,795.7875366210938,791.7582397460938,792.5640869140625
1039,789.3406372070312,795.3846435546875,793.3699340820312,795.7875366210938
1040,791.3552856445312,791.3552856445312,795.7875366210938,790.1465454101562
1041,795.7875366210938,792.5640869140625,796.1904907226562,790.1465454101562
1042,788.5347900390625,785.7142944335938,795.7875366210938,791.3552856445312
1043,779.2673950195312,783.2966918945312,795.3846435546875,784.908447265625
1044,779.2673950195312,792.967041015625,797.8021850585938,789.3406372070312
1045,782.087890625,792.1611938476562,799.8168334960938,793.3699340820312
1046,784.5054931640625,784.5054931640625,799.8168334960938,790.952392578125
1047,790.5494384765625,788.5347900390625,804.2490844726562,787.7289428710938
1048,798.6080322265625,792.967041015625,805.054931640625,783.2966918945312
1049,793.3699340820312,791.3552856445312,801.4285888671875,782.4908447265625
1050,786.1171875,792.1611938476562,799.8168334960938,784.908447265625
1051,793.7728881835938,790.5494384765625,798.6080322265625,784.5054931640625
1052,796.996337890625,788.1318969726562,799.4139404296875,787.7289428710938
1053,792.967041015625,791.3552856445312,799.4139404296875,802.2344360351562
1054,790.952392578125,792.967041015625,795.7875366210938,801.4285888671875
1055,791.3552856445312,787.7289428710938,795.7875366210938,792.967041015625
1056,798.6080322265625,787.3259887695312,796.5933837890625,801.8314819335938
1057,797.8021850585938,790.1465454101562,794.1758422851562,799.8168334960938
1058,795.7875366210938,790.1465454101562,793.3699340820312,791.3552856445312
1059,794.5787353515625,787.3259887695312,792.1611938476562,791.7582397460938
1060,790.952392578125,792.1611938476562,788.5347900390625,789.7435913085938
1061,794.1758422851562,794.5787353515625,787.3259887695312,792.967041015625
1062,795.3846435546875,786.923095703125,786.1171875,792.967041015625
1063,797.3992919921875,788.5347900390625,785.3113403320312,790.5494384765625
1064,796.996337890625,794.5787353515625,787.7289428710938,800.6226806640625
1065,786.923095703125,790.5494384765625,792.5640869140625,796.5933837890625
1066,785.7142944335938,791.7582397460938,792.967041015625,788.1318969726562
1067,790.952392578125,801.8314819335938,792.1611938476562,785.7142944335938
1068,787.7289428710938,805.8607788085938,796.996337890625,779.2673950195312
1069,781.6849975585938,794.981689453125,789.7435913085938,775.2380981445312
1070,768.3883056640625,782.893798828125,787.3259887695312,764.7619018554688
1071,766.3735961914062,789.7435913085938,794.1758422851562,772.0146484375
1072,763.1502075195312,796.5933837890625,796.1904907226562,772.0146484375
1073,757.912109375,797.8021850585938,807.069580078125,759.9267578125
1074,751.8681030273438,803.040283203125,808.6813354492188,753.4798583984375
1075,737.7655639648438,794.981689453125,794.1758422851562,734.5421142578125
1076,730.10986328125,796.1904907226562,800.6226806640625,737.7655639648438
1077,720.4395751953125,805.8607788085938,814.7252807617188,743.8095092773438
1078,716.8131713867188,810.2930297851562,818.7545776367188,728.4981689453125
1079,704.7252807617188,805.054931640625,815.1282348632812,704.3223266601562
1080,692.2344360351562,801.4285888671875,819.96337890625,696.6666870117188
1081,678.937744140625,807.87548828125,832.05126953125,692.6373901367188
1082,666.4468994140625,810.2930297851562,833.6630249023438,678.1318969726562
1083,668.8644409179688,810.2930297851562,832.05126953125,682.967041015625
1084,669.6703491210938,806.2637329101562,836.08056640625,684.1758422851562
1085,664.029296875,804.2490844726562,837.6923217773438,672.087890625
1086,668.4615478515625,804.2490844726562,842.930419921875,674.5054931640625
1087,664.4322509765625,802.6373901367188,849.3773193359375,672.893798828125
1088,659.5970458984375,801.025634765625,843.3333129882812,675.3113403320312
1089,665.6410522460938,802.2344360351562,840.10986328125,685.3846435546875
1090,666.8497924804688,805.4578857421875,842.12451171875,687.8021850585938
1091,675.7142944335938,803.8461303710938,837.6923217773438,694.6520385742188
1092,688.6080322265625,797.8021850585938,835.6776733398438,706.3369750976562
1093,689.8168334960938,798.6080322265625,834.4688720703125,708.3516235351562
1094,693.8461303710938,801.4285888671875,828.4249267578125,706.3369750976562
1095,703.5164794921875,802.2344360351562,827.2161254882812,713.99267578125
1096,707.94873046875,803.8461303710938,826.4102783203125,718.4249267578125
1097,724.4688720703125,804.6520385742188,823.1868286132812,730.10986328125
1098,741.3919677734375,803.040283203125,819.1575317382812,743.003662109375
1099,743.8095092773438,804.2490844726562,818.7545776367188,751.8681030273438
1100,749.4505615234375,806.2637329101562,817.5457763671875,761.94140625
1101,753.8828125,798.2051391601562,813.91943359375,764.3589477539062
1102,766.7765502929688,786.1171875,808.2783813476562,772.0146484375
1103,782.087890625,790.5494384765625,799.010986328125,782.087890625
1104,777.6557006835938,790.952392578125,794.981689453125,787.7289428710938
1105,778.05859375,784.1025390625,796.1904907226562,789.7435913085938
1106,786.5201416015625,787.7289428710938,795.3846435546875,792.5640869140625
1107,796.996337890625,785.7142944335938,794.5787353515625,790.952392578125
1108,812.7106323242188,787.3259887695312,794.1758422851562,800.2197875976562
1109,813.113525390625,792.1611938476562,795.7875366210938,811.5018310546875
1110,810.2930297851562,786.5201416015625,795.7875366210938,808.2783813476562
1111,813.113525390625,785.7142944335938,791.3552856445312,807.87548828125
1112,807.4725341796875,786.5201416015625,786.923095703125,808.2783813476562
1113,807.87548828125,788.1318969726562,787.3259887695312,810.6959838867188
1114,813.91943359375,783.6996459960938,786.923095703125,815.93408203125
1115,808.2783813476562,781.2820434570312,785.7142944335938,822.7838745117188
1116,801.025634765625,783.2966918945312,785.7142944335938,818.3516235351562
1117,807.87548828125,784.1025390625,781.2820434570312,812.7106323242188
1118,817.94873046875,784.5054931640625,779.6703491210938,815.93408203125
1119,814.3223266601562,783.2966918945312,779.2673950195312,815.5311279296875
1120,814.7252807617188,785.7142944335938,777.6557006835938,816.3369750976562
1121,819.1575317382812,785.3113403320312,778.4615478515625,819.1575317382812
1122,820.7692260742188,783.2966918945312,780.0732421875,823.5897216796875
1123,823.1868286132812,784.908447265625,777.6557006835938,824.3956298828125
1124,828.02197265625,788.1318969726562,777.2527465820312,825.2014770507812
1125,832.4542236328125,785.7142944335938,776.8497924804688,825.6043701171875
1126,835.2747192382812,784.908447265625,779.2673950195312,826.4102783203125
1127,829.6337280273438,782.893798828125,781.2820434570312,826.00732421875
1128,826.4102783203125,786.923095703125,776.4468994140625,826.4102783203125
1129,823.1868286132812,791.7582397460938,776.4468994140625,829.2307739257812
1130,821.1721801757812,787.7289428710938,779.6703491210938,825.6043701171875
1131,822.3809814453125,784.5054931640625,775.2380981445312,820.7692260742188
1132,824.7985229492188,784.908447265625,774.4322509765625,822.3809814453125
1133,830.03662109375,784.908447265625,774.8351440429688,828.8278198242188
1134,830.4395751953125,784.1025390625,777.2527465820312,835.6776733398438
1135,826.8131713867188,789.3406372070312,782.087890625,832.4542236328125
1136,824.3956298828125,793.7728881835938,783.6996459960938,828.8278198242188
1137,823.1868286132812,789.3406372070312,782.4908447265625,832.05126953125
1138,820.7692260742188,788.5347900390625,780.4761962890625,828.02197265625
1139,826.8131713867188,790.952392578125,781.6849975585938,826.00732421875
1140,824.7985229492188,788.937744140625,780.0732421875,824.7985229492188
1141,819.5604248046875,790.1465454101562,777.6557006835938,823.1868286132812
1142,822.3809814453125,785.3113403320312,780.0732421875,821.5750732421875
1143,821.5750732421875,783.6996459960938,780.879150390625,817.94873046875
1144,815.1282348632812,794.1758422851562,783.2966918945312,818.7545776367188
1145,811.90478515625,794.981689453125,785.7142944335938,814.3223266601562
1146,812.7106323242188,792.967041015625,782.893798828125,811.90478515625
1147,813.113525390625,792.1611938476562,782.087890625,815.5311279296875
1148,819.96337890625,791.7582397460938,784.1025390625,816.3369750976562
1149,823.99267578125,793.3699340820312,788.5347900390625,827.2161254882812
1150,825.6043701171875,796.1904907226562,793.7728881835938,827.2161254882812
1151,823.5897216796875,799.010986328125,789.7435913085938,816.7399291992188
1152,822.3809814453125,794.981689453125,789.3406372070312,818.7545776367188
1153,824.7985229492188,791.7582397460938,794.981689453125,823.99267578125
1154,826.4102783203125,793.7728881835938,796.5933837890625,817.94873046875
1155,826.4102783203125,800.2197875976562,790.1465454101562,811.098876953125
1156,819.1575317382812,801.4285888671875,790.1465454101562,813.91943359375
1157,817.1428833007812,800.6226806640625,790.5494384765625,813.5164794921875
1158,820.7692260742188,797.8021850585938,790.5494384765625,809.084228515625
1159,823.1868286132812,796.1904907226562,792.967041015625,804.6520385742188
1160,819.1575317382812,799.8168334960938,789.7435913085938,805.8607788085938
1161,813.5164794921875,805.4578857421875,787.3259887695312,805.8607788085938
1162,808.6813354492188,801.4285888671875,786.5201416015625,794.1758422851562
1163,805.8607788085938,794.5787353515625,785.7142944335938,792.5640869140625
1164,819.5604248046875,798.6080322265625,786.923095703125,803.8461303710938
1165,823.99267578125,796.996337890625,789.7435913085938,815.1282348632812
1166,805.4578857421875,790.1465454101562,797.3992919921875,813.91943359375
1167,794.981689453125,794.5787353515625,791.7582397460938,799.4139404296875
1168,793.3699340820312,799.8168334960938,785.3113403320312,795.7875366210938
1169,794.5787353515625,799.4139404296875,790.5494384765625,800.6226806640625
1170,796.996337890625,798.2051391601562,793.3699340820312,803.8461303710938
1171,801.8314819335938,795.3846435546875,796.1904907226562,807.87548828125
1172,803.4432373046875,790.1465454101562,793.3699340820312,810.6959838867188
1173,800.2197875976562,790.5494384765625,794.5787353515625,805.4578857421875
1174,795.7875366210938,789.3406372070312,794.1758422851562,797.3992919921875
1175,795.7875366210938,786.5201416015625,794.981689453125,791.7582397460938
1176,805.054931640625,788.5347900390625,798.2051391601562,795.7875366210938
1177,807.069580078125,794.1758422851562,797.8021850585938,801.8314819335938
1178,804.2490844726562,799.4139404296875,793.7728881835938,796.5933837890625
1179,803.040283203125,795.3846435546875,791.3552856445312,794.5787353515625
1180,804.6520385742188,794.5787353515625,796.5933837890625,799.8168334960938
1181,801.4285888671875,796.5933837890625,796.5933837890625,799.8168334960938
1182,802.6373901367188,794.1758422851562,792.1611938476562,794.5787353515625
1183,808.6813354492188,798.6080322265625,792.967041015625,799.8168334960938
1184,801.4285888671875,801.8314819335938,796.5933837890625,806.2637329101562
1185,794.5787353515625,791.7582397460938,797.8021850585938,798.6080322265625
1186,794.1758422851562,783.2966918945312,794.981689453125,791.3552856445312
1187,791.3552856445312,784.5054931640625,794.981689453125,794.981689453125
1188,787.7289428710938,783.2966918945312,798.2051391601562,794.5787353515625
1189,794.981689453125,782.893798828125,797.8021850585938,795.3846435546875
1190,796.996337890625,787.7289428710938,798.6080322265625,802.2344360351562
1191,790.5494384765625,789.7435913085938,798.2051391601562,796.1904907226562
1192,792.5640869140625,792.5640869140625,797.3992919921875,792.5640869140625
1193,794.5787353515625,793.7728881835938,799.8168334960938,794.1758422851562
1194,792.1611938476562,793.7728881835938,796.5933837890625,794.5787353515625
1195,789.7435913085938,794.1758422851562,793.3699340820312,797.3992919921875
1196,783.6996459960938,792.1611938476562,792.967041015625,794.1758422851562
1197,785.7142944335938,792.1611938476562,790.5494384765625,786.923095703125
1198,790.952392578125,792.967041015625,789.3406372070312,788.1318969726562
1199,791.7582397460938,787.3259887695312,790.1465454101562,791.3552856445312
1200,795.3846435546875,786.1171875,793.7728881835938,790.1465454101562
1201,798.2051391601562,790.5494384765625,796.996337890625,792.1611938476562
1202,793.3699340820312,795.7875366210938,792.967041015625,791.7582397460938
1203,792.1611938476562,792.5640869140625,791.3552856445312,790.952392578125
1204,796.996337890625,788.5347900390625,794.981689453125,793.7728881835938
1205,799.010986328125,794.1758422851562,794.1758422851562,790.1465454101562
1206,808.2783813476562,796.5933837890625,790.952392578125,795.3846435546875
1207,807.87548828125,799.8168334960938,792.1611938476562,796.996337890625
1208,798.6080322265625,801.025634765625,792.1611938476562,786.5201416015625
1209,798.6080322265625,795.7875366210938,790.1465454101562,787.7289428710938
1210,803.040283203125,794.5787353515625,792.1611938476562,792.967041015625
1211,805.054931640625,794.1758422851562,792.5640869140625,794.1758422851562
1212,802.2344360351562,791.3552856445312,796.996337890625,795.7875366210938
1213,799.8168334960938,791.7582397460938,798.2051391601562,798.2051391601562
1214,800.2197875976562,790.5494384765625,794.981689453125,800.6226806640625
1215,804.6520385742188,788.937744140625,799.4139404296875,806.2637329101562
1216,805.4578857421875,791.3552856445312,801.8314819335938,807.069580078125
1217,799.8168334960938,790.5494384765625,796.996337890625,795.7875366210938
1218,795.7875366210938,783.6996459960938,794.981689453125,791.7582397460938
1219,790.952392578125,783.6996459960938,793.3699340820312,794.1758422851562
1220,789.7435913085938,787.7289428710938,791.7582397460938,794.1758422851562
1221,793.7728881835938,784.908447265625,791.7582397460938,796.5933837890625
1222,789.3406372070312,785.7142944335938,794.1758422851562,795.3846435546875
1223,793.3699340820312,789.3406372070312,799.8168334960938,788.1318969726562
1224,801.025634765625,786.5201416015625,803.4432373046875,790.5494384765625
1225,804.2490844726562,787.3259887695312,800.2197875976562,794.981689453125
1226,806.6666870117188,791.3552856445312,797.3992919921875,790.1465454101562
1227,806.6666870117188,792.1611938476562,800.2197875976562,793.3699340820312
1228,809.89013671875,788.937744140625,801.025634765625,800.6226806640625
1229,809.89013671875,784.5054931640625,796.1904907226562,795.7875366210938
1230,809.89013671875,786.1171875,793.3699340820312,788.1318969726562
1231,809.89013671875,789.7435913085938,791.3552856445312,789.7435913085938
1232,806.2637329101562,794.1758422851562,791.3552856445312,792.5640869140625
1233,807.069580078125,791.7582397460938,794.1758422851562,798.6080322265625
1234,801.025634765625,786.5201416015625,793.3699340820312,796.996337890625
1235,794.5787353515625,785.7142944335938,792.1611938476562,787.7289428710938
1236,800.6226806640625,790.5494384765625,795.7875366210938,791.7582397460938
1237,802.6373901367188,794.1758422851562,796.1904907226562,794.5787353515625
1238,794.981689453125,788.937744140625,795.7875366210938,794.981689453125
1239,790.5494384765625,788.1318969726562,798.2051391601562,795.3846435546875
1240,796.5933837890625,792.5640869140625,795.3846435546875,796.1904907226562
1241,794.5787353515625,791.7582397460938,793.3699340820312,799.4139404296875
1242,789.7435913085938,791.3552856445312,795.3846435546875,801.8314819335938
1243,792.967041015625,791.3552856445312,795.3846435546875,796.5933837890625
1244,789.3406372070312,791.3552856445312,792.1611938476562,792.1611938476562
1245,787.7289428710938,796.1904907226562,791.7582397460938,799.8168334960938
1246,793.7728881835938,795.7875366210938,791.7582397460938,798.2051391601562
1247,796.996337890625,790.5494384765625,791.3552856445312,789.3406372070312
1248,796.1904907226562,788.937744140625,791.3552856445312,787.7289428710938
1249,797.8021850585938,783.6996459960938,789.3406372070312,788.937744140625
1250,797.8021850585938,786.923095703125,790.952392578125,789.3406372070312
1251,796.1904907226562,795.7875366210938,794.5787353515625,786.5201416015625
1252,793.7728881835938,795.3846435546875,793.3699340820312,780.0732421875
1253,788.1318969726562,787.7289428710938,789.3406372070312,775.6410522460938
1254,784.908447265625,784.5054931640625,788.937744140625,778.4615478515625
1255,786.5201416015625,786.5201416015625,792.1611938476562,776.0439453125
1256,791.3552856445312,787.7289428710938,789.3406372070312,781.6849975585938
1257,794.981689453125,794.1758422851562,790.1465454101562,794.981689453125
1258,793.7728881835938,801.4285888671875,795.3846435546875,792.1611938476562
1259,793.3699340820312,799.4139404296875,796.996337890625,788.5347900390625
1260,799.4139404296875,796.996337890625,803.040283203125,791.3552856445312
1261,804.6520385742188,802.2344360351562,805.8607788085938,793.3699340820312
1262,796.5933837890625,802.2344360351562,803.4432373046875,788.1318969726562
1263,791.7582397460938,793.7728881835938,799.8168334960938,785.7142944335938
1264,796.996337890625,789.3406372070312,796.5933837890625,791.7582397460938
1265,799.8168334960938,795.7875366210938,800.2197875976562,795.7875366210938
1266,799.4139404296875,799.4139404296875,797.8021850585938,790.952392578125
1267,802.2344360351562,798.6080322265625,794.1758422851562,790.952392578125
1268,801.8314819335938,801.4285888671875,795.3846435546875,802.6373901367188
1269,797.3992919921875,800.6226806640625,791.7582397460938,801.4285888671875
1270,791.3552856445312,798.6080322265625,791.3552856445312,796.996337890625
1271,791.3552856445312,797.3992919921875,793.7728881835938,804.6520385742188
1272,795.7875366210938,795.7875366210938,796.5933837890625,805.4578857421875
1273,794.981689453125,795.3846435546875,799.010986328125,799.8168334960938
1274,788.5347900390625,792.1611938476562,794.1758422851562,792.1611938476562
1275,788.5347900390625,791.7582397460938,796.996337890625,789.3406372070312
1276,792.967041015625,794.981689453125,801.4285888671875,791.7582397460938
1277,789.3406372070312,791.3552856445312,796.1904907226562,792.5640869140625
1278,789.7435913085938,792.5640869140625,791.7582397460938,788.5347900390625
1279,798.6080322265625,797.3992919921875,792.967041015625,794.5787353515625
1280,793.7728881835938,796.996337890625,796.5933837890625,797.8021850585938
1281,788.1318969726562,796.5933837890625,799.010986328125,794.1758422851562
1282,791.7582397460938,794.1758422851562,798.6080322265625,798.2051391601562
1283,791.3552856445312,794.5787353515625,799.010986328125,800.2197875976562
1284,787.3259887695312,796.5933837890625,798.6080322265625,794.5787353515625
1285,786.1171875,800.2197875976562,796.996337890625,791.3552856445312
1286,785.3113403320312,797.3992919921875,796.5933837890625,798.2051391601562
1287,785.3113403320312,794.981689453125,794.1758422851562,791.3552856445312
1288,789.7435913085938,800.6226806640625,795.7875366210938,784.1025390625
1289,784.1025390625,794.1758422851562,794.981689453125,783.2966918945312
1290,783.6996459960938,784.1025390625,788.937744140625,783.2966918945312
1291,791.3552856445312,791.3552856445312,790.5494384765625,793.7728881835938
1292,789.7435913085938,797.3992919921875,794.5787353515625,797.3992919921875
1293,786.1171875,793.3699340820312,795.3846435546875,792.5640869140625
1294,783.6996459960938,793.3699340820312,796.996337890625,791.3552856445312
1295,786.1171875,793.3699340820312,796.5933837890625,791.3552856445312
1296,795.3846435546875,794.1758422851562,798.6080322265625,794.1758422851562
1297,797.8021850585938,793.7728881835938,801.8314819335938,796.996337890625
1298,797.3992919921875,791.7582397460938,802.6373901367188,801.4285888671875
1299,797.3992919921875,788.937744140625,799.8168334960938,803.4432373046875
1300,796.1904907226562,794.1758422851562,801.4285888671875,797.3992919921875
1301,800.6226806640625,796.5933837890625,801.025634765625,794.981689453125
1302,800.2197875976562,790.1465454101562,795.7875366210938,792.967041015625
1303,795.7875366210938,793.3699340820312,798.2051391601562,789.3406372070312
1304,792.967041015625,800.6226806640625,799.8168334960938,787.3259887695312
1305,799.8168334960938,801.4285888671875,796.1904907226562,791.3552856445312
1306,801.025634765625,799.8168334960938,794.5787353515625,793.7728881835938
1307,802.6373901367188,803.040283203125,794.981689453125,799.8168334960938
1308,805.054931640625,802.6373901367188,790.952392578125,798.6080322265625
1309,801.4285888671875,801.025634765625,792.5640869140625,790.5494384765625
1310,797.8021850585938,800.6226806640625,794.1758422851562,790.1465454101562
1311,791.7582397460938,800.6226806640625,793.3699340820312,784.5054931640625
1312,795.7875366210938,800.2197875976562,796.1904907226562,782.4908447265625
1313,797.3992919921875,799.010986328125,797.3992919921875,789.7435913085938
1314,793.3699340820312,795.3846435546875,797.3992919921875,790.952392578125
1315,790.1465454101562,793.7728881835938,796.1904907226562,783.6996459960938
1316,789.7435913085938,796.996337890625,796.1904907226562,779.2673950195312
1317,794.981689453125,797.8021850585938,796.1904907226562,786.5201416015625
1318,792.967041015625,796.5933837890625,797.8021850585938,793.3699340820312
1319,786.923095703125,796.5933837890625,799.8168334960938,793.7728881835938
1320,783.6996459960938,791.7582397460938,797.3992919921875,788.5347900390625
1321,785.3113403320312,790.5494384765625,795.7875366210938,788.1318969726562
1322,794.1758422851562,793.7728881835938,798.2051391601562,797.8021850585938
1323,797.3992919921875,789.3406372070312,801.8314819335938,803.040283203125
1324,790.1465454101562,793.3699340820312,801.8314819335938,796.996337890625
1325,787.3259887695312,796.5933837890625,799.4139404296875,796.1904907226562
1326,788.5347900390625,792.1611938476562,799.4139404296875,795.7875366210938
1327,792.5640869140625,791.7582397460938,801.025634765625,789.3406372070312
1328,797.3992919921875,794.981689453125,801.4285888671875,786.923095703125
1329,792.967041015625,790.952392578125,801.025634765625,788.1318969726562
1330,786.1171875,788.937744140625,800.2197875976562,788.1318969726562
1331,788.1318969726562,792.1611938476562,801.4285888671875,787.7289428710938
1332,794.981689453125,793.7728881835938,796.5933837890625,790.5494384765625
1333,794.981689453125,793.3699340820312,794.981689453125,792.967041015625
1334,793.3699340820312,790.1465454101562,792.967041015625,788.937744140625
1335,787.3259887695312,792.1611938476562,790.5494384765625,784.908447265625
1336,785.7142944335938,793.3699340820312,792.967041015625,789.3406372070312
1337,787.3259887695312,792.5640869140625,795.7875366210938,790.5494384765625
1338,788.5347900390625,791.3552856445312,796.996337890625,790.5494384765625
1339,788.1318969726562,790.5494384765625,792.967041015625,791.3552856445312
1340,788.937744140625,795.7875366210938,793.7728881835938,794.981689453125
1341,794.1758422851562,798.2051391601562,799.4139404296875,801.8314819335938
1342,793.3699340820312,796.5933837890625,802.6373901367188,794.5787353515625
1343,786.5201416015625,794.981689453125,796.996337890625,787.3259887695312
1344,788.1318969726562,794.981689453125,796.1904907226562,787.7289428710938
1345,786.5201416015625,794.1758422851562,801.025634765625,784.908447265625
1346,781.6849975585938,792.967041015625,799.010986328125,787.3259887695312
1347,785.3113403320312,794.5787353515625,794.981689453125,788.937744140625
1348,790.952392578125,792.1611938476562,796.1904907226562,782.4908447265625
1349,790.5494384765625,785.3113403320312,796.5933837890625,788.5347900390625
1350,786.923095703125,787.3259887695312,794.5787353515625,799.4139404296875
1351,781.6849975585938,792.1611938476562,791.3552856445312,794.5787353515625
1352,781.6849975585938,792.1611938476562,790.1465454101562,799.4139404296875
1353,786.5201416015625,792.5640869140625,795.7875366210938,806.2637329101562
1354,782.087890625,789.3406372070312,793.3699340820312,788.1318969726562
1355,781.2820434570312,788.1318969726562,793.3699340820312,784.5054931640625
1356,785.7142944335938,788.937744140625,798.6080322265625,791.3552856445312
1357,784.908447265625,786.923095703125,794.5787353515625,788.1318969726562
1358,782.893798828125,787.3259887695312,786.923095703125,782.087890625
1359,788.5347900390625,788.1318969726562,787.7289428710938,778.05859375
1360,790.5494384765625,788.5347900390625,792.1611938476562,781.2820434570312
1361,788.5347900390625,790.5494384765625,792.1611938476562,786.5201416015625
1362,790.1465454101562,796.996337890625,792.1611938476562,790.1465454101562
1363,796.996337890625,798.6080322265625,794.5787353515625,794.981689453125
1364,795.7875366210938,800.2197875976562,794.1758422851562,800.6226806640625
1365,788.5347900390625,803.8461303710938,795.3846435546875,796.996337890625
1366,784.1025390625,800.2197875976562,793.3699340820312,788.1318969726562
1367,782.4908447265625,796.996337890625,792.1611938476562,788.1318969726562
1368,790.952392578125,800.2197875976562,796.5933837890625,793.3699340820312
1369,794.981689453125,800.6226806640625,796.5933837890625,792.5640869140625
1370,794.5787353515625,799.010986328125,794.1758422851562,791.3552856445312
1371,789.3406372070312,796.5933837890625,790.952392578125,787.3259887695312
1372,785.3113403320312,797.8021850585938,790.1465454101562,785.7142944335938
1373,788.937744140625,799.010986328125,789.7435913085938,785.3113403320312
1374,790.952392578125,788.937744140625,786.923095703125,780.879150390625
1375,792.967041015625,786.5201416015625,786.1171875,787.7289428710938
1376,788.937744140625,790.952392578125,790.952392578125,792.967041015625
1377,787.7289428710938,793.3699340820312,797.8021850585938,791.3552856445312
1378,793.3699340820312,793.7728881835938,800.6226806640625,797.8021850585938
1379,797.3992919921875,792.1611938476562,798.2051391601562,797.8021850585938
1380,794.981689453125,790.952392578125,794.5787353515625,790.5494384765625
1381,782.893798828125,790.5494384765625,793.7728881835938,789.3406372070312
1382,778.8644409179688,789.3406372070312,799.010986328125,794.5787353515625
1383,786.1171875,788.937744140625,802.6373901367188,800.6226806640625
1384,786.923095703125,788.937744140625,801.8314819335938,798.6080322265625
1385,789.3406372070312,791.7582397460938,805.4578857421875,798.2051391601562
1386,795.3846435546875,792.967041015625,801.8314819335938,800.6226806640625
1387,796.5933837890625,792.1611938476562,800.2197875976562,799.8168334960938
1388,794.981689453125,790.952392578125,798.6080322265625,800.2197875976562
1389,795.3846435546875,789.7435913085938,793.7728881835938,796.996337890625
1390,796.996337890625,789.3406372070312,792.967041015625,791.3552856445312
1391,799.8168334960938,789.3406372070312,793.7728881835938,791.3552856445312
1392,800.6226806640625,794.1758422851562,795.3846435546875,787.7289428710938
1393,807.4725341796875,800.2197875976562,792.5640869140625,785.7142944335938
1394,808.6813354492188,798.6080322265625,793.7728881835938,788.5347900390625
1395,805.4578857421875,793.7728881835938,795.3846435546875,789.7435913085938
1396,803.040283203125,791.7582397460938,793.7728881835938,787.3259887695312
1397,792.5640869140625,792.967041015625,792.1611938476562,779.2673950195312
1398,787.7289428710938,790.952392578125,792.1611938476562,782.4908447265625
1399,790.5494384765625,791.7582397460938,794.5787353515625,790.952392578125
1400,796.5933837890625,796.996337890625,799.4139404296875,791.3552856445312
1401,799.4139404296875,798.2051391601562,799.010986328125,790.952392578125
1402,795.3846435546875,792.1611938476562,795.3846435546875,788.1318969726562
1403,792.1611938476562,790.5494384765625,795.3846435546875,788.5347900390625
1404,794.981689453125,793.7728881835938,799.4139404296875,791.3552856445312
1405,794.1758422851562,792.1611938476562,802.6373901367188,795.3846435546875
1406,791.7582397460938,797.8021850585938,800.2197875976562,800.2197875976562
1407,790.5494384765625,801.025634765625,800.2197875976562,798.2051391601562
1408,789.7435913085938,795.7875366210938,799.8168334960938,787.7289428710938
1409,791.3552856445312,792.5640869140625,797.3992919921875,783.6996459960938
1410,794.981689453125,794.1758422851562,795.7875366210938,790.5494384765625
1411,796.5933837890625,795.7875366210938,792.967041015625,785.3113403320312
1412,790.5494384765625,791.3552856445312,792.5640869140625,776.0439453125
1413,790.5494384765625,788.5347900390625,798.6080322265625,775.6410522460938
1414,791.7582397460938,788.1318969726562,798.2051391601562,782.4908447265625
1415,792.5640869140625,785.7142944335938,794.5787353515625,786.1171875
1416,792.5640869140625,786.5201416015625,799.010986328125,782.4908447265625
1417,789.3406372070312,791.3552856445312,802.2344360351562,788.1318969726562
1418,788.1318969726562,790.952392578125,803.040283203125,794.1758422851562
1419,784.1025390625,783.2966918945312,799.8168334960938,787.3259887695312
1420,783.2966918945312,784.5054931640625,796.996337890625,783.6996459960938
1421,784.5054931640625,792.1611938476562,797.8021850585938,790.5494384765625
1422,779.6703491210938,792.1611938476562,799.4139404296875,788.5347900390625
1423,783.2966918945312,795.3846435546875,802.2344360351562,790.1465454101562
1424,788.5347900390625,797.8021850585938,805.054931640625,794.1758422851562
1425,785.3113403320312,789.3406372070312,796.996337890625,794.5787353515625
1426,780.4761962890625,786.5201416015625,789.7435913085938,795.7875366210938
1427,776.4468994140625,788.5347900390625,790.5494384765625,787.3259887695312
1428,776.0439453125,788.1318969726562,790.5494384765625,780.4761962890625
1429,778.8644409179688,789.3406372070312,792.967041015625,778.4615478515625
1430,789.7435913085938,788.937744140625,795.3846435546875,781.2820434570312
1431,793.7728881835938,784.908447265625,795.7875366210938,780.0732421875
1432,793.7728881835938,787.3259887695312,794.981689453125,779.6703491210938
1433,797.3992919921875,789.3406372070312,795.7875366210938,787.3259887695312
1434,799.010986328125,793.3699340820312,795.3846435546875,784.908447265625
1435,800.2197875976562,795.3846435546875,794.981689453125,783.2966918945312
1436,796.5933837890625,793.3699340820312,797.8021850585938,789.3406372070312
1437,796.5933837890625,794.1758422851562,799.4139404296875,795.7875366210938
1438,798.6080322265625,797.8021850585938,799.010986328125,792.1611938476562
1439,792.967041015625,795.7875366210938,796.996337890625,782.4908447265625
1440,796.5933837890625,796.1904907226562,796.5933837890625,790.1465454101562
1441,798.6080322265625,794.1758422851562,799.8168334960938,793.7728881835938
1442,794.981689453125,789.7435913085938,800.6226806640625,789.3406372070312
1443,792.967041015625,790.1465454101562,803.4432373046875,794.5787353515625
1444,788.5347900390625,791.3552856445312,805.054931640625,794.1758422851562
1445,784.1025390625,791.3552856445312,797.8021850585938,788.1318969726562
1446,784.5054931640625,786.923095703125,795.3846435546875,788.937744140625
1447,785.7142944335938,784.908447265625,798.6080322265625,785.3113403320312
1448,785.3113403320312,786.923095703125,796.996337890625,788.937744140625
1449,782.893798828125,786.5201416015625,798.6080322265625,792.967041015625
1450,783.6996459960938,785.3113403320312,802.2344360351562,782.4908447265625
1451,789.7435913085938,786.5201416015625,796.996337890625,779.6703491210938
1452,791.3552856445312,786.5201416015625,794.1758422851562,780.4761962890625
1453,786.5201416015625,787.7289428710938,792.5640869140625,777.6557006835938
1454,784.5054931640625,787.3259887695312,795.7875366210938,776.0439453125
1455,790.1465454101562,785.7142944335938,799.8168334960938,777.6557006835938
1456,790.1465454101562,783.6996459960938,797.8021850585938,779.2673950195312
1457,786.923095703125,784.1025390625,794.5787353515625,776.8497924804688
1458,790.5494384765625,791.3552856445312,793.3699340820312,778.05859375
1459,791.3552856445312,792.1611938476562,793.7728881835938,776.4468994140625
1460,792.1611938476562,790.1465454101562,787.7289428710938,779.6703491210938
1461,790.5494384765625,789.3406372070312,780.0732421875,778.4615478515625
1462,789.7435913085938,786.923095703125,784.5054931640625,772.8204956054688
1463,786.923095703125,790.1465454101562,789.7435913085938,776.8497924804688
1464,789.3406372070312,793.7728881835938,789.3406372070312,782.4908447265625
1465,792.967041015625,795.3846435546875,792.5640869140625,787.7289428710938
1466,795.3846435546875,798.2051391601562,794.5787353515625,791.7582397460938
1467,797.8021850585938,802.2344360351562,799.010986328125,799.4139404296875
1468,792.1611938476562,804.6520385742188,798.6080322265625,805.4578857421875
1469,792.5640869140625,802.6373901367188,794.981689453125,806.6666870117188
1470,797.8021850585938,798.2051391601562,796.5933837890625,803.8461303710938
1471,796.1904907226562,798.2051391601562,795.3846435546875,801.8314819335938
1472,796.5933837890625,796.5933837890625,793.7728881835938,798.6080322265625
1473,793.3699340820312,795.3846435546875,796.5933837890625,793.3699340820312
1474,792.5640869140625,800.6226806640625,796.996337890625,796.1904907226562
1475,797.3992919921875,799.8168334960938,798.2051391601562,800.2197875976562
1476,794.981689453125,797.3992919921875,799.010986328125,796.996337890625
1477,795.7875366210938,800.6226806640625,798.6080322265625,792.1611938476562
1478,796.5933837890625,801.025634765625,796.996337890625,787.3259887695312
1479,792.1611938476562,794.5787353515625,792.967041015625,784.908447265625
1480,794.1758422851562,792.5640869140625,794.981689453125,787.7289428710938
1481,795.3846435546875,794.1758422851562,796.996337890625,788.1318969726562
1482,792.1611938476562,791.3552856445312,794.1758422851562,783.2966918945312
1483,785.7142944335938,786.1171875,791.7582397460938,784.908447265625
1484,785.3113403320312,788.937744140625,795.3846435546875,788.5347900390625
1485,788.5347900390625,794.5787353515625,798.2051391601562,784.5054931640625
1486,785.3113403320312,788.937744140625,792.1611938476562,780.879150390625
1487,785.7142944335938,790.952392578125,791.3552856445312,782.4908447265625
1488,786.923095703125,794.5787353515625,796.1904907226562,788.1318969726562
1489,781.6849975585938,791.3552856445312,794.1758422851562,788.5347900390625
1490,781.6849975585938,790.952392578125,792.5640869140625,787.3259887695312
1491,784.1025390625,793.3699340820312,792.967041015625,783.6996459960938
1492,787.7289428710938,795.3846435546875,793.7728881835938,781.2820434570312
1493,794.5787353515625,795.7875366210938,794.5787353515625,790.1465454101562
1494,793.3699340820312,794.981689453125,794.5787353515625,792.967041015625
1495,793.3699340820312,792.5640869140625,790.1465454101562,788.5347900390625
1496,798.6080322265625,797.3992919921875,788.5347900390625,790.952392578125
1497,802.6373901367188,797.8021850585938,792.1611938476562,798.2051391601562
1498,799.8168334960938,797.8021850585938,789.3406372070312,797.3992919921875
1499,794.5787353515625,797.3992919921875,787.7289428710938,789.7435913085938
1500,793.7728881835938,796.5933837890625,792.967041015625,791.7582397460938
1501,794.5787353515625,796.5933837890625,791.3552856445312,791.3552856445312
1502,797.3992919921875,796.1904907226562,789.3406372070312,798.6080322265625
1503,788.937744140625,797.3992919921875,789.7435913085938,800.2197875976562
1504,789.3406372070312,795.3846435546875,792.1611938476562,791.3552856445312
1505,791.7582397460938,793.7728881835938,792.967041015625,785.3113403320312
1506,783.2966918945312,796.996337890625,790.1465454101562,782.087890625
1507,787.3259887695312,799.4139404296875,797.3992919921875,786.5201416015625
1508,788.1318969726562,798.2051391601562,800.6226806640625,788.1318969726562
1509,784.1025390625,793.3699340820312,796.996337890625,786.5201416015625
1510,774.4322509765625,787.7289428710938,788.937744140625,784.908447265625
1511,774.4322509765625,790.952392578125,788.5347900390625,781.2820434570312
1512,787.7289428710938,791.3552856445312,794.5787353515625,781.6849975585938
1513,791.7582397460938,788.1318969726562,793.3699340820312,784.908447265625
1514,790.1465454101562,787.3259887695312,791.3552856445312,779.2673950195312
1515,794.981689453125,791.3552856445312,797.8021850585938,781.2820434570312
1516,797.8021850585938,795.3846435546875,797.8021850585938,785.3113403320312
1517,806.6666870117188,801.8314819335938,793.3699340820312,789.7435913085938
1518,813.5164794921875,801.4285888671875,794.5787353515625,792.967041015625
1519,811.90478515625,793.7728881835938,795.3846435546875,793.3699340820312
1520,807.069580078125,793.7728881835938,794.5787353515625,791.7582397460938
1521,806.2637329101562,797.3992919921875,795.7875366210938,794.5787353515625
1522,812.3076782226562,801.8314819335938,799.8168334960938,802.2344360351562
1523,809.4871826171875,799.010986328125,800.6226806640625,801.025634765625
1524,800.2197875976562,793.3699340820312,800.2197875976562,801.025634765625
1525,788.5347900390625,792.1611938476562,797.3992919921875,803.040283203125
1526,786.1171875,789.3406372070312,795.7875366210938,805.8607788085938
1527,787.3259887695312,786.923095703125,796.1904907226562,803.040283203125
1528,784.908447265625,790.5494384765625,797.3992919921875,801.8314819335938
1529,784.908447265625,793.7728881835938,802.2344360351562,802.6373901367188
1530,782.893798828125,788.937744140625,805.4578857421875,803.4432373046875
1531,779.2673950195312,786.1171875,804.2490844726562,799.8168334960938
1532,777.6557006835938,790.1465454101562,796.996337890625,794.1758422851562
1533,781.2820434570312,794.981689453125,796.996337890625,796.996337890625
1534,779.6703491210938,796.5933837890625,796.5933837890625,788.1318969726562
1535,776.8497924804688,793.7728881835938,790.1465454101562,774.8351440429688
1536,781.2820434570312,793.3699340820312,792.967041015625,773.2234497070312
1537,789.3406372070312,795.3846435546875,799.010986328125,773.2234497070312
1538,787.7289428710938,795.7875366210938,793.3699340820312,771.2088012695312
1539,787.7289428710938,794.5787353515625,790.5494384765625,772.8204956054688
1540,793.3699340820312,797.8021850585938,792.1611938476562,778.4615478515625
1541,796.5933837890625,801.4285888671875,790.5494384765625,782.4908447265625
1542,805.4578857421875,802.2344360351562,794.981689453125,783.6996459960938
1543,807.4725341796875,799.4139404296875,792.967041015625,782.4908447265625
1544,802.2344360351562,798.6080322265625,788.5347900390625,788.5347900390625
1545,799.4139404296875,801.025634765625,790.1465454101562,796.996337890625
1546,799.8168334960938,802.2344360351562,791.3552856445312,796.1904907226562
1547,800.2197875976562,803.4432373046875,787.3259887695312,794.981689453125
1548,799.010986328125,805.054931640625,789.7435913085938,796.996337890625
1549,794.5787353515625,805.8607788085938,793.3699340820312,804.6520385742188
1550,787.7289428710938,801.4285888671875,789.3406372070312,799.4139404296875
1551,788.937744140625,797.8021850585938,792.1611938476562,798.6080322265625
1552,790.952392578125,796.5933837890625,796.1904907226562,803.8461303710938
1553,789.7435913085938,789.7435913085938,797.3992919921875,797.8021850585938
1554,788.5347900390625,787.3259887695312,799.010986328125,797.8021850585938
1555,785.3113403320312,788.937744140625,796.996337890625,799.4139404296875
1556,778.8644409179688,786.1171875,797.8021850585938,799.4139404296875
1557,780.0732421875,790.1465454101562,802.6373901367188,794.5787353515625
1558,787.3259887695312,796.996337890625,805.8607788085938,790.5494384765625
1559,792.5640869140625,793.3699340820312,801.4285888671875,786.5201416015625
1560,797.3992919921875,792.1611938476562,800.2197875976562,781.2820434570312
1561,791.3552856445312,790.1465454101562,802.2344360351562,782.4908447265625
1562,784.1025390625,793.3699340820312,797.3992919921875,778.4615478515625
1563,787.3259887695312,795.7875366210938,797.8021850585938,784.5054931640625
1564,787.3259887695312,796.1904907226562,798.6080322265625,793.3699340820312
1565,788.5347900390625,796.1904907226562,796.996337890625,792.1611938476562
1566,783.2966918945312,784.5054931640625,788.5347900390625,782.087890625
1567,782.087890625,785.3113403320312,786.923095703125,784.5054931640625
1568,790.1465454101562,797.3992919921875,792.967041015625,793.3699340820312
1569,790.5494384765625,798.2051391601562,793.3699340820312,785.7142944335938
1570,786.923095703125,792.5640869140625,795.3846435546875,786.5201416015625
1571,782.893798828125,788.1318969726562,793.3699340820312,787.7289428710938
1572,777.6557006835938,788.5347900390625,792.1611938476562,786.1171875
1573,777.6557006835938,788.1318969726562,794.1758422851562,788.937744140625
1574,785.3113403320312,792.1611938476562,797.8021850585938,794.5787353515625
1575,786.5201416015625,791.7582397460938,801.4285888671875,794.981689453125
1576,786.5201416015625,790.952392578125,802.2344360351562,799.4139404296875
1577,791.7582397460938,792.5640869140625,803.040283203125,809.084228515625
1578,792.967041015625,792.967041015625,801.4285888671875,807.069580078125
1579,795.3846435546875,792.5640869140625,797.3992919921875,807.069580078125
1580,791.7582397460938,794.981689453125,799.4139404296875,801.8314819335938
1581,786.1171875,795.3846435546875,800.2197875976562,790.952392578125
1582,792.5640869140625,796.1904907226562,799.010986328125,796.1904907226562
1583,796.1904907226562,802.6373901367188,800.6226806640625,801.025634765625
