timestamp,RAW_TP9,RAW_AF7,RAW_AF8,RAW_TP10
1,793.7728881835938,787.7289428710938,790.952392578125,790.952392578125
2,792.5640869140625,791.3552856445312,791.3552856445312,790.5494384765625
3,793.7728881835938,788.937744140625,790.5494384765625,794.5787353515625
4,789.7435913085938,790.1465454101562,788.937744140625,798.2051391601562
5,785.3113403320312,793.3699340820312,790.1465454101562,799.4139404296875
6,780.0732421875,785.7142944335938,792.5640869140625,794.5787353515625
7,784.908447265625,786.5201416015625,792.5640869140625,800.2197875976562
8,796.1904907226562,788.937744140625,790.5494384765625,805.054931640625
9,794.5787353515625,788.5347900390625,792.5640869140625,793.7728881835938
10,792.1611938476562,790.952392578125,790.1465454101562,782.4908447265625
11,790.1465454101562,787.3259887695312,791.3552856445312,782.893798828125
12,793.3699340820312,784.5054931640625,793.7728881835938,790.1465454101562
13,795.3846435546875,783.2966918945312,792.967041015625,786.923095703125
14,789.7435913085938,779.6703491210938,799.010986328125,786.1171875
15,801.8314819335938,781.6849975585938,800.2197875976562,798.2051391601562
16,803.040283203125,785.7142944335938,798.6080322265625,802.6373901367188
17,794.981689453125,786.1171875,801.025634765625,801.4285888671875
18,793.3699340820312,785.3113403320312,799.4139404296875,801.4285888671875
19,789.7435913085938,780.0732421875,795.7875366210938,798.6080322265625
20,790.5494384765625,790.5494384765625,799.010986328125,801.025634765625
21,785.3113403320312,799.4139404296875,802.2344360351562,800.2197875976562
22,783.2966918945312,794.981689453125,799.010986328125,794.1758422851562
23,781.6849975585938,795.7875366210938,796.996337890625,787.3259887695312
24,779.2673950195312,794.1758422851562,796.5933837890625,791.7582397460938
25,784.1025390625,792.5640869140625,795.7875366210938,801.025634765625
26,790.1465454101562,794.1758422851562,796.5933837890625,798.6080322265625
27,790.5494384765625,789.3406372070312,794.5787353515625,792.5640869140625
28,787.7289428710938,783.6996459960938,794.5787353515625,790.1465454101562
29,789.3406372070312,782.087890625,793.7728881835938,786.923095703125
30,790.5494384765625,785.7142944335938,793.7728881835938,784.1025390625
31,793.3699340820312,789.3406372070312,793.7728881835938,794.5787353515625
32,792.5640869140625,791.7582397460938,794.5787353515625,800.2197875976562
33,786.923095703125,793.3699340820312,795.3846435546875,786.923095703125
34,787.3259887695312,790.5494384765625,791.7582397460938,787.7289428710938
35,789.7435913085938,789.3406372070312,789.7435913085938,792.5640869140625
36,787.3259887695312,784.1025390625,786.1171875,789.3406372070312
37,787.7289428710938,780.0732421875,784.908447265625,795.3846435546875
38,787.3259887695312,782.893798828125,785.7142944335938,801.025634765625
39,790.952392578125,789.7435913085938,783.2966918945312,802.6373901367188
40,799.8168334960938,792.5640869140625,790.1465454101562,807.87548828125
41,804.6520385742188,796.5933837890625,794.5787353515625,808.6813354492188
42,801.4285888671875,799.8168334960938,794.5787353515625,812.3076782226562
43,796.1904907226562,794.1758422851562,794.5787353515625,821.5750732421875
44,789.3406372070312,792.5640869140625,794.1758422851562,814.3223266601562
45,785.3113403320312,795.3846435546875,792.1611938476562,802.6373901367188
46,795.3846435546875,790.1465454101562,790.952392578125,805.8607788085938
47,802.2344360351562,790.1465454101562,792.5640869140625,812.3076782226562
48,798.2051391601562,795.3846435546875,792.5640869140625,811.5018310546875
49,792.1611938476562,790.1465454101562,794.1758422851562,808.6813354492188
50,784.5054931640625,783.2966918945312,791.7582397460938,802.2344360351562
51,793.3699340820312,783.6996459960938,788.1318969726562,799.4139404296875
52,801.8314819335938,789.7435913085938,788.5347900390625,802.2344360351562
53,795.7875366210938,793.3699340820312,791.3552856445312,800.2197875976562
54,787.3259887695312,788.1318969726562,794.981689453125,805.4578857421875
55,782.087890625,784.1025390625,794.981689453125,809.4871826171875
56,786.5201416015625,790.5494384765625,798.2051391601562,798.2051391601562
57,795.3846435546875,796.1904907226562,800.2197875976562,797.8021850585938
58,795.7875366210938,796.1904907226562,797.3992919921875,804.6520385742188
59,793.7728881835938,799.010986328125,799.8168334960938,805.8607788085938
60,792.967041015625,798.6080322265625,803.040283203125,805.8607788085938
61,798.6080322265625,798.6080322265625,800.6226806640625,807.87548828125
62,801.4285888671875,796.1904907226562,799.4139404296875,800.6226806640625
63,797.8021850585938,793.3699340820312,799.010986328125,791.3552856445312
64,800.2197875976562,796.1904907226562,801.4285888671875,793.3699340820312
65,801.8314819335938,794.1758422851562,799.4139404296875,799.4139404296875
66,798.6080322265625,792.967041015625,796.996337890625,801.8314819335938
67,794.1758422851562,790.952392578125,797.3992919921875,795.7875366210938
68,789.3406372070312,789.3406372070312,794.5787353515625,794.981689453125
69,790.952392578125,792.1611938476562,795.7875366210938,801.8314819335938
70,794.1758422851562,790.952392578125,795.3846435546875,801.4285888671875
71,792.967041015625,788.937744140625,797.8021850585938,794.981689453125
72,797.3992919921875,789.3406372070312,799.8168334960938,799.4139404296875
73,796.5933837890625,790.5494384765625,794.981689453125,801.8314819335938
74,794.981689453125,793.7728881835938,795.3846435546875,797.3992919921875
75,797.3992919921875,799.4139404296875,799.4139404296875,798.6080322265625
76,792.967041015625,795.3846435546875,796.996337890625,798.6080322265625
77,786.1171875,792.1611938476562,796.1904907226562,801.025634765625
78,789.3406372070312,796.5933837890625,799.010986328125,802.2344360351562
79,788.1318969726562,798.2051391601562,798.2051391601562,792.967041015625
80,782.4908447265625,798.2051391601562,791.3552856445312,785.7142944335938
81,784.5054931640625,797.8021850585938,787.7289428710938,782.4908447265625
82,783.6996459960938,795.7875366210938,789.7435913085938,776.8497924804688
83,783.2966918945312,792.967041015625,790.1465454101562,781.2820434570312
84,789.3406372070312,794.1758422851562,792.5640869140625,781.6849975585938
85,787.3259887695312,786.923095703125,792.1611938476562,775.2380981445312
86,789.3406372070312,791.7582397460938,794.1758422851562,783.6996459960938
87,790.5494384765625,805.054931640625,795.7875366210938,784.908447265625
88,785.3113403320312,799.010986328125,794.5787353515625,781.6849975585938
89,784.908447265625,792.1611938476562,794.981689453125,794.1758422851562
90,782.087890625,793.7728881835938,795.7875366210938,792.1611938476562
91,780.4761962890625,787.7289428710938,795.3846435546875,782.4908447265625
92,782.4908447265625,786.5201416015625,793.7728881835938,786.5201416015625
93,780.0732421875,791.3552856445312,791.7582397460938,788.937744140625
94,781.2820434570312,790.952392578125,792.5640869140625,788.937744140625
95,786.1171875,785.3113403320312,791.7582397460938,790.952392578125
96,788.5347900390625,780.879150390625,792.967041015625,796.1904907226562
97,789.3406372070312,791.7582397460938,792.1611938476562,792.5640869140625
98,785.7142944335938,794.5787353515625,791.3552856445312,781.6849975585938
99,782.4908447265625,793.7728881835938,793.7728881835938,778.05859375
100,779.2673950195312,800.2197875976562,794.981689453125,774.8351440429688
101,776.8497924804688,797.8021850585938,797.3992919921875,768.7911987304688
102,779.6703491210938,794.5787353515625,797.3992919921875,771.2088012695312
103,782.087890625,794.1758422851562,796.5933837890625,780.0732421875
104,784.5054931640625,788.5347900390625,794.1758422851562,792.5640869140625
105,788.5347900390625,784.1025390625,793.7728881835938,793.7728881835938
106,790.5494384765625,788.1318969726562,797.8021850585938,784.1025390625
107,791.7582397460938,786.923095703125,802.2344360351562,785.3113403320312
108,794.981689453125,784.1025390625,802.6373901367188,788.5347900390625
109,790.5494384765625,788.937744140625,796.5933837890625,790.1465454101562
110,787.3259887695312,792.1611938476562,794.981689453125,794.1758422851562
111,788.5347900390625,790.1465454101562,796.5933837890625,801.8314819335938
112,788.5347900390625,784.908447265625,796.996337890625,807.87548828125
113,788.5347900390625,789.3406372070312,797.3992919921875,803.040283203125
114,790.5494384765625,792.1611938476562,799.010986328125,803.8461303710938
115,794.981689453125,791.7582397460938,799.010986328125,811.90478515625
116,796.5933837890625,788.5347900390625,796.5933837890625,808.2783813476562
117,801.025634765625,782.893798828125,795.3846435546875,795.7875366210938
118,804.2490844726562,782.893798828125,792.967041015625,792.967041015625
119,801.4285888671875,792.967041015625,792.967041015625,790.1465454101562
120,792.5640869140625,788.1318969726562,793.3699340820312,790.1465454101562
121,786.923095703125,784.5054931640625,791.7582397460938,788.5347900390625
122,791.3552856445312,792.1611938476562,788.5347900390625,785.3113403320312
123,799.010986328125,794.981689453125,788.5347900390625,789.3406372070312
124,799.010986328125,792.1611938476562,790.1465454101562,792.967041015625
125,793.7728881835938,787.7289428710938,787.7289428710938,792.967041015625
126,790.5494384765625,792.5640869140625,786.1171875,790.952392578125
127,786.1171875,795.3846435546875,791.3552856445312,794.1758422851562
128,782.893798828125,794.1758422851562,791.7582397460938,798.6080322265625
129,787.7289428710938,794.5787353515625,788.5347900390625,799.010986328125
130,790.5494384765625,796.1904907226562,791.3552856445312,798.2051391601562
131,789.7435913085938,794.5787353515625,794.981689453125,796.5933837890625
132,792.967041015625,797.3992919921875,798.2051391601562,798.2051391601562
133,787.3259887695312,800.2197875976562,794.981689453125,798.6080322265625
134,786.1171875,795.3846435546875,794.5787353515625,794.5787353515625
135,791.3552856445312,789.3406372070312,794.981689453125,800.2197875976562
136,786.923095703125,788.5347900390625,791.7582397460938,796.5933837890625
137,788.1318969726562,788.5347900390625,792.5640869140625,788.5347900390625
138,791.3552856445312,786.923095703125,793.3699340820312,788.937744140625
139,788.5347900390625,787.3259887695312,790.1465454101562,793.7728881835938
140,791.3552856445312,790.952392578125,796.1904907226562,796.1904907226562
141,786.1171875,786.1171875,803.040283203125,786.923095703125
142,779.2673950195312,786.1171875,797.3992919921875,784.1025390625
143,785.3113403320312,791.3552856445312,793.7728881835938,785.3113403320312
144,791.7582397460938,792.1611938476562,793.7728881835938,790.952392578125
145,792.1611938476562,788.5347900390625,793.3699340820312,791.7582397460938
146,791.3552856445312,793.3699340820312,796.5933837890625,789.7435913085938
147,794.1758422851562,799.8168334960938,797.3992919921875,792.967041015625
148,792.1611938476562,800.6226806640625,797.8021850585938,791.7582397460938
149,794.5787353515625,799.010986328125,799.010986328125,792.1611938476562
150,794.981689453125,796.5933837890625,794.1758422851562,790.952392578125
151,787.7289428710938,792.967041015625,793.3699340820312,792.1611938476562
152,782.087890625,789.3406372070312,793.3699340820312,794.981689453125
153,782.4908447265625,795.7875366210938,793.7728881835938,799.4139404296875
154,788.937744140625,795.3846435546875,796.996337890625,801.8314819335938
155,790.1465454101562,794.1758422851562,792.967041015625,795.7875366210938
156,789.7435913085938,797.8021850585938,792.967041015625,790.5494384765625
157,790.1465454101562,794.5787353515625,789.7435913085938,784.1025390625
158,795.3846435546875,794.1758422851562,783.2966918945312,784.908447265625
159,794.981689453125,791.3552856445312,788.1318969726562,786.1171875
160,794.5787353515625,792.967041015625,792.1611938476562,778.8644409179688
161,796.996337890625,796.5933837890625,787.7289428710938,781.2820434570312
162,798.2051391601562,791.7582397460938,789.3406372070312,792.1611938476562
163,796.996337890625,790.5494384765625,796.996337890625,795.7875366210938
164,796.1904907226562,789.7435913085938,799.010986328125,799.8168334960938
165,799.010986328125,789.3406372070312,795.7875366210938,800.6226806640625
166,793.7728881835938,794.5787353515625,797.8021850585938,802.2344360351562
167,788.5347900390625,788.1318969726562,797.8021850585938,805.4578857421875
168,791.3552856445312,793.7728881835938,796.996337890625,799.010986328125
169,790.5494384765625,800.6226806640625,797.3992919921875,799.010986328125
170,788.5347900390625,792.5640869140625,799.8168334960938,796.5933837890625
171,788.937744140625,790.952392578125,801.8314819335938,789.3406372070312
172,789.3406372070312,792.967041015625,801.8314819335938,790.5494384765625
173,788.5347900390625,791.7582397460938,796.996337890625,791.3552856445312
174,785.7142944335938,789.3406372070312,797.3992919921875,784.5054931640625
175,783.2966918945312,788.5347900390625,802.6373901367188,778.8644409179688
176,783.2966918945312,790.952392578125,801.8314819335938,778.8644409179688
177,781.6849975585938,791.7582397460938,795.7875366210938,778.4615478515625
178,777.2527465820312,790.952392578125,794.981689453125,784.5054931640625
179,775.6410522460938,791.7582397460938,799.8168334960938,787.7289428710938
180,780.879150390625,790.1465454101562,800.6226806640625,784.1025390625
181,788.937744140625,791.3552856445312,798.2051391601562,785.3113403320312
182,786.923095703125,795.7875366210938,795.7875366210938,786.923095703125
183,780.879150390625,793.3699340820312,798.6080322265625,784.908447265625
184,781.6849975585938,790.1465454101562,793.3699340820312,782.893798828125
185,786.1171875,784.1025390625,791.3552856445312,790.1465454101562
186,781.2820434570312,785.7142944335938,793.3699340820312,788.1318969726562
187,779.6703491210938,791.7582397460938,792.967041015625,776.8497924804688
188,790.1465454101562,791.3552856445312,796.996337890625,782.087890625
189,796.5933837890625,792.5640869140625,797.3992919921875,787.3259887695312
190,792.5640869140625,790.952392578125,795.3846435546875,790.1465454101562
191,794.1758422851562,790.5494384765625,796.996337890625,792.967041015625
192,802.6373901367188,788.937744140625,796.996337890625,794.1758422851562
193,799.4139404296875,786.1171875,794.981689453125,798.6080322265625
194,792.5640869140625,791.3552856445312,794.5787353515625,794.5787353515625
195,797.3992919921875,793.7728881835938,795.3846435546875,789.7435913085938
196,801.4285888671875,791.3552856445312,796.996337890625,800.6226806640625
197,794.1758422851562,786.5201416015625,799.4139404296875,804.6520385742188
198,786.923095703125,790.952392578125,799.010986328125,796.5933837890625
199,790.952392578125,790.5494384765625,799.4139404296875,802.2344360351562
200,794.5787353515625,785.7142944335938,800.6226806640625,802.2344360351562
201,794.5787353515625,789.7435913085938,797.8021850585938,794.1758422851562
202,798.2051391601562,792.967041015625,796.996337890625,794.5787353515625
203,796.1904907226562,796.5933837890625,797.3992919921875,796.1904907226562
204,796.996337890625,797.8021850585938,798.2051391601562,798.2051391601562
205,801.8314819335938,793.3699340820312,796.5933837890625,801.025634765625
206,801.025634765625,792.1611938476562,792.5640869140625,796.5933837890625
207,796.1904907226562,790.5494384765625,793.3699340820312,789.3406372070312
208,794.5787353515625,788.5347900390625,792.967041015625,788.5347900390625
209,787.3259887695312,786.1171875,791.3552856445312,787.3259887695312
210,788.1318969726562,784.1025390625,796.5933837890625,789.3406372070312
211,802.2344360351562,786.923095703125,798.2051391601562,795.3846435546875
212,797.8021850585938,786.5201416015625,794.1758422851562,803.040283203125
213,790.5494384765625,791.7582397460938,794.5787353515625,800.6226806640625
214,789.3406372070312,792.1611938476562,796.5933837890625,794.5787353515625
215,790.952392578125,787.7289428710938,794.981689453125,791.7582397460938
216,794.5787353515625,793.7728881835938,799.010986328125,791.7582397460938
217,795.7875366210938,796.5933837890625,798.2051391601562,794.981689453125
218,797.8021850585938,794.981689453125,793.7728881835938,793.7728881835938
219,795.3846435546875,796.996337890625,790.952392578125,793.3699340820312
220,799.8168334960938,797.8021850585938,788.1318969726562,796.1904907226562
221,796.5933837890625,799.4139404296875,790.1465454101562,792.5640869140625
222,790.5494384765625,802.6373901367188,792.967041015625,788.5347900390625
223,794.5787353515625,798.2051391601562,792.967041015625,800.2197875976562
224,792.967041015625,794.5787353515625,793.7728881835938,805.8607788085938
225,786.923095703125,789.7435913085938,790.952392578125,787.7289428710938
226,794.1758422851562,790.1465454101562,791.3552856445312,787.7289428710938
227,797.3992919921875,795.7875366210938,796.996337890625,796.1904907226562
228,795.7875366210938,794.1758422851562,799.010986328125,799.4139404296875
229,796.996337890625,792.1611938476562,800.6226806640625,802.6373901367188
230,799.010986328125,795.7875366210938,799.8168334960938,801.8314819335938
231,800.6226806640625,799.4139404296875,800.2197875976562,806.6666870117188
232,799.8168334960938,798.2051391601562,800.6226806640625,808.2783813476562
233,798.2051391601562,799.4139404296875,799.4139404296875,802.6373901367188
234,793.3699340820312,799.8168334960938,801.8314819335938,807.069580078125
235,795.3846435546875,791.7582397460938,802.6373901367188,814.7252807617188
236,792.1611938476562,788.5347900390625,801.025634765625,805.4578857421875
237,787.7289428710938,791.3552856445312,800.6226806640625,803.040283203125
238,794.5787353515625,787.3259887695312,799.010986328125,806.6666870117188
239,794.981689453125,789.3406372070312,796.5933837890625,806.6666870117188
240,792.1611938476562,793.3699340820312,797.3992919921875,801.8314819335938
241,794.981689453125,792.967041015625,796.5933837890625,799.4139404296875
242,794.1758422851562,791.7582397460938,793.3699340820312,798.6080322265625
243,791.3552856445312,790.1465454101562,795.3846435546875,801.025634765625
244,791.3552856445312,792.1611938476562,799.8168334960938,804.2490844726562
245,790.5494384765625,791.7582397460938,799.8168334960938,799.8168334960938
246,792.967041015625,787.3259887695312,796.5933837890625,804.2490844726562
247,794.5787353515625,784.1025390625,797.8021850585938,813.91943359375
248,794.1758422851562,790.1465454101562,801.025634765625,804.2490844726562
249,792.1611938476562,789.3406372070312,796.5933837890625,791.7582397460938
250,792.5640869140625,785.7142944335938,792.967041015625,789.7435913085938
251,793.7728881835938,788.5347900390625,797.8021850585938,794.1758422851562
252,790.952392578125,791.7582397460938,799.010986328125,796.996337890625
253,793.3699340820312,794.981689453125,792.967041015625,799.4139404296875
254,795.7875366210938,794.1758422851562,790.1465454101562,796.996337890625
255,791.7582397460938,794.5787353515625,795.7875366210938,791.3552856445312
256,786.1171875,795.3846435546875,798.2051391601562,790.1465454101562
257,788.937744140625,789.7435913085938,794.5787353515625,789.7435913085938
258,795.7875366210938,785.7142944335938,790.952392578125,792.967041015625
259,795.3846435546875,794.1758422851562,792.967041015625,798.2051391601562
260,786.5201416015625,792.5640869140625,796.1904907226562,799.010986328125
261,785.7142944335938,785.7142944335938,797.8021850585938,798.2051391601562
262,788.5347900390625,786.923095703125,798.6080322265625,800.2197875976562
263,793.3699340820312,790.1465454101562,800.6226806640625,797.8021850585938
264,796.996337890625,792.5640869140625,799.8168334960938,792.5640869140625
265,790.952392578125,794.981689453125,796.5933837890625,798.2051391601562
266,797.8021850585938,796.1904907226562,796.996337890625,803.040283203125
267,804.6520385742188,797.3992919921875,796.5933837890625,799.8168334960938
268,796.5933837890625,792.1611938476562,797.8021850585938,797.8021850585938
269,793.7728881835938,783.6996459960938,803.040283203125,797.8021850585938
270,797.8021850585938,790.952392578125,803.4432373046875,799.4139404296875
271,793.7728881835938,795.3846435546875,800.6226806640625,793.3699340820312
272,793.7728881835938,792.1611938476562,798.6080322265625,796.5933837890625
273,795.7875366210938,793.3699340820312,792.967041015625,797.3992919921875
274,793.7728881835938,790.5494384765625,795.3846435546875,791.7582397460938
275,789.3406372070312,790.1465454101562,799.010986328125,789.7435913085938
276,791.3552856445312,796.996337890625,796.1904907226562,790.952392578125
277,794.981689453125,791.7582397460938,794.1758422851562,791.7582397460938
278,791.7582397460938,788.5347900390625,792.1611938476562,797.8021850585938
279,782.893798828125,789.7435913085938,795.3846435546875,801.4285888671875
280,785.7142944335938,788.1318969726562,795.3846435546875,794.981689453125
281,792.1611938476562,787.3259887695312,791.7582397460938,795.3846435546875
282,790.952392578125,792.5640869140625,790.1465454101562,796.5933837890625
283,788.1318969726562,791.3552856445312,790.952392578125,792.1611938476562
284,789.3406372070312,782.4908447265625,795.7875366210938,792.1611938476562
285,795.3846435546875,788.937744140625,796.5933837890625,798.6080322265625
286,791.3552856445312,792.5640869140625,795.3846435546875,791.7582397460938
287,790.952392578125,785.3113403320312,794.981689453125,787.7289428710938
288,796.1904907226562,787.7289428710938,792.1611938476562,790.952392578125
289,794.981689453125,794.1758422851562,791.7582397460938,793.7728881835938
290,796.996337890625,790.5494384765625,795.7875366210938,796.996337890625
291,798.6080322265625,789.3406372070312,796.1904907226562,798.2051391601562
292,794.1758422851562,792.1611938476562,793.3699340820312,793.3699340820312
293,791.3552856445312,787.7289428710938,791.3552856445312,790.952392578125
294,794.5787353515625,787.3259887695312,786.923095703125,792.967041015625
295,797.8021850585938,790.5494384765625,786.923095703125,787.3259887695312
296,799.8168334960938,785.7142944335938,787.7289428710938,799.4139404296875
297,801.8314819335938,790.952392578125,786.5201416015625,803.040283203125
298,795.7875366210938,796.1904907226562,788.5347900390625,789.7435913085938
299,796.1904907226562,792.1611938476562,791.7582397460938,794.981689453125
300,792.967041015625,793.7728881835938,791.3552856445312,793.3699340820312
301,785.7142944335938,794.981689453125,788.937744140625,786.923095703125
302,786.1171875,793.7728881835938,788.1318969726562,787.3259887695312
303,787.7289428710938,791.3552856445312,787.3259887695312,796.1904907226562
304,783.6996459960938,788.5347900390625,786.5201416015625,799.8168334960938
305,781.6849975585938,791.7582397460938,787.3259887695312,790.1465454101562
306,784.908447265625,793.7728881835938,790.952392578125,793.7728881835938
307,788.937744140625,793.7728881835938,792.967041015625,801.8314819335938
308,796.5933837890625,796.5933837890625,793.3699340820312,794.981689453125
309,803.4432373046875,794.981689453125,794.1758422851562,792.1611938476562
310,799.8168334960938,792.1611938476562,795.7875366210938,793.7728881835938
311,798.6080322265625,786.923095703125,796.1904907226562,787.7289428710938
312,799.4139404296875,786.923095703125,794.1758422851562,783.2966918945312
313,791.3552856445312,794.981689453125,797.3992919921875,788.1318969726562
314,790.1465454101562,792.5640869140625,801.025634765625,788.5347900390625
315,798.6080322265625,793.3699340820312,792.5640869140625,801.025634765625
316,802.2344360351562,794.5787353515625,790.952392578125,817.1428833007812
317,798.2051391601562,788.937744140625,802.2344360351562,803.040283203125
318,793.7728881835938,786.5201416015625,802.6373901367188,791.7582397460938
319,787.7289428710938,785.7142944335938,796.996337890625,788.5347900390625
320,780.4761962890625,783.2966918945312,798.2051391601562,776.0439453125
321,780.879150390625,785.3113403320312,801.025634765625,776.8497924804688
322,786.1171875,790.5494384765625,800.6226806640625,791.3552856445312
323,789.3406372070312,794.981689453125,797.8021850585938,794.1758422851562
324,794.5787353515625,794.1758422851562,798.2051391601562,797.8021850585938
325,793.7728881835938,788.1318969726562,794.1758422851562,802.6373901367188
326,788.5347900390625,790.952392578125,788.937744140625,799.4139404296875
327,789.7435913085938,790.1465454101562,788.937744140625,797.8021850585938
328,790.5494384765625,791.7582397460938,786.5201416015625,794.981689453125
329,794.981689453125,794.1758422851562,790.952392578125,797.3992919921875
330,792.1611938476562,788.5347900390625,796.5933837890625,800.2197875976562
331,788.5347900390625,794.1758422851562,794.981689453125,806.6666870117188
332,788.5347900390625,796.1904907226562,793.7728881835938,803.040283203125
333,791.3552856445312,793.3699340820312,791.7582397460938,792.1611938476562
334,792.5640869140625,793.7728881835938,793.3699340820312,794.1758422851562
335,791.7582397460938,788.1318969726562,793.3699340820312,799.8168334960938
336,795.3846435546875,788.1318969726562,795.3846435546875,799.8168334960938
337,798.6080322265625,793.3699340820312,797.8021850585938,798.6080322265625
338,805.4578857421875,796.5933837890625,796.5933837890625,801.025634765625
339,800.2197875976562,794.981689453125,794.5787353515625,798.6080322265625
340,796.1904907226562,790.1465454101562,793.7728881835938,803.8461303710938
341,797.3992919921875,792.5640869140625,790.1465454101562,801.4285888671875
342,792.967041015625,796.5933837890625,789.3406372070312,799.8168334960938
343,791.3552856445312,795.7875366210938,793.7728881835938,804.6520385742188
344,791.3552856445312,795.3846435546875,794.981689453125,793.3699340820312
345,787.7289428710938,793.3699340820312,794.1758422851562,794.5787353515625
346,784.908447265625,789.3406372070312,794.5787353515625,794.1758422851562
347,785.7142944335938,785.7142944335938,791.3552856445312,785.3113403320312
348,786.5201416015625,783.6996459960938,793.7728881835938,785.7142944335938
349,790.5494384765625,788.5347900390625,798.6080322265625,792.967041015625
350,791.3552856445312,790.952392578125,795.7875366210938,800.2197875976562
351,788.1318969726562,792.5640869140625,791.3552856445312,797.8021850585938
352,796.996337890625,794.5787353515625,792.5640869140625,795.3846435546875
353,802.2344360351562,794.1758422851562,793.3699340820312,794.1758422851562
354,796.996337890625,789.3406372070312,793.7728881835938,799.010986328125
355,790.5494384765625,790.5494384765625,797.8021850585938,802.6373901367188
356,791.7582397460938,797.3992919921875,801.4285888671875,798.6080322265625
357,798.6080322265625,798.6080322265625,801.4285888671875,794.1758422851562
358,798.6080322265625,792.5640869140625,797.3992919921875,788.5347900390625
359,799.4139404296875,793.3699340820312,795.7875366210938,788.5347900390625
360,797.3992919921875,797.8021850585938,792.967041015625,791.3552856445312
361,796.1904907226562,798.6080322265625,794.981689453125,786.923095703125
362,801.8314819335938,794.981689453125,797.8021850585938,785.3113403320312
363,796.1904907226562,785.3113403320312,793.7728881835938,788.1318969726562
364,791.7582397460938,790.952392578125,792.1611938476562,787.3259887695312
365,799.010986328125,792.1611938476562,793.7728881835938,796.1904907226562
366,798.6080322265625,788.1318969726562,795.7875366210938,809.4871826171875
367,790.952392578125,789.7435913085938,795.7875366210938,806.2637329101562
368,787.7289428710938,790.1465454101562,792.5640869140625,793.3699340820312
369,789.3406372070312,785.3113403320312,792.1611938476562,796.1904907226562
370,795.3846435546875,784.5054931640625,795.7875366210938,800.2197875976562
371,798.6080322265625,790.952392578125,799.010986328125,796.1904907226562
372,798.6080322265625,794.981689453125,796.1904907226562,801.4285888671875
373,797.3992919921875,799.010986328125,794.5787353515625,806.6666870117188
374,799.4139404296875,794.5787353515625,794.1758422851562,803.4432373046875
375,799.8168334960938,780.4761962890625,793.7728881835938,797.8021850585938
376,794.5787353515625,784.908447265625,794.5787353515625,795.3846435546875
377,794.981689453125,796.1904907226562,794.1758422851562,791.3552856445312
378,792.967041015625,796.5933837890625,793.3699340820312,789.7435913085938
379,792.5640869140625,796.5933837890625,797.8021850585938,792.967041015625
380,794.5787353515625,790.952392578125,802.2344360351562,796.5933837890625
381,798.6080322265625,790.5494384765625,805.4578857421875,800.6226806640625
382,797.8021850585938,795.7875366210938,802.2344360351562,796.5933837890625
383,792.5640869140625,788.937744140625,794.981689453125,792.967041015625
384,793.3699340820312,783.2966918945312,796.996337890625,802.2344360351562
385,795.3846435546875,789.7435913085938,796.996337890625,802.2344360351562
386,798.2051391601562,797.8021850585938,792.1611938476562,793.7728881835938
387,796.996337890625,796.996337890625,790.1465454101562,792.967041015625
388,792.1611938476562,793.7728881835938,794.1758422851562,797.3992919921875
389,786.923095703125,787.3259887695312,797.8021850585938,795.7875366210938
390,788.5347900390625,789.3406372070312,797.3992919921875,793.3699340820312
391,799.8168334960938,796.996337890625,796.1904907226562,794.1758422851562
392,801.025634765625,792.967041015625,789.7435913085938,801.025634765625
393,795.3846435546875,789.7435913085938,792.1611938476562,807.069580078125
394,798.2051391601562,798.2051391601562,798.2051391601562,804.2490844726562
395,799.4139404296875,801.025634765625,797.3992919921875,800.2197875976562
396,799.8168334960938,796.1904907226562,799.010986328125,805.054931640625
397,801.025634765625,796.5933837890625,799.4139404296875,806.6666870117188
398,797.8021850585938,794.1758422851562,799.8168334960938,801.8314819335938
399,795.7875366210938,794.981689453125,796.1904907226562,801.4285888671875
400,790.5494384765625,792.5640869140625,791.7582397460938,797.3992919921875
401,784.5054931640625,784.908447265625,789.3406372070312,794.1758422851562
402,780.879150390625,790.1465454101562,795.3846435546875,794.1758422851562
403,780.879150390625,790.952392578125,795.7875366210938,794.1758422851562
404,782.087890625,789.7435913085938,789.7435913085938,801.8314819335938
405,780.4761962890625,791.3552856445312,794.1758422851562,796.996337890625
406,782.893798828125,792.1611938476562,798.2051391601562,791.3552856445312
407,788.1318969726562,792.1611938476562,795.3846435546875,797.3992919921875
408,788.5347900390625,791.7582397460938,794.5787353515625,799.4139404296875
409,789.3406372070312,793.7728881835938,799.4139404296875,794.981689453125
410,795.7875366210938,795.3846435546875,800.6226806640625,786.923095703125
411,800.6226806640625,787.7289428710938,797.3992919921875,788.5347900390625
412,796.1904907226562,782.4908447265625,797.8021850585938,793.3699340820312
413,798.2051391601562,794.5787353515625,799.8168334960938,792.967041015625
414,801.025634765625,801.8314819335938,801.025634765625,789.3406372070312
415,800.2197875976562,799.4139404296875,796.996337890625,794.5787353515625
416,800.2197875976562,792.967041015625,795.3846435546875,804.6520385742188
417,794.981689453125,788.937744140625,796.996337890625,798.2051391601562
418,797.8021850585938,792.1611938476562,795.7875366210938,796.1904907226562
419,799.4139404296875,799.010986328125,798.6080322265625,797.3992919921875
420,798.6080322265625,799.010986328125,802.6373901367188,795.7875366210938
421,800.2197875976562,790.952392578125,796.996337890625,789.3406372070312
422,796.5933837890625,792.5640869140625,791.7582397460938,790.1465454101562
423,795.7875366210938,790.5494384765625,794.981689453125,791.7582397460938
424,794.981689453125,790.1465454101562,798.6080322265625,787.7289428710938
425,794.5787353515625,796.1904907226562,797.3992919921875,789.7435913085938
426,794.981689453125,790.952392578125,798.2051391601562,794.981689453125
427,793.3699340820312,788.5347900390625,800.2197875976562,803.040283203125
428,789.7435913085938,793.7728881835938,800.6226806640625,800.6226806640625
429,786.1171875,797.8021850585938,800.6226806640625,790.1465454101562
430,785.3113403320312,796.996337890625,798.6080322265625,788.5347900390625
431,790.1465454101562,795.3846435546875,794.981689453125,790.952392578125
432,795.7875366210938,795.7875366210938,794.1758422851562,788.1318969726562
433,792.1611938476562,793.3699340820312,792.967041015625,786.923095703125
434,783.6996459960938,789.3406372070312,791.3552856445312,790.5494384765625
435,785.7142944335938,792.967041015625,794.981689453125,792.1611938476562
436,793.3699340820312,790.5494384765625,796.1904907226562,794.1758422851562
437,789.7435913085938,786.923095703125,794.5787353515625,793.3699340820312
438,790.5494384765625,788.937744140625,792.967041015625,792.5640869140625
439,788.5347900390625,786.5201416015625,793.7728881835938,797.3992919921875
440,785.3113403320312,790.1465454101562,789.7435913085938,789.7435913085938
441,790.1465454101562,796.1904907226562,793.3699340820312,790.952392578125
442,790.952392578125,796.1904907226562,797.3992919921875,793.3699340820312
443,788.937744140625,793.3699340820312,788.1318969726562,785.3113403320312
444,788.937744140625,791.7582397460938,785.7142944335938,776.4468994140625
445,788.937744140625,786.5201416015625,788.5347900390625,778.4615478515625
446,791.3552856445312,783.6996459960938,787.7289428710938,785.3113403320312
447,791.7582397460938,786.5201416015625,790.5494384765625,784.908447265625
448,788.1318969726562,787.7289428710938,794.5787353515625,785.3113403320312
449,786.923095703125,787.3259887695312,795.3846435546875,788.1318969726562
450,783.2966918945312,790.1465454101562,795.7875366210938,802.2344360351562
451,784.5054931640625,792.5640869140625,800.6226806640625,805.4578857421875
452,780.879150390625,791.3552856445312,797.8021850585938,791.3552856445312
453,776.4468994140625,788.1318969726562,791.3552856445312,785.7142944335938
454,780.879150390625,788.937744140625,789.3406372070312,779.2673950195312
455,783.6996459960938,793.3699340820312,787.7289428710938,779.6703491210938
456,782.4908447265625,794.981689453125,792.5640869140625,792.1611938476562
457,781.2820434570312,792.5640869140625,798.2051391601562,798.6080322265625
458,786.923095703125,794.1758422851562,797.3992919921875,801.4285888671875
459,788.5347900390625,792.967041015625,796.1904907226562,801.4285888671875
460,784.908447265625,793.3699340820312,798.2051391601562,799.010986328125
461,784.1025390625,795.7875366210938,797.3992919921875,802.6373901367188
462,788.5347900390625,785.3113403320312,796.5933837890625,807.87548828125
463,790.5494384765625,787.3259887695312,799.4139404296875,799.010986328125
464,785.7142944335938,795.3846435546875,799.4139404296875,795.3846435546875
465,784.5054931640625,793.7728881835938,800.6226806640625,798.6080322265625
466,790.952392578125,794.981689453125,800.6226806640625,801.025634765625
467,792.1611938476562,793.3699340820312,796.5933837890625,801.4285888671875
468,791.7582397460938,788.5347900390625,792.967041015625,799.010986328125
469,796.996337890625,789.7435913085938,796.996337890625,807.069580078125
470,792.1611938476562,793.3699340820312,801.8314819335938,813.5164794921875
471,793.7728881835938,793.3699340820312,801.8314819335938,809.4871826171875
472,795.7875366210938,790.1465454101562,799.4139404296875,803.4432373046875
473,794.981689453125,787.7289428710938,795.3846435546875,804.2490844726562
474,797.3992919921875,792.1611938476562,796.5933837890625,803.040283203125
475,795.7875366210938,790.1465454101562,801.4285888671875,801.025634765625
476,796.1904907226562,786.5201416015625,801.025634765625,805.054931640625
477,794.981689453125,792.967041015625,800.6226806640625,806.6666870117188
478,796.1904907226562,797.3992919921875,801.025634765625,801.4285888671875
479,799.010986328125,798.6080322265625,797.3992919921875,799.010986328125
480,796.5933837890625,795.3846435546875,794.981689453125,805.4578857421875
481,790.1465454101562,792.5640869140625,796.1904907226562,800.6226806640625
482,786.1171875,792.1611938476562,796.996337890625,791.7582397460938
483,790.5494384765625,790.5494384765625,796.1904907226562,788.937744140625
484,792.5640869140625,792.1611938476562,796.1904907226562,790.952392578125
485,783.2966918945312,792.967041015625,797.3992919921875,793.3699340820312
486,782.893798828125,790.952392578125,797.8021850585938,790.952392578125
487,780.4761962890625,786.923095703125,794.5787353515625,790.952392578125
488,777.6557006835938,786.923095703125,795.3846435546875,798.6080322265625
489,784.908447265625,792.1611938476562,801.025634765625,797.8021850585938
490,784.1025390625,791.3552856445312,800.6226806640625,782.893798828125
491,782.087890625,788.937744140625,799.4139404296875,778.8644409179688
492,784.5054931640625,792.967041015625,800.2197875976562,786.5201416015625
493,786.1171875,792.967041015625,803.040283203125,789.3406372070312
494,788.937744140625,785.3113403320312,800.6226806640625,792.5640869140625
495,788.5347900390625,784.908447265625,804.2490844726562,796.996337890625
496,788.5347900390625,787.7289428710938,807.4725341796875,800.2197875976562
497,791.7582397460938,792.1611938476562,799.4139404296875,795.7875366210938
498,794.5787353515625,797.3992919921875,803.040283203125,799.010986328125
499,801.4285888671875,791.7582397460938,800.6226806640625,807.87548828125
500,803.4432373046875,790.952392578125,795.7875366210938,803.8461303710938
501,797.8021850585938,790.952392578125,797.8021850585938,799.4139404296875
502,790.5494384765625,786.5201416015625,796.996337890625,799.010986328125
503,786.1171875,786.5201416015625,795.7875366210938,794.1758422851562
504,788.937744140625,790.1465454101562,796.996337890625,794.1758422851562
505,790.1465454101562,796.5933837890625,796.5933837890625,792.1611938476562
506,794.1758422851562,795.7875366210938,792.5640869140625,786.1171875
507,798.6080322265625,795.3846435546875,793.7728881835938,793.7728881835938
508,799.8168334960938,794.5787353515625,793.7728881835938,793.3699340820312
509,800.6226806640625,790.952392578125,791.3552856445312,783.6996459960938
510,799.010986328125,792.967041015625,793.7728881835938,785.7142944335938
511,794.981689453125,789.3406372070312,790.1465454101562,795.7875366210938
512,795.3846435546875,788.5347900390625,788.5347900390625,797.3992919921875
513,792.1611938476562,792.5640869140625,791.3552856445312,793.3699340820312
514,793.7728881835938,790.952392578125,792.967041015625,794.981689453125
515,795.7875366210938,796.1904907226562,794.5787353515625,797.3992919921875
516,791.3552856445312,797.8021850585938,792.1611938476562,796.996337890625
517,793.3699340820312,794.981689453125,786.1171875,791.3552856445312
518,795.3846435546875,792.5640869140625,789.7435913085938,790.1465454101562
519,792.967041015625,785.7142944335938,796.5933837890625,794.981689453125
520,794.1758422851562,786.923095703125,792.1611938476562,799.010986328125
521,794.981689453125,792.967041015625,788.5347900390625,800.6226806640625
522,792.5640869140625,791.7582397460938,791.3552856445312,795.7875366210938
523,788.5347900390625,784.908447265625,785.7142944335938,790.5494384765625
524,788.937744140625,780.879150390625,782.893798828125,786.5201416015625
525,791.3552856445312,783.2966918945312,790.5494384765625,780.4761962890625
526,794.981689453125,786.923095703125,792.5640869140625,780.4761962890625
527,792.1611938476562,789.7435913085938,795.3846435546875,785.3113403320312
528,787.3259887695312,787.3259887695312,797.3992919921875,788.937744140625
529,795.7875366210938,791.7582397460938,793.3699340820312,792.1611938476562
530,798.2051391601562,793.3699340820312,791.3552856445312,792.967041015625
531,790.1465454101562,788.5347900390625,788.937744140625,794.5787353515625
532,790.5494384765625,788.5347900390625,790.1465454101562,793.7728881835938
533,795.7875366210938,790.952392578125,793.3699340820312,788.937744140625
534,792.967041015625,790.952392578125,794.981689453125,792.1611938476562
535,793.3699340820312,787.3259887695312,795.7875366210938,796.5933837890625
536,788.937744140625,788.937744140625,795.7875366210938,790.952392578125
537,784.908447265625,793.7728881835938,794.981689453125,791.3552856445312
538,786.5201416015625,795.7875366210938,793.7728881835938,797.3992919921875
539,786.1171875,794.1758422851562,794.5787353515625,797.3992919921875
540,788.1318969726562,792.5640869140625,796.1904907226562,796.996337890625
541,790.952392578125,788.5347900390625,797.3992919921875,801.025634765625
542,796.1904907226562,793.7728881835938,796.5933837890625,799.010986328125
543,799.4139404296875,799.8168334960938,794.5787353515625,789.3406372070312
544,797.3992919921875,795.3846435546875,790.952392578125,782.893798828125
545,801.025634765625,793.7728881835938,788.5347900390625,784.1025390625
546,799.8168334960938,787.3259887695312,786.923095703125,789.7435913085938
547,790.952392578125,786.1171875,786.1171875,787.7289428710938
548,790.1465454101562,790.952392578125,786.5201416015625,786.1171875
549,792.967041015625,788.937744140625,790.952392578125,795.3846435546875
550,790.1465454101562,789.3406372070312,792.967041015625,793.7728881835938
551,789.7435913085938,792.967041015625,791.7582397460938,787.7289428710938
552,793.3699340820312,788.1318969726562,792.967041015625,790.5494384765625
553,797.8021850585938,785.7142944335938,792.5640869140625,786.5201416015625
554,798.2051391601562,792.967041015625,792.5640869140625,784.908447265625
555,795.7875366210938,792.5640869140625,795.7875366210938,792.5640869140625
556,796.5933837890625,790.1465454101562,796.996337890625,794.981689453125
557,795.3846435546875,786.5201416015625,797.3992919921875,796.996337890625
558,798.6080322265625,784.1025390625,796.1904907226562,795.7875366210938
559,796.996337890625,789.3406372070312,794.981689453125,791.7582397460938
560,795.7875366210938,790.5494384765625,792.1611938476562,796.1904907226562
561,799.010986328125,789.3406372070312,787.7289428710938,798.2051391601562
562,800.2197875976562,792.5640869140625,790.5494384765625,801.8314819335938
563,799.010986328125,789.3406372070312,790.952392578125,803.040283203125
564,792.1611938476562,783.2966918945312,788.1318969726562,793.3699340820312
565,797.3992919921875,790.952392578125,791.7582397460938,796.1904907226562
566,797.8021850585938,791.3552856445312,797.8021850585938,797.3992919921875
567,793.7728881835938,786.5201416015625,797.3992919921875,792.967041015625
568,794.981689453125,786.5201416015625,794.5787353515625,796.1904907226562
569,795.3846435546875,788.5347900390625,793.7728881835938,795.7875366210938
570,790.952392578125,792.1611938476562,791.7582397460938,794.1758422851562
571,792.5640869140625,791.3552856445312,788.1318969726562,790.952392578125
572,801.025634765625,790.952392578125,784.1025390625,790.1465454101562
573,796.996337890625,791.7582397460938,786.923095703125,796.1904907226562
574,792.1611938476562,790.952392578125,791.7582397460938,798.2051391601562
575,799.8168334960938,791.3552856445312,795.3846435546875,794.1758422851562
576,805.8607788085938,787.7289428710938,794.5787353515625,788.5347900390625
577,805.054931640625,786.1171875,794.1758422851562,793.3699340820312
578,802.2344360351562,791.3552856445312,793.7728881835938,794.5787353515625
579,798.6080322265625,797.8021850585938,794.5787353515625,790.1465454101562
580,796.1904907226562,788.5347900390625,794.5787353515625,795.7875366210938
581,792.5640869140625,780.879150390625,791.7582397460938,798.2051391601562
582,787.3259887695312,792.1611938476562,796.5933837890625,787.7289428710938
583,783.6996459960938,793.3699340820312,801.025634765625,790.1465454101562
584,786.5201416015625,790.1465454101562,796.5933837890625,798.6080322265625
585,792.967041015625,793.3699340820312,796.1904907226562,801.025634765625
586,794.1758422851562,794.1758422851562,798.6080322265625,796.996337890625
587,792.1611938476562,791.3552856445312,792.967041015625,791.3552856445312
588,790.1465454101562,788.1318969726562,794.1758422851562,790.1465454101562
589,788.5347900390625,788.1318969726562,802.2344360351562,788.937744140625
590,786.1171875,789.3406372070312,801.025634765625,785.3113403320312
591,788.1318969726562,790.1465454101562,796.1904907226562,784.5054931640625
592,792.1611938476562,793.3699340820312,796.1904907226562,792.1611938476562
593,791.3552856445312,792.967041015625,798.6080322265625,797.3992919921875
594,789.3406372070312,788.937744140625,798.6080322265625,792.5640869140625
595,790.5494384765625,791.7582397460938,795.3846435546875,789.7435913085938
596,793.7728881835938,787.7289428710938,788.937744140625,797.3992919921875
597,796.5933837890625,790.1465454101562,790.5494384765625,799.010986328125
598,795.7875366210938,799.4139404296875,794.5787353515625,789.7435913085938
599,786.923095703125,790.1465454101562,793.3699340820312,783.6996459960938
600,784.1025390625,793.3699340820312,796.5933837890625,782.893798828125
601,786.1171875,797.3992919921875,792.5640869140625,780.879150390625
602,788.1318969726562,788.937744140625,788.937744140625,784.5054931640625
603,786.1171875,785.7142944335938,788.937744140625,787.3259887695312
604,788.1318969726562,787.3259887695312,790.1465454101562,787.7289428710938
605,793.3699340820312,788.937744140625,793.7728881835938,787.7289428710938
606,795.3846435546875,789.3406372070312,792.1611938476562,784.908447265625
607,796.1904907226562,791.3552856445312,791.7582397460938,794.981689453125
608,796.5933837890625,786.923095703125,796.5933837890625,803.8461303710938
609,793.3699340820312,786.923095703125,798.6080322265625,792.5640869140625
610,796.1904907226562,791.3552856445312,793.7728881835938,796.5933837890625
611,795.3846435546875,790.952392578125,790.952392578125,805.4578857421875
612,793.7728881835938,790.5494384765625,789.3406372070312,798.2051391601562
613,798.2051391601562,790.952392578125,791.7582397460938,793.3699340820312
614,798.6080322265625,792.967041015625,791.3552856445312,796.1904907226562
615,799.8168334960938,789.3406372070312,784.908447265625,800.6226806640625
616,798.6080322265625,786.5201416015625,786.1171875,796.996337890625
617,797.3992919921875,785.7142944335938,789.7435913085938,794.1758422851562
618,798.2051391601562,790.5494384765625,792.967041015625,797.8021850585938
619,794.981689453125,789.7435913085938,796.1904907226562,802.6373901367188
620,790.1465454101562,786.5201416015625,792.967041015625,795.3846435546875
621,790.952392578125,788.5347900390625,791.3552856445312,788.1318969726562
622,796.5933837890625,789.7435913085938,792.967041015625,792.967041015625
623,799.4139404296875,788.5347900390625,796.1904907226562,802.6373901367188
624,795.3846435546875,791.7582397460938,801.025634765625,797.8021850585938
625,792.967041015625,791.3552856445312,800.2197875976562,785.3113403320312
626,793.7728881835938,786.1171875,795.3846435546875,786.923095703125
627,792.1611938476562,792.1611938476562,797.8021850585938,792.1611938476562
628,788.5347900390625,794.5787353515625,799.010986328125,791.7582397460938
629,795.7875366210938,795.7875366210938,797.8021850585938,798.2051391601562
630,801.4285888671875,793.3699340820312,796.996337890625,801.8314819335938
631,797.3992919921875,788.937744140625,794.981689453125,792.5640869140625
632,794.981689453125,796.1904907226562,794.1758422851562,790.1465454101562
633,792.1611938476562,794.981689453125,797.3992919921875,799.010986328125
634,791.3552856445312,791.7582397460938,797.3992919921875,798.2051391601562
635,793.3699340820312,795.3846435546875,796.5933837890625,794.5787353515625
636,798.2051391601562,798.2051391601562,799.010986328125,797.8021850585938
637,801.025634765625,799.4139404296875,794.1758422851562,796.1904907226562
638,801.025634765625,794.981689453125,790.952392578125,797.3992919921875
639,799.4139404296875,781.6849975585938,796.1904907226562,800.6226806640625
640,792.967041015625,782.4908447265625,797.3992919921875,790.952392578125
641,793.3699340820312,790.1465454101562,794.5787353515625,788.5347900390625
642,796.1904907226562,790.952392578125,791.7582397460938,798.2051391601562
643,794.1758422851562,798.2051391601562,796.5933837890625,801.8314819335938
644,792.5640869140625,800.6226806640625,801.4285888671875,799.4139404296875
645,796.5933837890625,797.8021850585938,796.996337890625,800.2197875976562
646,798.2051391601562,796.996337890625,795.3846435546875,796.1904907226562
647,792.5640869140625,792.1611938476562,791.7582397460938,790.1465454101562
648,791.7582397460938,789.3406372070312,790.952392578125,796.1904907226562
649,788.5347900390625,795.7875366210938,794.5787353515625,798.6080322265625
650,788.937744140625,794.5787353515625,795.7875366210938,797.8021850585938
651,798.6080322265625,792.5640869140625,798.2051391601562,800.6226806640625
652,796.5933837890625,792.967041015625,798.2051391601562,796.996337890625
653,791.3552856445312,794.1758422851562,798.6080322265625,804.2490844726562
654,796.5933837890625,796.996337890625,800.6226806640625,811.90478515625
655,796.1904907226562,800.2197875976562,802.2344360351562,796.1904907226562
656,799.4139404296875,797.8021850585938,804.2490844726562,790.952392578125
657,807.4725341796875,796.5933837890625,805.4578857421875,795.7875366210938
658,803.8461303710938,798.6080322265625,804.6520385742188,791.3552856445312
659,794.5787353515625,796.996337890625,805.4578857421875,788.1318969726562
660,789.3406372070312,790.1465454101562,800.6226806640625,786.923095703125
661,790.1465454101562,794.981689453125,797.3992919921875,786.923095703125
662,788.937744140625,795.3846435546875,799.4139404296875,788.5347900390625
663,785.7142944335938,790.1465454101562,799.010986328125,788.937744140625
664,789.3406372070312,793.3699340820312,795.7875366210938,788.5347900390625
665,796.996337890625,789.7435913085938,793.7728881835938,793.7728881835938
666,796.996337890625,784.1025390625,788.937744140625,795.3846435546875
667,788.1318969726562,790.5494384765625,787.7289428710938,782.893798828125
668,783.6996459960938,795.7875366210938,792.5640869140625,783.6996459960938
669,785.3113403320312,788.5347900390625,794.981689453125,787.3259887695312
670,785.3113403320312,786.1171875,795.7875366210938,786.923095703125
671,792.1611938476562,791.7582397460938,799.4139404296875,792.5640869140625
672,799.8168334960938,795.7875366210938,801.8314819335938,798.6080322265625
673,796.996337890625,791.7582397460938,795.7875366210938,801.4285888671875
674,794.1758422851562,784.1025390625,794.1758422851562,801.025634765625
675,792.967041015625,784.5054931640625,794.1758422851562,797.8021850585938
676,795.3846435546875,788.937744140625,790.5494384765625,798.2051391601562
677,795.7875366210938,790.5494384765625,793.7728881835938,798.6080322265625
678,795.3846435546875,789.3406372070312,796.1904907226562,798.6080322265625
679,791.3552856445312,792.5640869140625,796.5933837890625,795.3846435546875
680,787.7289428710938,789.3406372070312,792.967041015625,797.3992919921875
681,794.1758422851562,787.3259887695312,794.981689453125,806.2637329101562
682,793.7728881835938,796.5933837890625,800.2197875976562,799.010986328125
683,793.3699340820312,796.1904907226562,796.5933837890625,793.7728881835938
684,796.1904907226562,794.981689453125,793.3699340820312,789.7435913085938
685,791.3552856445312,793.7728881835938,792.967041015625,789.3406372070312
686,791.7582397460938,792.5640869140625,792.967041015625,792.5640869140625
687,792.5640869140625,787.7289428710938,792.5640869140625,790.952392578125
688,788.937744140625,783.6996459960938,790.952392578125,794.1758422851562
689,784.5054931640625,786.923095703125,788.1318969726562,795.7875366210938
690,786.923095703125,788.937744140625,791.3552856445312,792.967041015625
691,788.937744140625,787.7289428710938,792.967041015625,793.7728881835938
692,783.2966918945312,789.7435913085938,791.3552856445312,790.5494384765625
693,785.7142944335938,797.3992919921875,794.981689453125,790.5494384765625
694,792.967041015625,795.3846435546875,798.6080322265625,792.5640869140625
695,796.996337890625,788.937744140625,795.7875366210938,797.3992919921875
696,792.5640869140625,782.4908447265625,791.3552856445312,795.7875366210938
697,793.7728881835938,780.879150390625,792.967041015625,793.3699340820312
698,796.5933837890625,786.5201416015625,793.3699340820312,791.3552856445312
699,796.5933837890625,787.7289428710938,787.3259887695312,795.3846435546875
700,797.8021850585938,782.087890625,788.5347900390625,812.3076782226562
701,794.981689453125,785.3113403320312,795.3846435546875,804.2490844726562
702,793.3699340820312,794.1758422851562,793.7728881835938,791.3552856445312
703,796.5933837890625,794.5787353515625,795.3846435546875,797.8021850585938
704,793.7728881835938,793.7728881835938,799.4139404296875,797.3992919921875
705,793.7728881835938,794.981689453125,795.3846435546875,789.3406372070312
706,797.8021850585938,798.2051391601562,795.7875366210938,789.3406372070312
707,796.5933837890625,798.2051391601562,798.6080322265625,790.1465454101562
708,794.1758422851562,793.7728881835938,797.8021850585938,786.1171875
709,794.1758422851562,795.3846435546875,794.5787353515625,787.7289428710938
710,801.4285888671875,797.3992919921875,794.5787353515625,790.952392578125
711,803.4432373046875,797.3992919921875,796.5933837890625,792.967041015625
712,801.4285888671875,795.7875366210938,798.2051391601562,803.040283203125
713,798.2051391601562,790.1465454101562,796.1904907226562,800.2197875976562
714,799.8168334960938,790.952392578125,792.1611938476562,793.3699340820312
715,803.4432373046875,789.7435913085938,792.1611938476562,800.2197875976562
716,799.8168334960938,794.1758422851562,795.7875366210938,800.2197875976562
717,794.1758422851562,793.3699340820312,794.981689453125,797.3992919921875
718,791.3552856445312,793.7728881835938,792.1611938476562,797.8021850585938
719,795.7875366210938,799.010986328125,796.1904907226562,802.2344360351562
720,797.8021850585938,801.025634765625,798.2051391601562,803.4432373046875
721,803.4432373046875,796.5933837890625,796.1904907226562,793.3699340820312
722,802.6373901367188,790.5494384765625,791.7582397460938,792.5640869140625
723,792.5640869140625,790.1465454101562,792.1611938476562,799.010986328125
724,793.3699340820312,785.3113403320312,792.1611938476562,794.5787353515625
725,799.4139404296875,788.5347900390625,789.7435913085938,794.5787353515625
726,796.996337890625,790.5494384765625,790.5494384765625,800.6226806640625
727,792.967041015625,789.7435913085938,792.967041015625,798.6080322265625
728,797.3992919921875,799.8168334960938,797.8021850585938,792.5640869140625
729,798.6080322265625,797.8021850585938,795.3846435546875,790.5494384765625
730,794.5787353515625,796.996337890625,794.1758422851562,794.981689453125
731,791.7582397460938,800.2197875976562,793.3699340820312,798.6080322265625
732,786.1171875,794.1758422851562,793.7728881835938,794.981689453125
733,792.967041015625,793.3699340820312,794.981689453125,797.8021850585938
734,790.952392578125,791.7582397460938,794.5787353515625,800.6226806640625
735,785.3113403320312,786.923095703125,797.3992919921875,795.3846435546875
736,791.7582397460938,783.2966918945312,799.4139404296875,792.1611938476562
737,792.967041015625,782.4908447265625,798.2051391601562,791.7582397460938
738,789.3406372070312,784.5054931640625,792.1611938476562,803.040283203125
739,784.5054931640625,795.3846435546875,790.1465454101562,804.6520385742188
740,784.1025390625,800.6226806640625,795.3846435546875,798.6080322265625
741,791.7582397460938,793.7728881835938,798.6080322265625,804.2490844726562
742,796.5933837890625,794.981689453125,797.8021850585938,808.2783813476562
743,796.5933837890625,794.5787353515625,795.3846435546875,803.4432373046875
744,798.6080322265625,791.7582397460938,792.967041015625,801.4285888671875
745,802.2344360351562,794.981689453125,796.1904907226562,809.89013671875
746,805.8607788085938,796.1904907226562,796.1904907226562,802.6373901367188
747,803.8461303710938,795.3846435546875,791.7582397460938,789.3406372070312
748,800.2197875976562,792.967041015625,791.3552856445312,788.1318969726562
749,799.4139404296875,786.5201416015625,792.5640869140625,796.1904907226562
750,797.3992919921875,788.1318969726562,794.981689453125,800.2197875976562
751,792.967041015625,789.3406372070312,795.3846435546875,786.923095703125
752,789.7435913085938,791.3552856445312,794.981689453125,783.2966918945312
753,784.1025390625,795.3846435546875,793.7728881835938,778.8644409179688
754,792.1611938476562,794.5787353515625,796.1904907226562,785.3113403320312
755,801.025634765625,792.5640869140625,799.010986328125,796.996337890625
756,798.6080322265625,790.5494384765625,796.5933837890625,793.7728881835938
757,797.3992919921875,789.7435913085938,796.996337890625,788.937744140625
758,798.2051391601562,789.3406372070312,801.4285888671875,788.1318969726562
759,801.8314819335938,795.7875366210938,799.4139404296875,791.7582397460938
760,803.8461303710938,795.7875366210938,795.7875366210938,795.3846435546875
761,799.4139404296875,791.3552856445312,797.3992919921875,802.2344360351562
762,793.7728881835938,802.2344360351562,797.8021850585938,803.4432373046875
763,786.923095703125,801.8314819335938,796.1904907226562,794.5787353515625
764,778.05859375,792.5640869140625,788.937744140625,794.5787353515625
765,778.4615478515625,790.5494384765625,786.1171875,795.3846435546875
766,784.5054931640625,792.5640869140625,792.1611938476562,790.952392578125
767,788.937744140625,793.7728881835938,791.3552856445312,791.7582397460938
768,790.952392578125,798.6080322265625,796.1904907226562,797.8021850585938
769,790.1465454101562,794.1758422851562,796.1904907226562,790.5494384765625
770,795.3846435546875,791.7582397460938,798.6080322265625,787.3259887695312
771,795.7875366210938,790.1465454101562,803.4432373046875,793.7728881835938
772,788.937744140625,787.7289428710938,805.054931640625,789.3406372070312
773,785.7142944335938,790.1465454101562,803.040283203125,789.3406372070312
774,788.5347900390625,791.7582397460938,800.2197875976562,790.1465454101562
775,790.5494384765625,795.7875366210938,800.2197875976562,792.5640869140625
776,792.967041015625,792.5640869140625,796.5933837890625,798.2051391601562
777,792.5640869140625,793.3699340820312,790.5494384765625,791.3552856445312
778,791.3552856445312,795.7875366210938,790.5494384765625,780.4761962890625
779,793.7728881835938,791.7582397460938,796.1904907226562,780.0732421875
780,796.5933837890625,788.5347900390625,795.7875366210938,780.0732421875
781,796.1904907226562,786.1171875,798.2051391601562,779.6703491210938
782,791.3552856445312,787.3259887695312,798.6080322265625,782.087890625
783,790.952392578125,790.5494384765625,794.981689453125,790.5494384765625
784,788.5347900390625,790.5494384765625,794.981689453125,795.7875366210938
785,786.5201416015625,789.7435913085938,796.1904907226562,797.3992919921875
786,790.952392578125,791.7582397460938,794.981689453125,798.2051391601562
787,795.3846435546875,790.952392578125,791.7582397460938,804.2490844726562
788,795.3846435546875,788.937744140625,789.7435913085938,804.2490844726562
789,794.1758422851562,794.5787353515625,794.1758422851562,794.981689453125
790,794.5787353515625,795.7875366210938,801.025634765625,790.952392578125
791,795.3846435546875,792.967041015625,798.2051391601562,793.7728881835938
792,799.4139404296875,793.3699340820312,793.3699340820312,799.4139404296875
793,797.3992919921875,799.8168334960938,791.7582397460938,796.5933837890625
794,792.967041015625,799.4139404296875,792.967041015625,792.967041015625
795,794.5787353515625,792.967041015625,795.3846435546875,790.5494384765625
796,792.1611938476562,790.1465454101562,793.7728881835938,789.7435913085938
797,792.5640869140625,792.1611938476562,794.1758422851562,799.010986328125
798,795.7875366210938,792.1611938476562,796.1904907226562,805.4578857421875
799,787.3259887695312,788.5347900390625,796.1904907226562,792.967041015625
800,776.8497924804688,787.7289428710938,795.3846435546875,784.5054931640625
801,785.7142944335938,793.3699340820312,796.1904907226562,787.7289428710938
802,784.908447265625,796.996337890625,798.2051391601562,785.3113403320312
803,770.4029541015625,794.5787353515625,796.996337890625,778.8644409179688
804,778.8644409179688,792.1611938476562,794.981689453125,785.3113403320312
805,782.4908447265625,788.937744140625,794.1758422851562,786.923095703125
806,778.8644409179688,787.3259887695312,793.3699340820312,786.923095703125
807,784.5054931640625,787.3259887695312,793.3699340820312,792.5640869140625
808,789.3406372070312,788.1318969726562,793.7728881835938,790.5494384765625
809,788.937744140625,790.1465454101562,793.7728881835938,788.5347900390625
810,791.3552856445312,788.1318969726562,791.7582397460938,793.7728881835938
811,798.6080322265625,792.967041015625,794.5787353515625,799.010986328125
812,800.2197875976562,791.3552856445312,797.8021850585938,794.5787353515625
813,796.1904907226562,784.5054931640625,797.8021850585938,794.1758422851562
814,791.3552856445312,789.3406372070312,790.952392578125,798.2051391601562
815,790.952392578125,791.7582397460938,790.952392578125,796.996337890625
816,796.996337890625,790.1465454101562,794.5787353515625,792.1611938476562
817,800.2197875976562,792.967041015625,791.7582397460938,797.3992919921875
818,803.8461303710938,796.5933837890625,797.8021850585938,806.2637329101562
819,808.2783813476562,793.7728881835938,801.4285888671875,803.4432373046875
820,801.4285888671875,789.3406372070312,796.5933837890625,796.996337890625
821,796.5933837890625,787.7289428710938,794.1758422851562,795.7875366210938
822,797.8021850585938,785.3113403320312,795.3846435546875,803.8461303710938
823,798.2051391601562,782.893798828125,796.996337890625,811.098876953125
824,791.3552856445312,785.7142944335938,794.5787353515625,804.6520385742188
825,783.2966918945312,786.5201416015625,789.3406372070312,797.3992919921875
826,784.5054931640625,788.1318969726562,789.7435913085938,789.7435913085938
827,792.1611938476562,794.1758422851562,793.3699340820312,790.5494384765625
828,796.996337890625,799.010986328125,791.7582397460938,790.952392578125
829,796.996337890625,796.996337890625,788.937744140625,788.937744140625
830,796.5933837890625,795.3846435546875,790.5494384765625,795.3846435546875
831,802.2344360351562,796.996337890625,794.1758422851562,796.5933837890625
832,801.4285888671875,792.967041015625,793.3699340820312,788.1318969726562
833,801.4285888671875,790.1465454101562,792.5640869140625,784.1025390625
834,805.8607788085938,789.3406372070312,788.1318969726562,796.5933837890625
835,801.8314819335938,790.5494384765625,787.3259887695312,795.3846435546875
836,796.1904907226562,793.7728881835938,794.981689453125,788.5347900390625
837,799.4139404296875,800.6226806640625,795.3846435546875,793.7728881835938
838,800.6226806640625,798.2051391601562,794.5787353515625,790.952392578125
839,792.967041015625,788.937744140625,796.5933837890625,788.1318969726562
840,785.3113403320312,787.3259887695312,794.981689453125,785.3113403320312
841,790.952392578125,790.1465454101562,791.7582397460938,790.1465454101562
842,795.3846435546875,792.5640869140625,790.1465454101562,789.7435913085938
843,797.8021850585938,796.996337890625,794.981689453125,791.3552856445312
844,803.040283203125,798.2051391601562,797.3992919921875,795.7875366210938
845,799.4139404296875,794.1758422851562,794.1758422851562,801.8314819335938
846,795.3846435546875,790.5494384765625,794.5787353515625,805.054931640625
847,791.7582397460938,790.1465454101562,794.5787353515625,791.3552856445312
848,794.5787353515625,792.967041015625,793.7728881835938,788.937744140625
849,799.010986328125,793.3699340820312,798.6080322265625,792.5640869140625
850,792.5640869140625,792.1611938476562,798.2051391601562,792.967041015625
851,791.3552856445312,795.3846435546875,795.7875366210938,797.3992919921875
852,800.6226806640625,796.5933837890625,794.981689453125,806.6666870117188
853,796.1904907226562,791.7582397460938,790.952392578125,798.6080322265625
854,791.7582397460938,790.5494384765625,792.1611938476562,786.923095703125
855,795.3846435546875,794.5787353515625,795.3846435546875,790.5494384765625
856,794.5787353515625,788.1318969726562,794.1758422851562,785.7142944335938
857,788.5347900390625,782.893798828125,793.7728881835938,780.879150390625
858,790.1465454101562,789.3406372070312,795.7875366210938,782.893798828125
859,790.952392578125,796.996337890625,792.5640869140625,782.4908447265625
860,791.3552856445312,797.3992919921875,792.967041015625,784.908447265625
861,791.3552856445312,793.3699340820312,794.981689453125,791.3552856445312
862,794.5787353515625,795.7875366210938,793.3699340820312,792.5640869140625
863,796.5933837890625,799.010986328125,794.1758422851562,789.7435913085938
864,791.3552856445312,795.3846435546875,792.967041015625,792.5640869140625
865,786.5201416015625,791.3552856445312,791.7582397460938,790.5494384765625
866,784.1025390625,793.7728881835938,794.5787353515625,783.2966918945312
867,787.7289428710938,798.2051391601562,796.996337890625,792.1611938476562
868,789.3406372070312,795.3846435546875,796.996337890625,799.010986328125
869,797.3992919921875,795.7875366210938,794.1758422851562,798.6080322265625
870,804.2490844726562,798.6080322265625,794.981689453125,795.3846435546875
871,796.996337890625,794.5787353515625,797.8021850585938,792.5640869140625
872,795.3846435546875,792.5640869140625,797.3992919921875,804.2490844726562
873,796.996337890625,792.967041015625,797.3992919921875,801.4285888671875
874,799.8168334960938,793.3699340820312,799.8168334960938,792.1611938476562
875,797.3992919921875,791.7582397460938,796.5933837890625,799.010986328125
876,795.7875366210938,784.908447265625,790.5494384765625,802.6373901367188
877,795.7875366210938,784.5054931640625,790.5494384765625,799.8168334960938
878,795.7875366210938,790.1465454101562,788.937744140625,795.7875366210938
879,796.996337890625,788.937744140625,790.1465454101562,798.2051391601562
880,795.7875366210938,789.7435913085938,790.5494384765625,801.025634765625
881,798.2051391601562,794.981689453125,794.1758422851562,800.6226806640625
882,795.3846435546875,792.5640869140625,800.2197875976562,799.4139404296875
883,797.8021850585938,787.3259887695312,794.981689453125,799.4139404296875
884,803.4432373046875,793.7728881835938,793.7728881835938,801.4285888671875
885,793.7728881835938,797.8021850585938,797.3992919921875,791.3552856445312
886,785.3113403320312,792.967041015625,793.7728881835938,786.5201416015625
887,788.5347900390625,794.5787353515625,789.7435913085938,790.952392578125
888,795.7875366210938,796.996337890625,794.1758422851562,789.3406372070312
889,799.4139404296875,792.1611938476562,796.5933837890625,794.1758422851562
890,803.040283203125,790.5494384765625,799.8168334960938,802.2344360351562
891,801.8314819335938,793.7728881835938,807.069580078125,807.87548828125
892,793.7728881835938,795.7875366210938,803.8461303710938,799.8168334960938
893,797.3992919921875,793.3699340820312,800.6226806640625,801.8314819335938
894,808.6813354492188,794.981689453125,799.8168334960938,813.113525390625
895,802.2344360351562,794.981689453125,799.8168334960938,811.5018310546875
896,791.3552856445312,794.1758422851562,800.6226806640625,802.2344360351562
897,790.5494384765625,794.5787353515625,799.8168334960938,790.952392578125
898,790.5494384765625,790.952392578125,798.6080322265625,792.5640869140625
899,794.1758422851562,792.5640869140625,796.1904907226562,797.8021850585938
900,797.8021850585938,792.5640869140625,797.8021850585938,801.025634765625
901,796.996337890625,789.3406372070312,802.2344360351562,800.6226806640625
902,796.5933837890625,789.7435913085938,802.6373901367188,802.2344360351562
903,797.8021850585938,786.5201416015625,798.6080322265625,799.010986328125
904,796.5933837890625,786.5201416015625,798.2051391601562,796.996337890625
905,792.967041015625,792.1611938476562,798.6080322265625,801.025634765625
906,788.937744140625,788.937744140625,794.1758422851562,800.2197875976562
907,788.937744140625,786.1171875,793.7728881835938,794.981689453125
908,786.923095703125,791.7582397460938,793.7728881835938,791.7582397460938
909,782.4908447265625,792.1611938476562,787.3259887695312,789.7435913085938
910,784.1025390625,790.1465454101562,788.5347900390625,794.981689453125
911,784.1025390625,792.1611938476562,791.3552856445312,809.4871826171875
912,782.4908447265625,791.3552856445312,791.3552856445312,805.054931640625
913,784.5054931640625,792.5640869140625,791.7582397460938,792.1611938476562
914,790.952392578125,791.7582397460938,788.5347900390625,806.2637329101562
915,796.996337890625,789.7435913085938,788.937744140625,809.084228515625
916,802.6373901367188,792.1611938476562,791.3552856445312,794.981689453125
917,800.2197875976562,789.3406372070312,790.952392578125,790.952392578125
918,790.952392578125,788.1318969726562,790.5494384765625,792.967041015625
919,789.3406372070312,788.5347900390625,790.1465454101562,801.025634765625
920,794.981689453125,790.5494384765625,786.923095703125,796.5933837890625
921,797.3992919921875,789.7435913085938,784.908447265625,790.1465454101562
922,796.996337890625,788.1318969726562,786.923095703125,789.7435913085938
923,797.3992919921875,788.1318969726562,793.3699340820312,791.3552856445312
924,795.7875366210938,790.952392578125,796.996337890625,794.5787353515625
925,798.6080322265625,792.1611938476562,795.7875366210938,799.010986328125
926,794.5787353515625,791.7582397460938,794.5787353515625,799.4139404296875
927,787.3259887695312,790.952392578125,797.3992919921875,795.3846435546875
928,791.3552856445312,794.1758422851562,801.025634765625,795.7875366210938
929,796.5933837890625,797.3992919921875,801.4285888671875,796.1904907226562
930,794.981689453125,793.7728881835938,799.010986328125,797.3992919921875
931,791.3552856445312,793.3699340820312,795.7875366210938,799.010986328125
932,794.981689453125,792.967041015625,796.1904907226562,799.8168334960938
933,800.6226806640625,790.952392578125,797.8021850585938,807.4725341796875
934,794.1758422851562,792.967041015625,796.1904907226562,805.4578857421875
935,788.5347900390625,798.6080322265625,794.981689453125,799.010986328125
936,788.937744140625,796.1904907226562,795.7875366210938,810.6959838867188
937,788.5347900390625,796.1904907226562,796.1904907226562,813.5164794921875
938,787.7289428710938,796.5933837890625,797.3992919921875,799.010986328125
939,786.1171875,787.3259887695312,794.981689453125,792.5640869140625
940,790.1465454101562,783.2966918945312,797.3992919921875,795.7875366210938
941,797.3992919921875,790.5494384765625,799.4139404296875,803.040283203125
942,796.5933837890625,793.3699340820312,796.996337890625,803.4432373046875
943,796.996337890625,792.1611938476562,797.8021850585938,791.3552856445312
944,796.996337890625,789.7435913085938,796.996337890625,786.923095703125
945,791.3552856445312,790.1465454101562,794.1758422851562,789.7435913085938
946,788.1318969726562,792.1611938476562,792.967041015625,792.5640869140625
947,788.1318969726562,790.5494384765625,799.010986328125,789.7435913085938
948,791.7582397460938,788.5347900390625,798.6080322265625,785.7142944335938
949,792.5640869140625,787.7289428710938,792.967041015625,789.3406372070312
950,785.3113403320312,785.7142944335938,796.1904907226562,788.5347900390625
951,778.8644409179688,785.3113403320312,799.010986328125,790.952392578125
952,777.2527465820312,788.5347900390625,797.3992919921875,794.981689453125
953,784.908447265625,794.1758422851562,798.6080322265625,798.6080322265625
954,788.1318969726562,794.5787353515625,800.6226806640625,802.2344360351562
955,788.1318969726562,795.7875366210938,798.2051391601562,798.6080322265625
956,787.7289428710938,792.5640869140625,795.7875366210938,792.967041015625
957,786.1171875,792.5640869140625,794.1758422851562,796.1904907226562
958,792.5640869140625,798.2051391601562,797.8021850585938,800.6226806640625
959,795.3846435546875,795.3846435546875,797.3992919921875,798.2051391601562
960,796.1904907226562,794.981689453125,796.1904907226562,800.6226806640625
961,796.996337890625,792.967041015625,799.4139404296875,802.2344360351562
962,790.1465454101562,784.908447265625,798.6080322265625,793.3699340820312
963,788.1318969726562,788.1318969726562,799.8168334960938,781.6849975585938
964,797.8021850585938,786.923095703125,796.1904907226562,788.937744140625
965,802.2344360351562,788.937744140625,799.4139404296875,796.5933837890625
966,792.1611938476562,794.981689453125,802.2344360351562,788.937744140625
967,788.937744140625,793.7728881835938,796.996337890625,789.7435913085938
968,790.1465454101562,795.3846435546875,795.3846435546875,794.5787353515625
969,786.923095703125,795.7875366210938,796.5933837890625,794.1758422851562
970,792.1611938476562,796.996337890625,799.4139404296875,796.996337890625
971,799.4139404296875,795.7875366210938,797.3992919921875,796.5933837890625
972,796.996337890625,795.7875366210938,795.3846435546875,791.7582397460938
973,790.952392578125,796.996337890625,796.5933837890625,792.967041015625
974,788.937744140625,792.1611938476562,795.3846435546875,792.967041015625
975,786.923095703125,787.7289428710938,794.5787353515625,797.3992919921875
976,780.0732421875,788.1318969726562,792.5640869140625,799.4139404296875
977,774.8351440429688,790.5494384765625,788.5347900390625,791.3552856445312
978,778.4615478515625,789.3406372070312,786.1171875,785.3113403320312
979,778.4615478515625,790.1465454101562,787.7289428710938,790.5494384765625
980,781.2820434570312,789.7435913085938,793.7728881835938,794.981689453125
981,792.5640869140625,791.3552856445312,796.996337890625,793.7728881835938
982,803.4432373046875,795.3846435546875,797.3992919921875,789.7435913085938
983,799.8168334960938,795.7875366210938,797.3992919921875,783.2966918945312
984,795.3846435546875,799.010986328125,794.5787353515625,782.087890625
985,793.7728881835938,798.2051391601562,793.3699340820312,784.908447265625
986,796.1904907226562,796.996337890625,795.7875366210938,792.1611938476562
987,809.89013671875,796.996337890625,796.1904907226562,798.6080322265625
988,809.89013671875,792.5640869140625,795.3846435546875,797.3992919921875
989,804.2490844726562,799.010986328125,794.981689453125,794.981689453125
990,807.87548828125,802.2344360351562,792.1611938476562,796.1904907226562
991,807.069580078125,795.7875366210938,792.1611938476562,796.996337890625
992,801.025634765625,794.5787353515625,792.967041015625,793.7728881835938
993,799.8168334960938,799.010986328125,796.5933837890625,787.7289428710938
994,799.8168334960938,795.3846435546875,799.8168334960938,797.3992919921875
995,796.5933837890625,791.3552856445312,802.2344360351562,805.4578857421875
996,794.5787353515625,795.7875366210938,803.4432373046875,804.2490844726562
997,792.967041015625,791.3552856445312,805.4578857421875,805.054931640625
998,798.2051391601562,788.1318969726562,803.4432373046875,806.6666870117188
999,806.6666870117188,788.1318969726562,799.8168334960938,811.098876953125
1000,792.5640869140625,779.6703491210938,802.2344360351562,801.8314819335938
1001,778.4615478515625,779.2673950195312,800.6226806640625,787.3259887695312
1002,781.6849975585938,790.5494384765625,796.996337890625,784.908447265625
1003,787.7289428710938,791.7582397460938,794.5787353515625,787.7289428710938
1004,787.3259887695312,787.3259887695312,797.3992919921875,783.6996459960938
1005,781.6849975585938,785.7142944335938,798.6080322265625,776.4468994140625
1006,784.1025390625,788.5347900390625,797.8021850585938,775.2380981445312
1007,785.7142944335938,791.7582397460938,797.3992919921875,779.2673950195312
1008,791.7582397460938,789.3406372070312,797.8021850585938,784.908447265625
1009,794.981689453125,787.7289428710938,798.6080322265625,785.3113403320312
1010,790.952392578125,792.1611938476562,796.5933837890625,782.893798828125
1011,788.937744140625,794.981689453125,796.1904907226562,787.3259887695312
1012,796.5933837890625,790.952392578125,798.2051391601562,791.3552856445312
1013,805.054931640625,792.967041015625,798.6080322265625,793.7728881835938
1014,801.8314819335938,790.5494384765625,795.7875366210938,804.2490844726562
1015,792.5640869140625,791.7582397460938,798.2051391601562,806.2637329101562
1016,785.7142944335938,794.981689453125,800.6226806640625,799.010986328125
1017,785.3113403320312,792.5640869140625,795.7875366210938,795.7875366210938
1018,784.908447265625,795.3846435546875,788.1318969726562,792.1611938476562
1019,784.5054931640625,795.7875366210938,787.7289428710938,789.3406372070312
1020,786.5201416015625,791.3552856445312,789.3406372070312,794.981689453125
1021,793.7728881835938,790.1465454101562,786.5201416015625,799.010986328125
1022,799.010986328125,788.5347900390625,786.1171875,791.3552856445312
1023,797.3992919921875,790.5494384765625,788.937744140625,784.908447265625
1024,795.7875366210938,794.1758422851562,790.1465454101562,789.3406372070312
1025,803.4432373046875,796.996337890625,790.5494384765625,801.025634765625
1026,807.4725341796875,797.8021850585938,788.937744140625,801.4285888671875
1027,803.4432373046875,801.4285888671875,790.5494384765625,788.5347900390625
1028,801.8314819335938,803.8461303710938,790.5494384765625,787.7289428710938
1029,801.8314819335938,794.981689453125,789.7435913085938,794.5787353515625
1030,799.4139404296875,791.3552856445312,792.1611938476562,789.7435913085938
1031,801.8314819335938,796.5933837890625,792.967041015625,786.923095703125
1032,800.6226806640625,796.996337890625,795.3846435546875,793.7728881835938
1033,790.5494384765625,796.1904907226562,795.7875366210938,797.3992919921875
1034,786.923095703125,791.3552856445312,793.7728881835938,795.3846435546875
1035,792.1611938476562,792.967041015625,794.981689453125,796.1904907226562
1036,792.1611938476562,796.1904907226562,799.4139404296875,795.7875366210938
1037,789.3406372070312,792.967041015625,802.2344360351562,804.6520385742188
1038,788.1318969726562,792.1611938476562,800.6226806640625,810.6959838867188
1039,781.6849975585938,790.952392578125,796.1904907226562,799.4139404296875
1040,781.6849975585938,788.5347900390625,793.7728881835938,794.5787353515625
1041,792.5640869140625,794.1758422851562,792.967041015625,790.5494384765625
1042,792.967041015625,793.3699340820312,790.1465454101562,786.5201416015625
1043,797.3992919921875,792.967041015625,792.1611938476562,790.1465454101562
1044,802.2344360351562,801.4285888671875,793.7728881835938,794.5787353515625
1045,793.7728881835938,795.7875366210938,790.952392578125,789.7435913085938
1046,785.3113403320312,788.937744140625,788.5347900390625,781.6849975585938
1047,788.937744140625,789.3406372070312,787.7289428710938,778.05859375
1048,793.3699340820312,788.937744140625,786.5201416015625,778.4615478515625
1049,790.5494384765625,783.2966918945312,782.087890625,784.908447265625
1050,789.3406372070312,780.4761962890625,784.908447265625,788.5347900390625
1051,790.952392578125,787.3259887695312,791.3552856445312,790.5494384765625
1052,795.7875366210938,792.1611938476562,794.5787353515625,797.8021850585938
1053,796.1904907226562,788.937744140625,793.7728881835938,793.3699340820312
1054,789.3406372070312,794.1758422851562,794.1758422851562,783.2966918945312
1055,784.5054931640625,798.6080322265625,795.7875366210938,787.3259887695312
1056,786.923095703125,794.5787353515625,794.981689453125,796.5933837890625
1057,794.5787353515625,791.7582397460938,795.7875366210938,803.4432373046875
1058,791.3552856445312,792.5640869140625,796.996337890625,796.996337890625
1059,788.5347900390625,790.5494384765625,797.8021850585938,788.1318969726562
1060,795.7875366210938,789.7435913085938,798.2051391601562,793.7728881835938
1061,790.5494384765625,791.3552856445312,797.8021850585938,799.8168334960938
1062,790.952392578125,786.923095703125,799.4139404296875,793.7728881835938
1063,796.1904907226562,789.3406372070312,803.4432373046875,788.937744140625
1064,802.2344360351562,794.981689453125,800.2197875976562,803.4432373046875
1065,801.025634765625,794.981689453125,794.5787353515625,811.5018310546875
1066,795.3846435546875,791.3552856445312,798.2051391601562,796.1904907226562
1067,794.981689453125,787.3259887695312,797.8021850585938,791.3552856445312
1068,790.952392578125,788.5347900390625,796.1904907226562,792.5640869140625
1069,792.1611938476562,792.5640869140625,800.6226806640625,795.7875366210938
1070,794.1758422851562,792.967041015625,802.2344360351562,801.025634765625
1071,794.5787353515625,791.7582397460938,797.8021850585938,799.010986328125
1072,799.010986328125,788.937744140625,794.5787353515625,799.010986328125
1073,801.8314819335938,791.3552856445312,794.1758422851562,800.2197875976562
1074,798.2051391601562,790.952392578125,795.7875366210938,796.996337890625
1075,794.981689453125,790.5494384765625,797.8021850585938,796.1904907226562
1076,796.5933837890625,792.5640869140625,794.5787353515625,801.8314819335938
1077,798.2051391601562,793.3699340820312,796.5933837890625,801.4285888671875
1078,800.2197875976562,798.2051391601562,796.5933837890625,797.3992919921875
1079,801.4285888671875,795.7875366210938,792.1611938476562,798.6080322265625
1080,802.6373901367188,792.1611938476562,793.7728881835938,794.1758422851562
1081,796.996337890625,793.3699340820312,796.5933837890625,782.893798828125
1082,796.5933837890625,789.3406372070312,794.5787353515625,784.5054931640625
1083,804.6520385742188,784.5054931640625,787.7289428710938,792.5640869140625
1084,802.2344360351562,786.1171875,790.1465454101562,795.3846435546875
1085,791.3552856445312,792.5640869140625,797.3992919921875,786.1171875
1086,783.2966918945312,792.967041015625,791.7582397460938,772.4176025390625
1087,787.7289428710938,789.3406372070312,787.7289428710938,779.2673950195312
1088,790.1465454101562,791.3552856445312,793.3699340820312,794.981689453125
1089,794.981689453125,795.7875366210938,796.996337890625,794.1758422851562
1090,800.6226806640625,798.2051391601562,799.010986328125,793.3699340820312
1091,796.1904907226562,793.7728881835938,798.2051391601562,792.967041015625
1092,790.5494384765625,788.5347900390625,793.3699340820312,791.7582397460938
1093,791.3552856445312,788.1318969726562,794.1758422851562,796.5933837890625
1094,794.981689453125,791.3552856445312,793.3699340820312,796.996337890625
1095,799.4139404296875,791.3552856445312,791.3552856445312,796.1904907226562
1096,798.6080322265625,788.937744140625,797.3992919921875,800.6226806640625
1097,800.2197875976562,791.3552856445312,799.8168334960938,796.1904907226562
1098,805.4578857421875,794.981689453125,796.1904907226562,795.3846435546875
1099,801.4285888671875,790.5494384765625,793.7728881835938,802.6373901367188
1100,802.2344360351562,788.5347900390625,799.8168334960938,801.4285888671875
1101,800.2197875976562,792.1611938476562,804.2490844726562,790.952392578125
1102,800.2197875976562,790.952392578125,797.8021850585938,791.7582397460938
1103,801.025634765625,790.1465454101562,798.2051391601562,803.4432373046875
1104,793.7728881835938,784.5054931640625,799.8168334960938,799.010986328125
1105,788.937744140625,780.879150390625,796.996337890625,794.981689453125
1106,789.3406372070312,789.7435913085938,794.981689453125,798.2051391601562
1107,794.5787353515625,793.7728881835938,795.7875366210938,799.4139404296875
1108,796.996337890625,790.5494384765625,796.996337890625,801.8314819335938
1109,796.5933837890625,788.937744140625,793.7728881835938,801.4285888671875
1110,793.3699340820312,782.893798828125,794.981689453125,801.8314819335938
1111,790.1465454101562,780.879150390625,797.8021850585938,804.2490844726562
1112,789.3406372070312,784.908447265625,796.996337890625,800.2197875976562
1113,786.923095703125,781.2820434570312,792.967041015625,793.7728881835938
1114,789.3406372070312,787.7289428710938,795.3846435546875,795.3846435546875
1115,791.7582397460938,795.7875366210938,798.2051391601562,798.6080322265625
1116,794.981689453125,789.7435913085938,795.3846435546875,796.1904907226562
1117,797.3992919921875,785.3113403320312,794.5787353515625,796.5933837890625
1118,797.3992919921875,791.7582397460938,794.5787353515625,800.6226806640625
1119,799.4139404296875,796.5933837890625,795.7875366210938,801.4285888671875
1120,799.8168334960938,791.7582397460938,797.8021850585938,792.967041015625
1121,797.3992919921875,785.7142944335938,794.981689453125,784.1025390625
1122,792.5640869140625,782.087890625,790.1465454101562,794.981689453125
1123,790.1465454101562,784.908447265625,792.5640869140625,796.996337890625
1124,790.5494384765625,789.7435913085938,794.1758422851562,788.5347900390625
1125,791.3552856445312,787.3259887695312,790.1465454101562,792.5640869140625
1126,788.5347900390625,794.1758422851562,788.5347900390625,794.981689453125
1127,782.4908447265625,796.5933837890625,787.7289428710938,785.3113403320312
1128,782.087890625,789.7435913085938,786.923095703125,785.7142944335938
1129,787.3259887695312,782.893798828125,788.1318969726562,791.3552856445312
1130,787.7289428710938,780.879150390625,787.7289428710938,791.7582397460938
1131,786.923095703125,788.1318969726562,790.5494384765625,799.8168334960938
1132,790.1465454101562,794.1758422851562,788.937744140625,799.010986328125
1133,794.1758422851562,790.5494384765625,789.7435913085938,801.025634765625
1134,796.1904907226562,786.923095703125,796.1904907226562,808.6813354492188
1135,796.5933837890625,789.7435913085938,798.2051391601562,801.025634765625
1136,792.967041015625,791.3552856445312,799.8168334960938,796.996337890625
1137,792.5640869140625,793.3699340820312,794.981689453125,798.2051391601562
1138,793.3699340820312,794.5787353515625,794.5787353515625,798.6080322265625
1139,791.7582397460938,791.7582397460938,796.1904907226562,796.1904907226562
1140,795.3846435546875,787.3259887695312,792.1611938476562,792.5640869140625
1141,796.996337890625,793.3699340820312,794.1758422851562,797.3992919921875
1142,792.967041015625,796.5933837890625,795.3846435546875,796.5933837890625
1143,792.5640869140625,795.7875366210938,796.996337890625,799.8168334960938
1144,792.1611938476562,791.7582397460938,795.7875366210938,803.040283203125
1145,799.8168334960938,794.1758422851562,796.1904907226562,803.8461303710938
1146,805.8607788085938,799.010986328125,797.8021850585938,806.6666870117188
1147,806.2637329101562,795.7875366210938,797.3992919921875,801.8314819335938
1148,802.6373901367188,792.967041015625,794.5787353515625,800.2197875976562
1149,794.981689453125,789.7435913085938,792.5640869140625,804.6520385742188
1150,794.5787353515625,793.7728881835938,794.5787353515625,800.6226806640625
1151,792.967041015625,795.7875366210938,797.3992919921875,798.2051391601562
1152,792.5640869140625,788.5347900390625,794.1758422851562,800.6226806640625
1153,789.3406372070312,788.5347900390625,792.5640869140625,802.2344360351562
1154,785.7142944335938,793.3699340820312,792.1611938476562,794.5787353515625
1155,790.952392578125,799.4139404296875,793.7728881835938,793.3699340820312
1156,798.2051391601562,795.3846435546875,793.7728881835938,801.025634765625
1157,798.6080322265625,786.5201416015625,792.967041015625,801.025634765625
1158,796.5933837890625,790.5494384765625,796.5933837890625,799.4139404296875
1159,794.1758422851562,788.937744140625,795.7875366210938,798.2051391601562
1160,790.952392578125,786.5201416015625,793.7728881835938,799.010986328125
1161,797.8021850585938,793.3699340820312,794.1758422851562,802.2344360351562
1162,801.4285888671875,795.7875366210938,793.7728881835938,799.4139404296875
1163,796.1904907226562,790.5494384765625,793.3699340820312,794.981689453125
1164,796.1904907226562,793.3699340820312,796.996337890625,792.967041015625
1165,797.3992919921875,794.5787353515625,800.2197875976562,794.5787353515625
1166,795.3846435546875,786.5201416015625,801.025634765625,794.5787353515625
1167,797.3992919921875,786.5201416015625,799.010986328125,793.3699340820312
1168,796.996337890625,791.3552856445312,796.5933837890625,794.1758422851562
1169,794.981689453125,790.1465454101562,792.967041015625,793.7728881835938
1170,790.1465454101562,792.5640869140625,795.7875366210938,793.7728881835938
1171,790.1465454101562,794.5787353515625,795.7875366210938,788.1318969726562
1172,797.8021850585938,789.3406372070312,795.7875366210938,792.1611938476562
1173,798.2051391601562,790.952392578125,796.996337890625,796.1904907226562
1174,801.025634765625,790.952392578125,793.7728881835938,794.1758422851562
1175,801.025634765625,784.5054931640625,790.1465454101562,795.7875366210938
1176,799.010986328125,783.6996459960938,792.967041015625,801.8314819335938
1177,796.5933837890625,786.923095703125,798.6080322265625,806.2637329101562
1178,785.3113403320312,790.5494384765625,798.2051391601562,794.1758422851562
1179,783.2966918945312,793.3699340820312,798.6080322265625,787.7289428710938
1180,789.3406372070312,792.5640869140625,798.6080322265625,790.952392578125
1181,796.996337890625,794.981689453125,800.6226806640625,787.7289428710938
1182,796.1904907226562,797.8021850585938,802.2344360351562,784.908447265625
1183,799.010986328125,798.2051391601562,794.981689453125,787.3259887695312
1184,805.054931640625,794.1758422851562,795.7875366210938,791.3552856445312
1185,796.996337890625,791.7582397460938,796.996337890625,786.5201416015625
1186,790.952392578125,794.5787353515625,794.5787353515625,788.5347900390625
1187,795.7875366210938,790.5494384765625,790.952392578125,790.952392578125
1188,798.6080322265625,786.5201416015625,794.981689453125,788.5347900390625
1189,797.8021850585938,790.1465454101562,799.010986328125,792.967041015625
1190,797.3992919921875,791.3552856445312,793.3699340820312,794.981689453125
1191,794.981689453125,791.3552856445312,793.3699340820312,790.952392578125
1192,798.2051391601562,793.7728881835938,789.7435913085938,781.6849975585938
1193,799.4139404296875,794.981689453125,786.5201416015625,783.2966918945312
1194,798.2051391601562,792.5640869140625,787.3259887695312,787.7289428710938
1195,791.3552856445312,783.6996459960938,786.923095703125,786.1171875
1196,791.3552856445312,785.7142944335938,790.5494384765625,788.937744140625
1197,793.3699340820312,788.937744140625,792.5640869140625,791.7582397460938
1198,789.7435913085938,786.1171875,787.7289428710938,794.5787353515625
1199,786.923095703125,792.967041015625,791.7582397460938,794.981689453125
1200,786.923095703125,796.996337890625,796.996337890625,796.5933837890625
1201,790.1465454101562,789.3406372070312,790.5494384765625,795.3846435546875
1202,792.5640869140625,790.1465454101562,788.1318969726562,792.5640869140625
1203,789.3406372070312,792.967041015625,788.1318969726562,790.1465454101562
1204,784.5054931640625,787.7289428710938,788.1318969726562,788.937744140625
1205,787.7289428710938,784.5054931640625,788.937744140625,789.7435913085938
1206,795.3846435546875,786.923095703125,792.1611938476562,788.1318969726562
1207,796.5933837890625,788.937744140625,793.3699340820312,787.3259887695312
1208,798.6080322265625,791.3552856445312,796.5933837890625,786.923095703125
1209,798.2051391601562,790.1465454101562,797.3992919921875,789.7435913085938
1210,792.5640869140625,788.1318969726562,795.3846435546875,790.952392578125
1211,793.3699340820312,786.5201416015625,791.7582397460938,789.3406372070312
1212,796.1904907226562,788.937744140625,789.7435913085938,790.1465454101562
1213,801.025634765625,792.967041015625,792.967041015625,791.7582397460938
1214,800.6226806640625,790.1465454101562,794.981689453125,788.5347900390625
1215,801.025634765625,786.5201416015625,795.7875366210938,788.1318969726562
1216,801.025634765625,792.1611938476562,793.7728881835938,791.3552856445312
1217,798.2051391601562,793.3699340820312,790.1465454101562,791.3552856445312
1218,797.3992919921875,789.7435913085938,788.1318969726562,792.967041015625
1219,797.3992919921875,790.1465454101562,790.5494384765625,795.7875366210938
1220,796.1904907226562,786.5201416015625,788.937744140625,799.4139404296875
1221,794.981689453125,788.1318969726562,788.5347900390625,808.2783813476562
1222,794.1758422851562,792.967041015625,793.3699340820312,808.2783813476562
1223,792.5640869140625,791.7582397460938,794.1758422851562,799.4139404296875
1224,790.5494384765625,786.1171875,791.7582397460938,794.1758422851562
1225,796.1904907226562,785.3113403320312,793.7728881835938,792.967041015625
1226,798.6080322265625,790.1465454101562,792.5640869140625,793.7728881835938
1227,792.1611938476562,790.952392578125,789.3406372070312,784.1025390625
1228,794.1758422851562,786.5201416015625,788.937744140625,781.2820434570312
1229,796.1904907226562,794.1758422851562,790.1465454101562,791.3552856445312
1230,792.5640869140625,793.7728881835938,786.5201416015625,788.5347900390625
1231,786.5201416015625,790.5494384765625,784.5054931640625,779.6703491210938
1232,784.908447265625,790.5494384765625,785.7142944335938,780.4761962890625
1233,788.5347900390625,786.5201416015625,789.3406372070312,786.923095703125
1234,790.1465454101562,789.7435913085938,792.967041015625,788.5347900390625
1235,789.3406372070312,798.2051391601562,795.7875366210938,790.5494384765625
1236,790.1465454101562,797.8021850585938,793.7728881835938,790.1465454101562
1237,793.7728881835938,796.5933837890625,792.1611938476562,789.7435913085938
1238,797.8021850585938,799.8168334960938,798.2051391601562,793.7728881835938
1239,790.5494384765625,801.025634765625,801.025634765625,794.981689453125
1240,788.937744140625,797.3992919921875,801.025634765625,797.3992919921875
1241,796.5933837890625,793.7728881835938,800.6226806640625,802.6373901367188
1242,790.952392578125,800.2197875976562,798.2051391601562,798.2051391601562
1243,784.5054931640625,801.4285888671875,797.3992919921875,788.937744140625
1244,792.1611938476562,793.3699340820312,795.3846435546875,788.5347900390625
1245,797.8021850585938,793.7728881835938,791.7582397460938,786.5201416015625
1246,792.1611938476562,799.4139404296875,792.5640869140625,772.4176025390625
1247,790.1465454101562,796.5933837890625,792.5640869140625,772.8204956054688
1248,790.1465454101562,794.1758422851562,790.952392578125,782.4908447265625
1249,786.923095703125,790.952392578125,792.5640869140625,780.879150390625
1250,786.1171875,786.923095703125,791.3552856445312,782.893798828125
1251,787.3259887695312,784.1025390625,789.7435913085938,788.5347900390625
1252,792.1611938476562,786.1171875,791.7582397460938,794.5787353515625
1253,792.967041015625,784.1025390625,791.3552856445312,792.967041015625
1254,792.1611938476562,782.4908447265625,792.967041015625,784.908447265625
1255,792.1611938476562,786.1171875,796.1904907226562,783.6996459960938
1256,790.1465454101562,783.2966918945312,791.7582397460938,789.7435913085938
1257,790.952392578125,787.3259887695312,793.7728881835938,793.7728881835938
1258,795.7875366210938,795.3846435546875,795.7875366210938,794.981689453125
1259,798.6080322265625,793.7728881835938,788.937744140625,796.5933837890625
1260,791.7582397460938,791.3552856445312,790.952392578125,798.6080322265625
1261,786.923095703125,793.3699340820312,794.1758422851562,799.010986328125
1262,792.1611938476562,794.1758422851562,795.3846435546875,794.981689453125
1263,793.3699340820312,794.5787353515625,795.7875366210938,796.1904907226562
1264,790.1465454101562,792.1611938476562,789.3406372070312,798.2051391601562
1265,784.1025390625,784.1025390625,784.908447265625,788.937744140625
1266,783.2966918945312,788.1318969726562,791.3552856445312,782.087890625
1267,786.923095703125,791.3552856445312,792.1611938476562,781.6849975585938
1268,784.5054931640625,782.4908447265625,789.7435913085938,780.0732421875
1269,782.893798828125,786.1171875,792.967041015625,776.4468994140625
1270,786.923095703125,789.7435913085938,792.1611938476562,776.0439453125
1271,789.7435913085938,782.4908447265625,789.7435913085938,779.2673950195312
1272,788.1318969726562,779.6703491210938,790.1465454101562,782.4908447265625
1273,787.7289428710938,785.3113403320312,788.937744140625,782.087890625
1274,788.5347900390625,786.5201416015625,790.952392578125,788.5347900390625
1275,793.3699340820312,782.893798828125,792.5640869140625,799.4139404296875
1276,796.5933837890625,789.3406372070312,795.3846435546875,806.2637329101562
1277,789.7435913085938,793.3699340820312,795.7875366210938,800.6226806640625
1278,785.3113403320312,792.5640869140625,793.7728881835938,792.5640869140625
1279,793.7728881835938,795.3846435546875,793.7728881835938,800.6226806640625
1280,796.5933837890625,792.5640869140625,793.3699340820312,807.87548828125
1281,794.981689453125,790.1465454101562,794.1758422851562,808.2783813476562
1282,794.5787353515625,794.981689453125,791.3552856445312,806.2637329101562
1283,792.967041015625,797.8021850585938,790.5494384765625,806.2637329101562
1284,796.1904907226562,790.952392578125,790.952392578125,805.4578857421875
1285,797.3992919921875,790.1465454101562,792.1611938476562,794.981689453125
1286,801.4285888671875,794.981689453125,793.3699340820312,792.967041015625
1287,803.040283203125,793.7728881835938,792.5640869140625,800.2197875976562
1288,796.1904907226562,786.5201416015625,789.3406372070312,794.5787353515625
1289,793.7728881835938,786.5201416015625,787.3259887695312,787.7289428710938
1290,793.3699340820312,793.7728881835938,788.937744140625,787.7289428710938
1291,790.952392578125,793.3699340820312,792.967041015625,799.010986328125
1292,786.5201416015625,786.923095703125,791.3552856445312,794.981689453125
1293,786.1171875,783.6996459960938,788.5347900390625,784.1025390625
1294,788.1318969726562,784.5054931640625,789.3406372070312,792.5640869140625
1295,789.3406372070312,784.1025390625,793.3699340820312,793.3699340820312
1296,788.5347900390625,782.893798828125,796.5933837890625,795.3846435546875
1297,786.5201416015625,786.1171875,800.6226806640625,802.2344360351562
1298,782.4908447265625,789.3406372070312,799.010986328125,799.4139404296875
1299,788.5347900390625,791.3552856445312,794.5787353515625,796.996337890625
1300,794.5787353515625,790.952392578125,795.3846435546875,796.1904907226562
1301,790.5494384765625,790.5494384765625,798.2051391601562,796.5933837890625
1302,785.3113403320312,791.3552856445312,797.8021850585938,797.8021850585938
1303,782.4908447265625,784.908447265625,793.3699340820312,795.7875366210938
1304,786.1171875,788.937744140625,792.1611938476562,787.7289428710938
1305,791.7582397460938,798.6080322265625,789.7435913085938,788.5347900390625
1306,792.5640869140625,798.6080322265625,788.5347900390625,796.1904907226562
1307,796.1904907226562,794.5787353515625,790.952392578125,794.5787353515625
1308,795.3846435546875,790.952392578125,791.7582397460938,788.5347900390625
1309,794.5787353515625,793.7728881835938,792.1611938476562,795.3846435546875
1310,797.8021850585938,795.3846435546875,792.967041015625,794.981689453125
1311,796.5933837890625,793.3699340820312,791.3552856445312,787.3259887695312
1312,794.5787353515625,795.7875366210938,792.5640869140625,786.923095703125
1313,787.3259887695312,791.7582397460938,790.1465454101562,791.7582397460938
1314,786.923095703125,784.5054931640625,790.1465454101562,801.8314819335938
1315,792.5640869140625,788.937744140625,792.1611938476562,804.2490844726562
1316,790.952392578125,793.3699340820312,790.1465454101562,798.2051391601562
1317,792.967041015625,797.8021850585938,795.7875366210938,802.2344360351562
1318,795.3846435546875,794.981689453125,797.3992919921875,804.2490844726562
1319,794.5787353515625,792.1611938476562,793.3699340820312,798.2051391601562
1320,796.1904907226562,804.2490844726562,793.3699340820312,803.8461303710938
1321,795.3846435546875,803.4432373046875,794.5787353515625,801.8314819335938
1322,799.8168334960938,795.7875366210938,795.7875366210938,799.010986328125
1323,792.1611938476562,794.1758422851562,795.3846435546875,794.981689453125
1324,782.893798828125,792.5640869140625,792.1611938476562,790.5494384765625
1325,794.1758422851562,788.1318969726562,792.1611938476562,803.8461303710938
1326,797.8021850585938,788.937744140625,792.967041015625,803.040283203125
1327,794.5787353515625,791.7582397460938,794.5787353515625,789.7435913085938
1328,792.1611938476562,790.952392578125,792.967041015625,791.7582397460938
1329,788.5347900390625,793.3699340820312,788.1318969726562,790.5494384765625
1330,792.5640869140625,794.1758422851562,788.937744140625,790.5494384765625
1331,797.8021850585938,797.8021850585938,797.3992919921875,796.1904907226562
1332,797.8021850585938,798.6080322265625,796.996337890625,793.3699340820312
1333,791.3552856445312,789.7435913085938,790.952392578125,784.908447265625
1334,788.5347900390625,786.5201416015625,792.1611938476562,785.7142944335938
1335,790.952392578125,792.967041015625,794.1758422851562,792.5640869140625
1336,794.1758422851562,793.3699340820312,795.7875366210938,796.996337890625
1337,796.1904907226562,790.952392578125,794.981689453125,806.2637329101562
1338,797.3992919921875,795.3846435546875,793.7728881835938,805.8607788085938
1339,799.8168334960938,794.5787353515625,792.1611938476562,801.025634765625
1340,800.2197875976562,797.3992919921875,790.952392578125,805.4578857421875
1341,792.5640869140625,800.6226806640625,795.7875366210938,806.2637329101562
1342,784.908447265625,798.2051391601562,796.1904907226562,800.6226806640625
1343,790.952392578125,794.5787353515625,795.7875366210938,801.025634765625
1344,796.1904907226562,792.1611938476562,794.981689453125,801.025634765625
1345,790.5494384765625,794.1758422851562,795.3846435546875,795.3846435546875
1346,791.7582397460938,797.3992919921875,796.996337890625,788.5347900390625
1347,800.2197875976562,790.952392578125,790.5494384765625,786.5201416015625
1348,799.010986328125,791.3552856445312,790.5494384765625,793.3699340820312
1349,796.5933837890625,794.1758422851562,796.1904907226562,793.7728881835938
1350,792.967041015625,788.937744140625,801.8314819335938,787.7289428710938
1351,788.5347900390625,790.5494384765625,802.6373901367188,786.1171875
1352,790.952392578125,791.7582397460938,794.1758422851562,790.5494384765625
1353,792.1611938476562,792.967041015625,792.967041015625,792.5640869140625
1354,786.1171875,792.1611938476562,793.7728881835938,786.923095703125
1355,782.4908447265625,785.3113403320312,788.937744140625,788.1318969726562
1356,786.5201416015625,784.1025390625,786.5201416015625,788.937744140625
1357,790.5494384765625,787.3259887695312,788.1318969726562,785.7142944335938
1358,790.5494384765625,785.3113403320312,792.1611938476562,781.2820434570312
1359,794.1758422851562,784.5054931640625,791.3552856445312,781.6849975585938
1360,789.7435913085938,787.3259887695312,788.5347900390625,796.5933837890625
1361,786.5201416015625,786.5201416015625,792.5640869140625,802.6373901367188
1362,794.1758422851562,787.7289428710938,794.5787353515625,796.5933837890625
1363,793.3699340820312,786.5201416015625,792.5640869140625,795.7875366210938
1364,794.5787353515625,784.5054931640625,791.7582397460938,799.4139404296875
1365,795.7875366210938,791.7582397460938,790.5494384765625,798.6080322265625
1366,794.981689453125,795.3846435546875,789.7435913085938,792.967041015625
1367,797.3992919921875,794.981689453125,789.7435913085938,792.1611938476562
1368,797.8021850585938,792.967041015625,791.7582397460938,797.3992919921875
1369,799.010986328125,793.7728881835938,791.3552856445312,791.3552856445312
1370,790.5494384765625,791.7582397460938,785.3113403320312,789.3406372070312
1371,788.1318969726562,786.923095703125,788.937744140625,793.7728881835938
1372,791.3552856445312,787.3259887695312,794.981689453125,790.952392578125
1373,793.7728881835938,790.952392578125,791.7582397460938,792.1611938476562
1374,795.3846435546875,790.5494384765625,786.1171875,786.923095703125
1375,795.7875366210938,788.1318969726562,785.7142944335938,788.5347900390625
1376,795.3846435546875,791.3552856445312,789.7435913085938,794.981689453125
1377,796.1904907226562,796.1904907226562,796.1904907226562,792.5640869140625
1378,799.4139404296875,791.3552856445312,800.2197875976562,792.967041015625
1379,803.4432373046875,793.3699340820312,800.2197875976562,791.7582397460938
1380,802.6373901367188,800.2197875976562,800.6226806640625,793.7728881835938
1381,795.3846435546875,797.3992919921875,802.2344360351562,793.3699340820312
1382,793.3699340820312,793.3699340820312,799.010986328125,792.967041015625
1383,790.952392578125,789.3406372070312,792.5640869140625,797.3992919921875
1384,791.3552856445312,788.1318969726562,790.1465454101562,800.6226806640625
1385,796.1904907226562,789.7435913085938,789.3406372070312,809.4871826171875
1386,796.1904907226562,789.7435913085938,788.5347900390625,808.6813354492188
1387,787.7289428710938,788.5347900390625,791.3552856445312,799.010986328125
1388,781.6849975585938,789.3406372070312,792.5640869140625,793.7728881835938
1389,785.7142944335938,790.952392578125,789.7435913085938,790.1465454101562
1390,790.1465454101562,792.1611938476562,788.5347900390625,798.2051391601562
1391,788.937744140625,796.1904907226562,791.3552856445312,798.6080322265625
1392,789.7435913085938,798.6080322265625,792.967041015625,794.5787353515625
1393,790.1465454101562,794.5787353515625,791.7582397460938,793.3699340820312
1394,792.5640869140625,792.5640869140625,790.952392578125,794.1758422851562
1395,794.1758422851562,793.3699340820312,790.952392578125,794.1758422851562
1396,791.7582397460938,789.3406372070312,790.5494384765625,796.996337890625
1397,792.1611938476562,788.937744140625,795.3846435546875,797.3992919921875
1398,792.967041015625,790.952392578125,794.1758422851562,794.981689453125
1399,792.5640869140625,789.3406372070312,791.3552856445312,794.981689453125
1400,789.3406372070312,789.7435913085938,791.3552856445312,788.937744140625
1401,790.1465454101562,788.5347900390625,791.7582397460938,786.5201416015625
1402,793.3699340820312,796.996337890625,790.952392578125,789.3406372070312
1403,792.1611938476562,801.025634765625,787.7289428710938,791.7582397460938
1404,790.1465454101562,797.3992919921875,789.7435913085938,792.5640869140625
1405,788.937744140625,798.2051391601562,793.7728881835938,794.981689453125
1406,786.1171875,794.1758422851562,794.1758422851562,799.4139404296875
1407,785.3113403320312,793.3699340820312,792.1611938476562,792.967041015625
1408,794.1758422851562,801.025634765625,793.7728881835938,792.967041015625
1409,799.010986328125,804.6520385742188,795.7875366210938,794.981689453125
1410,796.996337890625,805.054931640625,795.7875366210938,802.6373901367188
1411,795.7875366210938,801.025634765625,795.7875366210938,799.8168334960938
1412,793.3699340820312,804.2490844726562,798.6080322265625,789.7435913085938
1413,799.8168334960938,800.2197875976562,798.2051391601562,793.7728881835938
1414,803.8461303710938,790.952392578125,794.5787353515625,792.1611938476562
1415,794.5787353515625,796.1904907226562,795.3846435546875,793.3699340820312
1416,787.3259887695312,796.5933837890625,794.1758422851562,793.3699340820312
1417,792.1611938476562,797.3992919921875,789.7435913085938,801.025634765625
1418,793.3699340820312,795.3846435546875,791.3552856445312,806.2637329101562
1419,789.7435913085938,790.5494384765625,793.7728881835938,802.6373901367188
1420,796.1904907226562,788.1318969726562,792.967041015625,796.996337890625
1421,799.8168334960938,791.7582397460938,792.5640869140625,793.7728881835938
1422,796.1904907226562,791.7582397460938,790.1465454101562,792.967041015625
1423,794.5787353515625,789.3406372070312,791.7582397460938,785.3113403320312
1424,800.2197875976562,794.1758422851562,795.3846435546875,788.5347900390625
1425,798.2051391601562,793.3699340820312,799.010986328125,790.5494384765625
1426,796.1904907226562,789.7435913085938,795.3846435546875,787.3259887695312
1427,797.3992919921875,791.7582397460938,790.952392578125,780.0732421875
1428,794.5787353515625,793.3699340820312,794.981689453125,785.3113403320312
1429,792.5640869140625,789.7435913085938,793.3699340820312,792.5640869140625
1430,786.5201416015625,786.1171875,790.952392578125,790.1465454101562
1431,787.3259887695312,786.1171875,794.5787353515625,798.2051391601562
1432,795.7875366210938,784.5054931640625,794.981689453125,799.8168334960938
1433,798.6080322265625,782.4908447265625,795.3846435546875,798.6080322265625
1434,798.2051391601562,787.7289428710938,795.3846435546875,804.6520385742188
1435,795.7875366210938,790.1465454101562,794.1758422851562,802.2344360351562
1436,793.3699340820312,787.7289428710938,792.5640869140625,799.8168334960938
1437,787.7289428710938,785.3113403320312,788.937744140625,795.7875366210938
1438,786.923095703125,789.3406372070312,790.5494384765625,792.967041015625
1439,787.3259887695312,789.3406372070312,791.3552856445312,795.3846435546875
1440,787.7289428710938,784.908447265625,791.3552856445312,792.1611938476562
1441,788.1318969726562,786.1171875,791.3552856445312,786.923095703125
1442,786.5201416015625,787.3259887695312,791.3552856445312,789.3406372070312
1443,786.923095703125,786.923095703125,795.7875366210938,792.1611938476562
1444,791.3552856445312,788.1318969726562,796.5933837890625,798.6080322265625
1445,794.981689453125,787.7289428710938,794.5787353515625,807.4725341796875
1446,791.3552856445312,784.908447265625,797.8021850585938,800.2197875976562
1447,784.5054931640625,783.6996459960938,794.981689453125,784.1025390625
1448,788.5347900390625,782.087890625,790.952392578125,786.923095703125
1449,794.981689453125,785.7142944335938,792.5640869140625,795.3846435546875
1450,788.1318969726562,794.1758422851562,798.2051391601562,788.1318969726562
1451,787.3259887695312,797.8021850585938,793.7728881835938,784.5054931640625
1452,795.3846435546875,799.010986328125,786.923095703125,785.3113403320312
1453,797.3992919921875,798.2051391601562,790.1465454101562,783.6996459960938
1454,798.2051391601562,798.2051391601562,791.3552856445312,784.1025390625
1455,799.8168334960938,796.996337890625,790.1465454101562,785.7142944335938
1456,799.8168334960938,790.952392578125,791.3552856445312,791.7582397460938
1457,793.7728881835938,784.1025390625,791.3552856445312,790.1465454101562
1458,786.923095703125,785.3113403320312,792.1611938476562,784.908447265625
1459,793.7728881835938,786.1171875,790.952392578125,790.952392578125
1460,796.1904907226562,783.6996459960938,786.923095703125,795.3846435546875
1461,791.3552856445312,786.1171875,789.7435913085938,792.1611938476562
1462,790.5494384765625,787.7289428710938,786.1171875,789.3406372070312
1463,791.7582397460938,790.5494384765625,784.908447265625,792.1611938476562
1464,795.7875366210938,793.3699340820312,790.952392578125,792.1611938476562
1465,793.7728881835938,789.3406372070312,786.1171875,788.1318969726562
1466,789.3406372070312,787.7289428710938,786.5201416015625,789.3406372070312
1467,792.1611938476562,787.3259887695312,790.952392578125,792.5640869140625
1468,789.7435913085938,783.2966918945312,789.7435913085938,801.025634765625
1469,787.7289428710938,786.5201416015625,786.5201416015625,797.8021850585938
1470,787.3259887695312,796.1904907226562,787.7289428710938,784.908447265625
1471,790.5494384765625,792.5640869140625,788.937744140625,795.7875366210938
1472,793.3699340820312,793.7728881835938,786.923095703125,800.2197875976562
1473,784.908447265625,798.6080322265625,793.7728881835938,786.923095703125
1474,783.6996459960938,792.5640869140625,799.4139404296875,787.7289428710938
1475,792.5640869140625,790.5494384765625,796.996337890625,790.952392578125
1476,795.7875366210938,789.7435913085938,794.981689453125,787.7289428710938
1477,794.5787353515625,788.937744140625,799.010986328125,788.937744140625
1478,796.996337890625,788.5347900390625,797.3992919921875,789.7435913085938
1479,797.8021850585938,788.1318969726562,795.3846435546875,785.3113403320312
1480,795.7875366210938,790.5494384765625,796.5933837890625,784.908447265625
1481,796.1904907226562,794.5787353515625,793.3699340820312,788.937744140625
1482,796.5933837890625,796.5933837890625,792.1611938476562,792.967041015625
1483,797.3992919921875,800.2197875976562,793.3699340820312,802.6373901367188
1484,793.3699340820312,794.1758422851562,795.3846435546875,801.8314819335938
1485,794.1758422851562,786.1171875,795.3846435546875,799.010986328125
1486,799.010986328125,791.3552856445312,792.1611938476562,800.6226806640625
1487,802.6373901367188,796.5933837890625,791.3552856445312,795.7875366210938
1488,803.040283203125,797.3992919921875,794.1758422851562,795.7875366210938
1489,798.2051391601562,792.1611938476562,797.8021850585938,799.4139404296875
1490,793.7728881835938,793.3699340820312,795.3846435546875,797.8021850585938
1491,786.5201416015625,793.3699340820312,788.937744140625,794.1758422851562
1492,789.3406372070312,795.3846435546875,792.967041015625,799.010986328125
1493,797.3992919921875,798.6080322265625,800.2197875976562,806.6666870117188
1494,793.3699340820312,789.7435913085938,800.6226806640625,809.084228515625
1495,794.5787353515625,792.5640869140625,800.6226806640625,810.2930297851562
1496,796.996337890625,800.2197875976562,800.6226806640625,796.996337890625
1497,789.7435913085938,792.5640869140625,797.8021850585938,784.5054931640625
1498,783.2966918945312,790.952392578125,798.2051391601562,787.3259887695312
1499,793.3699340820312,794.981689453125,797.8021850585938,789.7435913085938
1500,803.4432373046875,793.3699340820312,796.996337890625,791.7582397460938
1501,800.6226806640625,795.3846435546875,796.996337890625,790.952392578125
1502,796.996337890625,795.7875366210938,795.3846435546875,791.3552856445312
1503,801.4285888671875,799.4139404296875,798.6080322265625,800.2197875976562
1504,809.084228515625,797.8021850585938,797.8021850585938,808.2783813476562
1505,801.4285888671875,793.3699340820312,796.996337890625,800.6226806640625
1506,784.5054931640625,790.952392578125,796.996337890625,793.7728881835938
1507,784.908447265625,790.1465454101562,792.1611938476562,787.7289428710938
1508,786.923095703125,800.2197875976562,794.981689453125,780.879150390625
1509,784.1025390625,797.8021850585938,799.4139404296875,786.1171875
1510,790.5494384765625,789.3406372070312,800.6226806640625,790.1465454101562
1511,799.4139404296875,797.3992919921875,802.6373901367188,801.8314819335938
1512,796.1904907226562,802.6373901367188,800.2197875976562,803.040283203125
1513,792.1611938476562,798.2051391601562,795.7875366210938,799.010986328125
1514,798.2051391601562,795.3846435546875,797.8021850585938,803.040283203125
1515,803.8461303710938,797.3992919921875,799.4139404296875,801.025634765625
1516,801.4285888671875,799.4139404296875,794.5787353515625,795.7875366210938
1517,799.8168334960938,791.7582397460938,788.937744140625,796.5933837890625
1518,795.3846435546875,785.7142944335938,792.967041015625,796.5933837890625
1519,790.5494384765625,796.5933837890625,795.3846435546875,786.1171875
1520,794.5787353515625,801.025634765625,796.5933837890625,788.937744140625
1521,794.5787353515625,801.025634765625,797.3992919921875,799.4139404296875
1522,796.1904907226562,796.1904907226562,798.2051391601562,805.054931640625
1523,796.5933837890625,791.3552856445312,799.010986328125,803.8461303710938
1524,795.3846435546875,798.2051391601562,795.7875366210938,795.3846435546875
1525,796.5933837890625,801.4285888671875,792.967041015625,790.1465454101562
1526,793.3699340820312,799.4139404296875,788.5347900390625,792.1611938476562
1527,799.4139404296875,799.010986328125,788.937744140625,799.010986328125
1528,796.5933837890625,794.5787353515625,789.3406372070312,796.996337890625
1529,787.3259887695312,784.1025390625,785.3113403320312,798.2051391601562
1530,795.3846435546875,787.3259887695312,791.3552856445312,806.2637329101562
1531,800.6226806640625,796.996337890625,795.3846435546875,801.8314819335938
1532,794.5787353515625,794.5787353515625,791.3552856445312,795.7875366210938
1533,798.6080322265625,791.7582397460938,790.952392578125,802.6373901367188
1534,800.2197875976562,795.3846435546875,794.1758422851562,803.8461303710938
1535,794.5787353515625,797.8021850585938,790.5494384765625,798.6080322265625
1536,798.6080322265625,796.996337890625,788.5347900390625,793.7728881835938
1537,799.4139404296875,796.5933837890625,794.5787353515625,795.7875366210938
1538,796.5933837890625,793.7728881835938,791.7582397460938,792.5640869140625
1539,794.981689453125,792.5640869140625,790.1465454101562,793.3699340820312
1540,790.952392578125,792.1611938476562,792.967041015625,796.996337890625
1541,791.7582397460938,790.5494384765625,792.967041015625,791.3552856445312
1542,789.3406372070312,792.1611938476562,792.967041015625,787.3259887695312
1543,792.967041015625,795.3846435546875,794.5787353515625,784.5054931640625
1544,798.6080322265625,792.5640869140625,792.967041015625,797.3992919921875
1545,794.1758422851562,788.937744140625,794.5787353515625,804.2490844726562
1546,795.7875366210938,788.5347900390625,796.5933837890625,792.1611938476562
1547,789.3406372070312,788.937744140625,794.1758422851562,788.5347900390625
1548,788.937744140625,799.010986328125,794.5787353515625,788.937744140625
1549,794.1758422851562,796.996337890625,796.996337890625,788.5347900390625
1550,790.5494384765625,787.3259887695312,792.1611938476562,782.4908447265625
1551,790.5494384765625,784.908447265625,790.5494384765625,784.5054931640625
1552,796.1904907226562,788.5347900390625,797.8021850585938,789.3406372070312
1553,796.5933837890625,792.5640869140625,797.3992919921875,789.7435913085938
1554,791.3552856445312,791.7582397460938,794.981689453125,792.967041015625
1555,796.5933837890625,788.937744140625,794.5787353515625,794.981689453125
1556,799.010986328125,791.7582397460938,791.3552856445312,796.996337890625
1557,788.1318969726562,788.1318969726562,790.1465454101562,792.967041015625
1558,784.5054931640625,789.7435913085938,794.981689453125,794.5787353515625
1559,790.5494384765625,796.1904907226562,797.8021850585938,794.5787353515625
1560,796.1904907226562,793.7728881835938,797.8021850585938,787.7289428710938
1561,789.3406372070312,794.981689453125,792.5640869140625,784.908447265625
1562,784.1025390625,790.952392578125,788.1318969726562,786.1171875
1563,788.1318969726562,782.087890625,787.7289428710938,785.3113403320312
1564,790.5494384765625,780.0732421875,789.3406372070312,784.908447265625
1565,790.952392578125,786.1171875,791.3552856445312,787.3259887695312
1566,790.952392578125,787.3259887695312,789.7435913085938,791.3552856445312
1567,796.996337890625,784.5054931640625,790.5494384765625,796.996337890625
1568,794.5787353515625,789.7435913085938,792.5640869140625,796.996337890625
1569,787.7289428710938,793.3699340820312,794.5787353515625,790.5494384765625
1570,788.5347900390625,790.952392578125,797.3992919921875,786.5201416015625
1571,786.5201416015625,792.1611938476562,795.3846435546875,793.7728881835938
1572,788.5347900390625,797.3992919921875,795.3846435546875,800.6226806640625
1573,789.7435913085938,799.4139404296875,793.3699340820312,795.3846435546875
1574,791.7582397460938,796.996337890625,791.7582397460938,792.5640869140625
1575,796.996337890625,794.1758422851562,792.5640869140625,801.4285888671875
1576,797.8021850585938,793.7728881835938,794.1758422851562,807.4725341796875
1577,792.967041015625,796.5933837890625,798.6080322265625,805.054931640625
