timestamp,RAW_TP9,RAW_AF7,RAW_AF8,RAW_TP10
1,835.6776733398438,774.8351440429688,786.923095703125,842.12451171875
2,824.7985229492188,775.6410522460938,787.7289428710938,832.4542236328125
3,827.2161254882812,779.2673950195312,789.7435913085938,834.4688720703125
4,825.6043701171875,784.1025390625,788.937744140625,835.6776733398438
5,822.3809814453125,781.2820434570312,788.5347900390625,830.4395751953125
6,823.1868286132812,780.4761962890625,787.3259887695312,825.6043701171875
7,822.3809814453125,781.2820434570312,785.3113403320312,823.99267578125
8,822.3809814453125,779.6703491210938,787.3259887695312,825.2014770507812
9,821.5750732421875,779.2673950195312,788.937744140625,822.3809814453125
10,813.113525390625,779.6703491210938,785.7142944335938,809.89013671875
11,821.1721801757812,781.2820434570312,786.1171875,813.91943359375
12,823.99267578125,784.1025390625,787.7289428710938,817.1428833007812
13,813.91943359375,780.879150390625,786.923095703125,811.90478515625
14,814.3223266601562,781.6849975585938,790.5494384765625,815.1282348632812
15,813.5164794921875,784.5054931640625,792.967041015625,815.1282348632812
16,811.098876953125,784.908447265625,792.967041015625,809.89013671875
17,810.2930297851562,783.6996459960938,788.1318969726562,805.054931640625
18,817.94873046875,786.1171875,788.5347900390625,808.6813354492188
19,818.3516235351562,788.5347900390625,790.1465454101562,807.87548828125
20,807.87548828125,786.1171875,784.908447265625,803.4432373046875
21,809.89013671875,788.937744140625,786.5201416015625,806.6666870117188
22,814.3223266601562,791.3552856445312,787.7289428710938,809.084228515625
23,812.3076782226562,788.5347900390625,786.1171875,805.8607788085938
24,808.2783813476562,786.1171875,785.7142944335938,803.8461303710938
25,807.069580078125,788.5347900390625,785.7142944335938,803.8461303710938
26,813.5164794921875,789.3406372070312,787.3259887695312,807.87548828125
27,812.7106323242188,786.1171875,792.1611938476562,813.113525390625
28,806.2637329101562,786.1171875,788.5347900390625,809.084228515625
29,804.6520385742188,782.893798828125,788.937744140625,801.4285888671875
30,807.87548828125,780.4761962890625,790.1465454101562,804.2490844726562
31,807.4725341796875,786.1171875,786.923095703125,803.040283203125
32,808.6813354492188,792.1611938476562,784.908447265625,798.6080322265625
33,806.6666870117188,786.1171875,785.7142944335938,798.6080322265625
34,802.6373901367188,785.3113403320312,791.3552856445312,801.025634765625
35,802.6373901367188,791.3552856445312,792.967041015625,797.3992919921875
36,799.8168334960938,790.1465454101562,794.981689453125,792.967041015625
37,796.996337890625,787.7289428710938,796.5933837890625,796.996337890625
38,799.8168334960938,785.7142944335938,795.7875366210938,800.6226806640625
39,798.6080322265625,785.7142944335938,794.1758422851562,798.6080322265625
40,798.6080322265625,788.5347900390625,796.1904907226562,789.3406372070312
41,800.6226806640625,792.1611938476562,798.2051391601562,789.3406372070312
42,800.2197875976562,792.1611938476562,796.996337890625,794.1758422851562
43,810.2930297851562,792.967041015625,794.5787353515625,799.4139404296875
44,809.4871826171875,796.5933837890625,794.1758422851562,793.3699340820312
45,793.3699340820312,794.5787353515625,792.5640869140625,782.087890625
46,797.3992919921875,792.1611938476562,793.3699340820312,789.3406372070312
47,804.2490844726562,791.7582397460938,795.7875366210938,792.1611938476562
48,792.967041015625,789.7435913085938,791.3552856445312,787.7289428710938
49,785.3113403320312,787.7289428710938,788.5347900390625,783.2966918945312
50,786.923095703125,786.923095703125,787.7289428710938,787.7289428710938
51,790.1465454101562,784.908447265625,788.937744140625,792.5640869140625
52,794.5787353515625,784.5054931640625,789.3406372070312,791.7582397460938
53,796.1904907226562,783.2966918945312,789.3406372070312,786.1171875
54,802.2344360351562,786.1171875,792.967041015625,783.6996459960938
55,803.040283203125,794.1758422851562,790.1465454101562,784.908447265625
56,799.010986328125,794.981689453125,789.7435913085938,787.3259887695312
57,795.3846435546875,790.5494384765625,792.5640869140625,788.5347900390625
58,793.7728881835938,791.3552856445312,792.5640869140625,791.3552856445312
59,795.7875366210938,795.3846435546875,791.3552856445312,790.5494384765625
60,794.5787353515625,789.7435913085938,790.5494384765625,784.908447265625
61,792.1611938476562,782.893798828125,788.5347900390625,788.5347900390625
62,795.7875366210938,785.7142944335938,789.3406372070312,788.937744140625
63,797.3992919921875,786.5201416015625,788.5347900390625,780.879150390625
64,793.3699340820312,784.1025390625,786.923095703125,776.8497924804688
65,787.3259887695312,785.7142944335938,786.923095703125,774.029296875
66,787.3259887695312,786.5201416015625,787.7289428710938,777.2527465820312
67,789.7435913085938,785.3113403320312,788.1318969726562,781.6849975585938
68,787.7289428710938,783.6996459960938,786.1171875,777.6557006835938
69,790.1465454101562,782.893798828125,785.7142944335938,772.8204956054688
70,786.923095703125,783.6996459960938,784.908447265625,774.4322509765625
71,780.0732421875,785.3113403320312,785.3113403320312,772.8204956054688
72,782.893798828125,783.6996459960938,781.2820434570312,772.0146484375
73,786.1171875,780.879150390625,780.879150390625,778.8644409179688
74,790.5494384765625,785.7142944335938,788.937744140625,787.3259887695312
75,788.1318969726562,787.3259887695312,786.1171875,782.893798828125
76,784.5054931640625,785.7142944335938,783.6996459960938,775.2380981445312
77,788.5347900390625,785.3113403320312,789.3406372070312,772.8204956054688
78,789.7435913085938,790.5494384765625,791.7582397460938,774.8351440429688
79,788.937744140625,791.7582397460938,791.3552856445312,780.4761962890625
80,786.923095703125,787.3259887695312,785.3113403320312,778.8644409179688
81,787.7289428710938,788.1318969726562,778.05859375,778.4615478515625
82,787.3259887695312,785.7142944335938,783.2966918945312,778.4615478515625
83,787.3259887695312,782.893798828125,785.3113403320312,780.4761962890625
84,790.1465454101562,782.087890625,782.893798828125,788.937744140625
85,790.5494384765625,783.6996459960938,786.923095703125,789.3406372070312
86,791.7582397460938,787.7289428710938,786.1171875,778.8644409179688
87,792.5640869140625,789.3406372070312,784.5054931640625,780.879150390625
88,793.3699340820312,788.937744140625,786.923095703125,784.908447265625
89,794.1758422851562,786.1171875,788.5347900390625,786.5201416015625
90,794.981689453125,783.6996459960938,785.3113403320312,784.908447265625
91,789.7435913085938,781.6849975585938,781.2820434570312,780.879150390625
92,787.7289428710938,785.7142944335938,785.7142944335938,778.4615478515625
93,788.5347900390625,791.7582397460938,788.937744140625,774.8351440429688
94,788.1318969726562,788.937744140625,787.3259887695312,773.2234497070312
95,789.7435913085938,786.1171875,785.3113403320312,767.5823974609375
96,783.2966918945312,786.923095703125,784.908447265625,764.7619018554688
97,778.8644409179688,789.3406372070312,784.5054931640625,764.7619018554688
98,781.6849975585938,790.5494384765625,782.893798828125,765.970703125
99,792.1611938476562,794.981689453125,783.6996459960938,774.029296875
100,793.3699340820312,797.3992919921875,788.1318969726562,777.6557006835938
101,786.5201416015625,794.5787353515625,787.7289428710938,777.2527465820312
102,782.087890625,790.1465454101562,784.908447265625,775.6410522460938
103,783.6996459960938,786.923095703125,784.1025390625,775.2380981445312
104,786.923095703125,782.4908447265625,782.893798828125,775.2380981445312
105,788.1318969726562,785.7142944335938,782.893798828125,782.087890625
106,787.3259887695312,787.7289428710938,779.6703491210938,779.2673950195312
107,781.2820434570312,783.6996459960938,777.6557006835938,774.4322509765625
108,774.8351440429688,782.4908447265625,778.05859375,774.029296875
109,782.4908447265625,784.5054931640625,781.2820434570312,774.029296875
110,789.7435913085938,787.3259887695312,780.0732421875,778.8644409179688
111,785.7142944335938,786.1171875,776.8497924804688,787.7289428710938
112,787.3259887695312,787.7289428710938,781.6849975585938,791.3552856445312
113,792.967041015625,791.3552856445312,783.6996459960938,789.3406372070312
114,790.952392578125,791.3552856445312,780.4761962890625,786.5201416015625
115,790.952392578125,789.3406372070312,783.6996459960938,787.3259887695312
116,792.1611938476562,786.923095703125,785.3113403320312,784.5054931640625
117,786.1171875,781.6849975585938,781.2820434570312,776.8497924804688
118,786.1171875,780.879150390625,781.2820434570312,776.4468994140625
119,789.7435913085938,783.2966918945312,782.893798828125,782.893798828125
120,793.7728881835938,777.6557006835938,782.893798828125,783.2966918945312
121,790.1465454101562,778.4615478515625,780.0732421875,776.8497924804688
122,786.1171875,784.908447265625,781.6849975585938,781.2820434570312
123,782.4908447265625,785.3113403320312,782.4908447265625,786.1171875
124,780.879150390625,786.1171875,779.6703491210938,786.5201416015625
125,786.1171875,782.4908447265625,776.4468994140625,789.7435913085938
126,790.5494384765625,782.4908447265625,780.4761962890625,790.5494384765625
127,788.5347900390625,784.1025390625,778.8644409179688,787.7289428710938
128,781.6849975585938,781.6849975585938,776.4468994140625,784.908447265625
129,783.6996459960938,783.6996459960938,780.4761962890625,780.879150390625
130,794.5787353515625,784.908447265625,780.879150390625,788.1318969726562
131,800.6226806640625,783.6996459960938,782.893798828125,801.4285888671875
132,803.040283203125,784.908447265625,784.1025390625,800.6226806640625
133,803.040283203125,787.7289428710938,785.3113403320312,793.7728881835938
134,803.8461303710938,790.952392578125,790.1465454101562,804.2490844726562
135,804.2490844726562,790.1465454101562,788.1318969726562,810.2930297851562
136,797.3992919921875,786.5201416015625,782.893798828125,796.1904907226562
137,791.3552856445312,783.6996459960938,783.6996459960938,792.5640869140625
138,792.967041015625,784.908447265625,789.3406372070312,793.7728881835938
139,798.2051391601562,788.1318969726562,792.1611938476562,790.5494384765625
140,799.010986328125,788.1318969726562,789.7435913085938,788.1318969726562
141,798.2051391601562,782.893798828125,788.937744140625,788.937744140625
142,797.3992919921875,782.4908447265625,788.1318969726562,791.3552856445312
143,792.5640869140625,783.2966918945312,784.908447265625,792.967041015625
144,787.7289428710938,780.4761962890625,780.0732421875,785.7142944335938
145,794.5787353515625,785.3113403320312,782.087890625,788.5347900390625
146,795.3846435546875,787.3259887695312,785.7142944335938,793.7728881835938
147,783.6996459960938,784.5054931640625,782.087890625,781.6849975585938
148,788.1318969726562,785.7142944335938,785.3113403320312,779.6703491210938
149,796.996337890625,790.952392578125,790.1465454101562,787.7289428710938
150,793.7728881835938,796.1904907226562,786.923095703125,788.937744140625
151,796.1904907226562,796.1904907226562,784.5054931640625,791.7582397460938
152,791.7582397460938,788.5347900390625,784.5054931640625,788.5347900390625
153,789.7435913085938,788.1318969726562,782.4908447265625,784.5054931640625
154,795.7875366210938,792.967041015625,782.087890625,786.923095703125
155,793.7728881835938,789.7435913085938,782.087890625,784.5054931640625
156,792.1611938476562,787.7289428710938,780.4761962890625,787.3259887695312
157,792.1611938476562,790.952392578125,782.087890625,788.937744140625
158,786.923095703125,789.7435913085938,783.6996459960938,781.6849975585938
159,788.937744140625,786.923095703125,786.1171875,784.5054931640625
160,794.981689453125,787.3259887695312,788.1318969726562,788.5347900390625
161,792.5640869140625,787.3259887695312,785.3113403320312,791.7582397460938
162,793.7728881835938,784.908447265625,782.4908447265625,788.937744140625
163,790.1465454101562,784.1025390625,780.4761962890625,782.087890625
164,783.6996459960938,783.6996459960938,781.2820434570312,780.4761962890625
165,784.5054931640625,781.6849975585938,781.6849975585938,786.923095703125
166,782.087890625,782.893798828125,780.4761962890625,790.5494384765625
167,779.2673950195312,783.6996459960938,779.2673950195312,780.879150390625
168,791.7582397460938,786.1171875,775.6410522460938,784.5054931640625
169,798.2051391601562,788.937744140625,776.4468994140625,794.981689453125
170,786.1171875,786.5201416015625,780.4761962890625,784.908447265625
171,787.7289428710938,782.4908447265625,781.2820434570312,774.4322509765625
172,796.1904907226562,781.2820434570312,780.4761962890625,776.8497924804688
173,792.1611938476562,781.6849975585938,779.6703491210938,778.4615478515625
174,788.5347900390625,783.6996459960938,780.4761962890625,780.879150390625
175,787.7289428710938,783.2966918945312,779.2673950195312,776.4468994140625
176,787.7289428710938,779.2673950195312,774.4322509765625,775.2380981445312
177,788.1318969726562,782.4908447265625,776.8497924804688,779.2673950195312
178,788.5347900390625,784.908447265625,774.4322509765625,776.0439453125
179,785.3113403320312,781.6849975585938,767.5823974609375,776.0439453125
180,786.1171875,779.6703491210938,770.4029541015625,784.1025390625
181,791.3552856445312,781.6849975585938,772.0146484375,789.7435913085938
182,788.5347900390625,779.6703491210938,770.4029541015625,780.0732421875
183,784.5054931640625,777.2527465820312,769.5970458984375,777.2527465820312
184,782.4908447265625,782.4908447265625,774.4322509765625,788.1318969726562
185,778.4615478515625,782.4908447265625,774.4322509765625,783.6996459960938
186,781.6849975585938,776.8497924804688,772.8204956054688,780.0732421875
187,787.3259887695312,778.05859375,772.4176025390625,784.5054931640625
188,787.7289428710938,780.879150390625,768.3883056640625,784.908447265625
189,785.7142944335938,777.2527465820312,763.9560546875,780.0732421875
190,786.1171875,775.2380981445312,765.1648559570312,780.0732421875
191,786.923095703125,778.4615478515625,766.7765502929688,784.908447265625
192,787.7289428710938,781.2820434570312,771.6116943359375,790.5494384765625
193,790.5494384765625,779.6703491210938,773.6264038085938,790.952392578125
194,788.1318969726562,777.6557006835938,771.2088012695312,786.5201416015625
195,784.908447265625,778.8644409179688,772.0146484375,787.3259887695312
196,791.3552856445312,780.4761962890625,772.0146484375,792.967041015625
197,797.8021850585938,783.2966918945312,774.029296875,795.7875366210938
198,801.025634765625,788.1318969726562,779.2673950195312,798.2051391601562
199,804.2490844726562,789.7435913085938,778.8644409179688,804.2490844726562
200,800.6226806640625,785.7142944335938,772.4176025390625,798.6080322265625
201,795.7875366210938,783.6996459960938,766.3735961914062,792.5640869140625
202,798.2051391601562,781.2820434570312,768.3883056640625,794.981689453125
203,800.2197875976562,779.2673950195312,768.7911987304688,796.1904907226562
204,795.7875366210938,779.6703491210938,766.7765502929688,792.1611938476562
205,792.1611938476562,780.4761962890625,771.2088012695312,786.5201416015625
206,795.7875366210938,783.2966918945312,768.3883056640625,791.3552856445312
207,799.010986328125,783.6996459960938,763.9560546875,792.5640869140625
208,799.4139404296875,782.087890625,768.3883056640625,789.3406372070312
209,796.1904907226562,783.2966918945312,769.1941528320312,784.908447265625
210,793.7728881835938,780.879150390625,767.9853515625,786.923095703125
211,794.5787353515625,776.4468994140625,766.3735961914062,792.1611938476562
212,795.3846435546875,776.8497924804688,760.3296508789062,790.952392578125
213,793.3699340820312,779.6703491210938,763.9560546875,784.1025390625
214,789.3406372070312,780.879150390625,767.5823974609375,778.4615478515625
215,791.7582397460938,778.4615478515625,766.7765502929688,783.6996459960938
216,788.937744140625,774.8351440429688,764.3589477539062,782.087890625
217,789.7435913085938,777.6557006835938,760.3296508789062,784.5054931640625
218,791.3552856445312,777.6557006835938,760.7326049804688,787.3259887695312
219,789.3406372070312,775.2380981445312,763.1502075195312,786.1171875
220,790.1465454101562,775.6410522460938,767.9853515625,793.3699340820312
221,790.952392578125,773.2234497070312,768.7911987304688,795.3846435546875
222,795.3846435546875,774.029296875,767.1795043945312,792.1611938476562
223,801.4285888671875,780.0732421875,765.1648559570312,794.1758422851562
224,799.4139404296875,779.6703491210938,763.1502075195312,792.967041015625
225,796.996337890625,778.4615478515625,762.7472534179688,788.1318969726562
226,803.8461303710938,781.6849975585938,762.7472534179688,790.1465454101562
227,809.084228515625,782.893798828125,764.7619018554688,793.7728881835938
228,806.2637329101562,781.6849975585938,762.3442993164062,789.3406372070312
229,805.8607788085938,776.8497924804688,757.912109375,790.1465454101562
230,807.069580078125,776.8497924804688,759.9267578125,799.4139404296875
231,801.4285888671875,777.2527465820312,759.9267578125,799.8168334960938
232,799.8168334960938,774.4322509765625,757.5091552734375,791.7582397460938
233,807.4725341796875,773.6264038085938,756.7033081054688,790.1465454101562
234,805.8607788085938,773.2234497070312,758.7179565429688,794.981689453125
235,802.2344360351562,773.6264038085938,761.5384521484375,791.3552856445312
236,801.8314819335938,772.8204956054688,759.9267578125,788.937744140625
237,800.2197875976562,767.1795043945312,757.106201171875,787.3259887695312
238,802.6373901367188,768.3883056640625,761.5384521484375,783.6996459960938
239,803.040283203125,772.8204956054688,763.9560546875,786.923095703125
240,801.8314819335938,774.8351440429688,761.94140625,786.923095703125
241,798.6080322265625,775.2380981445312,758.3150024414062,785.3113403320312
242,794.5787353515625,772.0146484375,751.4652099609375,786.923095703125
243,793.3699340820312,769.5970458984375,748.6447143554688,784.908447265625
244,792.5640869140625,769.1941528320312,750.2564086914062,777.6557006835938
245,793.3699340820312,771.2088012695312,755.091552734375,782.087890625
246,790.952392578125,772.4176025390625,757.5091552734375,783.2966918945312
247,798.6080322265625,777.2527465820312,758.3150024414062,785.7142944335938
248,807.4725341796875,780.4761962890625,761.94140625,795.7875366210938
249,806.2637329101562,778.05859375,759.5238037109375,795.7875366210938
250,801.8314819335938,776.8497924804688,753.4798583984375,793.7728881835938
251,798.6080322265625,775.2380981445312,749.8534545898438,796.5933837890625
252,800.6226806640625,773.6264038085938,752.6740112304688,794.5787353515625
253,806.6666870117188,773.6264038085938,759.120849609375,807.069580078125
254,809.4871826171875,778.05859375,757.912109375,813.91943359375
255,802.6373901367188,777.2527465820312,753.076904296875,798.2051391601562
256,800.6226806640625,773.6264038085938,752.2710571289062,789.3406372070312
257,800.6226806640625,771.6116943359375,751.062255859375,788.937744140625
258,800.6226806640625,767.9853515625,753.8828125,789.3406372070312
259,799.010986328125,763.5531005859375,753.4798583984375,790.1465454101562
260,793.3699340820312,759.5238037109375,749.8534545898438,786.923095703125
261,790.1465454101562,761.1355590820312,751.4652099609375,781.6849975585938
262,791.3552856445312,761.1355590820312,754.6886596679688,787.7289428710938
263,798.2051391601562,762.7472534179688,757.5091552734375,793.3699340820312
264,804.6520385742188,764.3589477539062,757.5091552734375,794.1758422851562
265,803.040283203125,762.3442993164062,757.912109375,802.6373901367188
266,800.6226806640625,760.7326049804688,761.1355590820312,806.2637329101562
267,801.025634765625,761.5384521484375,757.912109375,801.4285888671875
268,807.4725341796875,764.7619018554688,755.4945068359375,803.4432373046875
269,809.89013671875,767.1795043945312,754.2857055664062,804.2490844726562
270,801.4285888671875,765.1648559570312,754.2857055664062,800.2197875976562
271,798.6080322265625,765.970703125,754.6886596679688,796.5933837890625
272,801.025634765625,770.0,751.062255859375,796.1904907226562
273,793.7728881835938,765.1648559570312,750.6593627929688,796.1904907226562
274,794.5787353515625,761.5384521484375,753.076904296875,794.5787353515625
275,797.8021850585938,761.94140625,752.2710571289062,792.967041015625
276,796.1904907226562,763.1502075195312,752.6740112304688,797.8021850585938
277,793.7728881835938,762.3442993164062,755.4945068359375,799.4139404296875
278,792.5640869140625,762.7472534179688,756.3003540039062,794.981689453125
279,800.2197875976562,766.3735961914062,755.4945068359375,797.3992919921875
280,802.2344360351562,764.3589477539062,754.6886596679688,795.3846435546875
281,797.3992919921875,763.1502075195312,750.2564086914062,790.1465454101562
282,797.8021850585938,763.1502075195312,749.8534545898438,793.3699340820312
283,797.8021850585938,763.5531005859375,751.4652099609375,792.5640869140625
284,800.6226806640625,763.1502075195312,751.4652099609375,790.1465454101562
285,803.4432373046875,765.5677490234375,751.062255859375,786.1171875
286,801.4285888671875,768.7911987304688,749.8534545898438,785.7142944335938
287,792.1611938476562,762.3442993164062,750.2564086914062,788.937744140625
288,789.7435913085938,759.5238037109375,750.2564086914062,788.1318969726562
289,792.1611938476562,762.7472534179688,751.8681030273438,787.3259887695312
290,795.7875366210938,763.5531005859375,755.4945068359375,788.5347900390625
291,801.025634765625,761.94140625,758.7179565429688,793.3699340820312
292,797.3992919921875,759.9267578125,755.091552734375,789.3406372070312
293,795.7875366210938,761.94140625,751.062255859375,782.4908447265625
294,800.6226806640625,760.7326049804688,753.8828125,786.923095703125
295,801.4285888671875,757.106201171875,754.6886596679688,792.5640869140625
296,799.8168334960938,757.106201171875,749.8534545898438,794.981689453125
297,799.010986328125,759.120849609375,748.2417602539062,794.1758422851562
298,801.025634765625,761.1355590820312,751.8681030273438,794.981689453125
299,803.8461303710938,763.1502075195312,751.4652099609375,800.6226806640625
300,805.054931640625,763.1502075195312,749.8534545898438,806.2637329101562
301,805.054931640625,761.94140625,747.8388061523438,800.2197875976562
302,802.2344360351562,762.7472534179688,743.4066162109375,792.1611938476562
303,801.8314819335938,766.7765502929688,745.4212646484375,791.7582397460938
304,802.2344360351562,763.9560546875,748.2417602539062,788.5347900390625
305,800.6226806640625,761.94140625,744.6153564453125,787.7289428710938
306,796.1904907226562,762.3442993164062,739.7802124023438,787.3259887695312
307,796.5933837890625,764.7619018554688,739.3773193359375,783.2966918945312
308,792.5640869140625,766.3735961914062,739.7802124023438,785.3113403320312
309,789.3406372070312,761.94140625,738.974365234375,786.5201416015625
310,793.7728881835938,757.106201171875,741.3919677734375,785.7142944335938
311,796.5933837890625,757.5091552734375,740.5860595703125,788.1318969726562
312,793.7728881835938,759.9267578125,739.3773193359375,788.1318969726562
313,793.7728881835938,757.5091552734375,742.1978149414062,787.7289428710938
314,802.2344360351562,757.912109375,743.4066162109375,799.010986328125
315,807.87548828125,755.091552734375,744.6153564453125,808.2783813476562
316,805.4578857421875,752.6740112304688,746.6300659179688,805.4578857421875
317,803.040283203125,755.091552734375,747.032958984375,804.6520385742188
318,801.025634765625,752.2710571289062,745.4212646484375,799.8168334960938
319,800.6226806640625,747.8388061523438,746.2271118164062,800.6226806640625
320,804.6520385742188,748.6447143554688,746.6300659179688,803.040283203125
321,802.2344360351562,749.047607421875,746.6300659179688,802.2344360351562
322,801.8314819335938,750.6593627929688,751.062255859375,801.8314819335938
323,805.4578857421875,758.3150024414062,754.2857055664062,798.6080322265625
324,805.8607788085938,759.120849609375,755.8974609375,798.6080322265625
325,805.054931640625,752.6740112304688,756.3003540039062,796.1904907226562
326,812.3076782226562,752.6740112304688,755.091552734375,796.996337890625
327,810.6959838867188,753.8828125,751.062255859375,790.1465454101562
328,805.8607788085938,753.076904296875,749.8534545898438,784.5054931640625
329,807.069580078125,753.8828125,749.047607421875,785.3113403320312
330,807.4725341796875,755.4945068359375,749.047607421875,786.1171875
331,809.084228515625,756.3003540039062,755.4945068359375,791.3552856445312
332,807.4725341796875,758.7179565429688,754.2857055664062,792.1611938476562
333,803.8461303710938,757.5091552734375,751.4652099609375,791.3552856445312
334,807.069580078125,755.4945068359375,754.6886596679688,800.6226806640625
335,813.91943359375,755.8974609375,757.106201171875,808.6813354492188
336,813.5164794921875,759.5238037109375,758.7179565429688,802.6373901367188
337,811.5018310546875,761.94140625,761.1355590820312,797.8021850585938
338,808.6813354492188,755.4945068359375,760.3296508789062,807.069580078125
339,805.8607788085938,751.4652099609375,755.4945068359375,805.8607788085938
340,804.6520385742188,752.6740112304688,753.4798583984375,795.7875366210938
341,804.6520385742188,750.6593627929688,757.912109375,796.5933837890625
342,805.054931640625,747.4359130859375,759.120849609375,796.5933837890625
343,801.025634765625,750.2564086914062,757.5091552734375,787.7289428710938
344,797.8021850585938,754.6886596679688,757.106201171875,784.908447265625
345,796.996337890625,752.2710571289062,758.3150024414062,788.5347900390625
346,794.1758422851562,747.8388061523438,760.7326049804688,789.7435913085938
347,786.923095703125,747.4359130859375,756.7033081054688,788.1318969726562
348,784.5054931640625,750.2564086914062,753.8828125,787.7289428710938
349,783.6996459960938,748.2417602539062,757.106201171875,790.952392578125
350,783.2966918945312,748.6447143554688,754.6886596679688,788.937744140625
351,789.7435913085938,751.8681030273438,753.076904296875,778.4615478515625
352,789.3406372070312,753.076904296875,752.2710571289062,775.6410522460938
353,791.7582397460938,755.4945068359375,748.6447143554688,778.4615478515625
354,791.3552856445312,756.3003540039062,750.2564086914062,778.8644409179688
355,791.3552856445312,755.091552734375,748.6447143554688,778.4615478515625
356,796.996337890625,753.8828125,750.6593627929688,776.8497924804688
357,794.5787353515625,754.2857055664062,755.091552734375,776.4468994140625
358,792.5640869140625,753.4798583984375,753.4798583984375,779.6703491210938
359,796.1904907226562,745.8241577148438,751.8681030273438,781.2820434570312
360,798.2051391601562,748.6447143554688,754.6886596679688,786.5201416015625
361,803.4432373046875,756.3003540039062,756.3003540039062,798.2051391601562
362,806.6666870117188,755.091552734375,760.3296508789062,794.5787353515625
363,804.6520385742188,753.076904296875,768.3883056640625,790.1465454101562
364,802.2344360351562,751.4652099609375,765.5677490234375,797.3992919921875
365,801.8314819335938,756.3003540039062,765.1648559570312,799.010986328125
366,804.6520385742188,760.3296508789062,770.4029541015625,801.8314819335938
367,807.069580078125,756.3003540039062,772.0146484375,802.6373901367188
368,805.4578857421875,756.7033081054688,770.0,803.4432373046875
369,798.2051391601562,757.5091552734375,766.7765502929688,804.2490844726562
370,796.1904907226562,755.4945068359375,765.970703125,801.8314819335938
371,796.996337890625,755.8974609375,765.970703125,799.4139404296875
372,795.7875366210938,757.5091552734375,763.1502075195312,796.5933837890625
373,787.7289428710938,755.4945068359375,761.94140625,795.3846435546875
374,779.2673950195312,755.4945068359375,762.3442993164062,791.7582397460938
375,781.2820434570312,755.8974609375,763.1502075195312,788.937744140625
376,787.7289428710938,754.6886596679688,760.7326049804688,792.1611938476562
377,782.087890625,751.8681030273438,757.5091552734375,788.5347900390625
378,775.6410522460938,756.3003540039062,762.7472534179688,781.2820434570312
379,774.4322509765625,751.8681030273438,761.94140625,781.6849975585938
380,771.2088012695312,750.2564086914062,760.3296508789062,779.2673950195312
381,778.05859375,760.3296508789062,758.7179565429688,782.4908447265625
382,789.3406372070312,762.3442993164062,755.8974609375,790.5494384765625
383,785.3113403320312,761.1355590820312,756.7033081054688,788.1318969726562
384,780.879150390625,761.5384521484375,757.106201171875,789.7435913085938
385,783.6996459960938,761.94140625,758.3150024414062,796.5933837890625
386,790.952392578125,767.9853515625,761.1355590820312,796.996337890625
387,796.5933837890625,771.6116943359375,764.7619018554688,797.3992919921875
388,796.996337890625,764.7619018554688,764.3589477539062,797.3992919921875
389,797.8021850585938,761.94140625,763.5531005859375,804.6520385742188
390,792.967041015625,756.3003540039062,762.3442993164062,801.4285888671875
391,796.996337890625,757.5091552734375,761.1355590820312,801.4285888671875
392,808.2783813476562,762.7472534179688,763.9560546875,807.4725341796875
393,807.87548828125,760.3296508789062,762.7472534179688,804.2490844726562
394,802.2344360351562,756.7033081054688,759.5238037109375,800.6226806640625
395,803.040283203125,757.106201171875,761.1355590820312,801.4285888671875
396,807.069580078125,759.5238037109375,762.7472534179688,799.4139404296875
397,815.5311279296875,759.120849609375,762.3442993164062,800.2197875976562
398,822.3809814453125,763.1502075195312,761.1355590820312,806.2637329101562
399,820.3662719726562,766.3735961914062,759.120849609375,806.6666870117188
400,820.7692260742188,768.7911987304688,760.3296508789062,804.2490844726562
401,820.3662719726562,770.0,765.5677490234375,801.8314819335938
402,816.3369750976562,767.5823974609375,763.5531005859375,799.010986328125
403,813.91943359375,765.970703125,764.3589477539062,797.3992919921875
404,816.3369750976562,771.2088012695312,768.7911987304688,801.025634765625
405,812.3076782226562,772.0146484375,768.3883056640625,801.025634765625
406,806.2637329101562,770.0,770.4029541015625,801.025634765625
407,808.6813354492188,771.2088012695312,772.0146484375,805.8607788085938
408,812.7106323242188,774.8351440429688,772.4176025390625,800.6226806640625
409,809.4871826171875,773.6264038085938,768.7911987304688,798.2051391601562
410,810.6959838867188,774.029296875,768.7911987304688,800.2197875976562
411,816.7399291992188,772.8204956054688,774.029296875,802.6373901367188
412,823.1868286132812,773.2234497070312,774.029296875,804.6520385742188
413,826.8131713867188,777.6557006835938,772.0146484375,801.8314819335938
414,817.94873046875,776.8497924804688,767.9853515625,799.8168334960938
415,811.5018310546875,772.8204956054688,765.5677490234375,798.2051391601562
416,815.93408203125,773.6264038085938,767.9853515625,801.8314819335938
417,819.5604248046875,777.6557006835938,771.6116943359375,805.054931640625
418,818.7545776367188,773.2234497070312,772.8204956054688,803.040283203125
419,821.97802734375,772.4176025390625,774.8351440429688,801.8314819335938
420,821.97802734375,773.6264038085938,772.8204956054688,799.8168334960938
421,815.5311279296875,771.6116943359375,772.8204956054688,792.1611938476562
422,815.93408203125,772.8204956054688,772.4176025390625,798.6080322265625
423,814.7252807617188,771.2088012695312,770.8058471679688,801.025634765625
424,812.7106323242188,769.5970458984375,775.6410522460938,793.7728881835938
425,810.6959838867188,770.4029541015625,778.4615478515625,791.7582397460938
426,805.054931640625,772.0146484375,782.893798828125,799.010986328125
427,799.8168334960938,769.5970458984375,779.6703491210938,800.2197875976562
428,806.6666870117188,770.8058471679688,776.8497924804688,796.5933837890625
429,812.3076782226562,775.2380981445312,778.05859375,801.025634765625
430,808.6813354492188,772.4176025390625,774.8351440429688,801.8314819335938
431,806.2637329101562,767.9853515625,773.2234497070312,799.8168334960938
432,805.4578857421875,770.8058471679688,778.05859375,797.3992919921875
433,809.89013671875,776.0439453125,782.4908447265625,797.3992919921875
434,812.7106323242188,774.029296875,776.8497924804688,803.040283203125
435,813.91943359375,769.5970458984375,776.4468994140625,807.4725341796875
436,815.93408203125,770.0,777.6557006835938,807.069580078125
437,813.91943359375,773.6264038085938,776.4468994140625,807.87548828125
438,819.1575317382812,774.8351440429688,776.0439453125,810.6959838867188
439,816.3369750976562,773.2234497070312,770.8058471679688,805.054931640625
440,803.8461303710938,775.6410522460938,772.4176025390625,798.6080322265625
441,802.6373901367188,775.6410522460938,776.8497924804688,793.7728881835938
442,806.2637329101562,776.8497924804688,776.4468994140625,790.5494384765625
443,802.6373901367188,777.2527465820312,772.8204956054688,784.908447265625
444,797.3992919921875,775.6410522460938,768.7911987304688,782.087890625
445,791.7582397460938,773.6264038085938,772.0146484375,785.7142944335938
446,792.967041015625,774.029296875,776.0439453125,787.3259887695312
447,790.5494384765625,773.6264038085938,775.6410522460938,781.6849975585938
448,786.923095703125,770.4029541015625,774.4322509765625,783.2966918945312
449,792.5640869140625,770.4029541015625,774.4322509765625,789.7435913085938
450,796.996337890625,770.0,780.4761962890625,792.967041015625
451,797.3992919921875,771.6116943359375,784.5054931640625,795.7875366210938
452,796.5933837890625,770.4029541015625,783.6996459960938,799.4139404296875
453,801.4285888671875,769.1941528320312,782.4908447265625,799.8168334960938
454,805.8607788085938,771.2088012695312,779.6703491210938,799.010986328125
455,806.2637329101562,770.8058471679688,783.6996459960938,802.6373901367188
456,807.4725341796875,770.4029541015625,786.1171875,804.6520385742188
457,807.069580078125,771.2088012695312,787.7289428710938,809.89013671875
458,808.6813354492188,776.0439453125,787.7289428710938,812.3076782226562
459,813.91943359375,780.0732421875,785.3113403320312,808.6813354492188
460,819.1575317382812,780.4761962890625,787.7289428710938,811.90478515625
461,823.1868286132812,783.2966918945312,784.908447265625,808.2783813476562
462,820.3662719726562,787.3259887695312,784.1025390625,804.2490844726562
463,824.3956298828125,788.5347900390625,783.6996459960938,805.054931640625
464,826.8131713867188,787.7289428710938,778.05859375,803.040283203125
465,822.7838745117188,786.1171875,776.4468994140625,802.2344360351562
466,825.6043701171875,786.1171875,774.029296875,801.4285888671875
467,823.5897216796875,789.3406372070312,768.3883056640625,793.7728881835938
468,818.3516235351562,793.7728881835938,765.1648559570312,793.7728881835938
469,815.5311279296875,790.5494384765625,766.7765502929688,797.3992919921875
470,815.93408203125,790.5494384765625,767.5823974609375,792.5640869140625
471,811.5018310546875,790.5494384765625,765.1648559570312,790.1465454101562
472,803.4432373046875,787.3259887695312,769.1941528320312,787.3259887695312
473,797.3992919921875,787.7289428710938,770.8058471679688,783.6996459960938
474,793.3699340820312,783.2966918945312,770.0,782.893798828125
475,788.5347900390625,780.0732421875,773.2234497070312,781.6849975585938
476,786.1171875,778.4615478515625,776.4468994140625,783.2966918945312
477,780.879150390625,773.6264038085938,775.6410522460938,782.087890625
478,784.908447265625,772.4176025390625,775.6410522460938,784.908447265625
479,791.7582397460938,777.6557006835938,779.2673950195312,787.7289428710938
480,794.5787353515625,776.0439453125,777.6557006835938,790.5494384765625
481,796.1904907226562,772.4176025390625,774.4322509765625,794.1758422851562
482,799.010986328125,773.6264038085938,778.4615478515625,792.1611938476562
483,807.4725341796875,777.2527465820312,782.893798828125,795.3846435546875
484,813.91943359375,781.2820434570312,780.4761962890625,800.6226806640625
485,816.3369750976562,778.05859375,776.4468994140625,797.8021850585938
486,812.3076782226562,778.05859375,777.6557006835938,793.7728881835938
487,803.4432373046875,778.4615478515625,776.0439453125,791.7582397460938
488,803.8461303710938,777.6557006835938,774.8351440429688,794.1758422851562
489,809.084228515625,779.6703491210938,776.8497924804688,794.981689453125
490,808.2783813476562,782.893798828125,780.0732421875,794.1758422851562
491,807.87548828125,782.087890625,782.4908447265625,796.5933837890625
492,802.6373901367188,776.8497924804688,784.1025390625,795.3846435546875
493,799.8168334960938,778.8644409179688,784.1025390625,796.1904907226562
494,799.8168334960938,781.6849975585938,784.5054931640625,796.5933837890625
495,794.5787353515625,782.087890625,786.1171875,796.996337890625
496,792.5640869140625,782.4908447265625,784.908447265625,802.6373901367188
497,786.923095703125,781.6849975585938,785.7142944335938,792.967041015625
498,778.8644409179688,781.2820434570312,786.923095703125,785.3113403320312
499,784.5054931640625,782.087890625,782.4908447265625,790.5494384765625
500,790.1465454101562,785.7142944335938,782.087890625,792.967041015625
501,789.7435913085938,786.5201416015625,781.6849975585938,788.937744140625
502,794.5787353515625,783.6996459960938,779.2673950195312,788.5347900390625
503,799.4139404296875,787.7289428710938,777.6557006835938,790.952392578125
504,797.8021850585938,784.1025390625,770.4029541015625,787.3259887695312
505,801.8314819335938,788.1318969726562,770.0,786.923095703125
506,808.6813354492188,794.981689453125,772.8204956054688,790.1465454101562
507,809.4871826171875,787.3259887695312,776.4468994140625,799.010986328125
508,809.4871826171875,787.7289428710938,778.4615478515625,796.996337890625
509,805.054931640625,790.952392578125,774.029296875,786.1171875
510,801.8314819335938,789.7435913085938,773.6264038085938,782.087890625
511,803.040283203125,792.1611938476562,774.8351440429688,780.4761962890625
512,803.040283203125,793.7728881835938,771.6116943359375,779.6703491210938
513,796.996337890625,787.7289428710938,770.4029541015625,776.8497924804688
514,792.5640869140625,785.7142944335938,770.8058471679688,777.2527465820312
515,796.5933837890625,783.6996459960938,774.8351440429688,782.893798828125
516,799.4139404296875,784.1025390625,780.0732421875,789.7435913085938
517,791.7582397460938,782.4908447265625,781.6849975585938,793.7728881835938
518,784.1025390625,781.2820434570312,777.2527465820312,789.7435913085938
519,786.5201416015625,785.7142944335938,774.8351440429688,792.967041015625
520,785.3113403320312,780.4761962890625,778.05859375,790.1465454101562
521,789.7435913085938,776.0439453125,778.05859375,790.952392578125
522,792.5640869140625,781.6849975585938,778.8644409179688,796.1904907226562
523,785.3113403320312,784.1025390625,778.8644409179688,789.3406372070312
524,788.5347900390625,783.6996459960938,779.6703491210938,788.937744140625
525,791.3552856445312,783.2966918945312,783.2966918945312,791.7582397460938
526,792.1611938476562,782.893798828125,785.3113403320312,793.7728881835938
527,792.1611938476562,785.3113403320312,783.2966918945312,796.5933837890625
528,794.1758422851562,784.908447265625,782.893798828125,796.996337890625
529,802.6373901367188,788.937744140625,783.6996459960938,795.3846435546875
530,803.040283203125,789.7435913085938,784.1025390625,803.040283203125
531,801.8314819335938,785.7142944335938,784.1025390625,801.4285888671875
532,802.2344360351562,786.1171875,782.087890625,783.6996459960938
533,801.8314819335938,789.7435913085938,778.4615478515625,782.087890625
534,798.6080322265625,790.5494384765625,778.8644409179688,784.1025390625
535,797.3992919921875,785.3113403320312,778.8644409179688,785.3113403320312
536,800.6226806640625,786.923095703125,777.2527465820312,793.7728881835938
537,799.8168334960938,790.5494384765625,784.5054931640625,793.7728881835938
538,794.5787353515625,786.923095703125,783.2966918945312,788.937744140625
539,796.1904907226562,784.908447265625,780.879150390625,788.1318969726562
540,800.2197875976562,784.908447265625,783.2966918945312,792.967041015625
541,803.040283203125,784.1025390625,783.6996459960938,792.967041015625
542,801.8314819335938,780.879150390625,783.2966918945312,790.5494384765625
543,798.2051391601562,781.2820434570312,782.087890625,786.923095703125
544,792.5640869140625,782.4908447265625,782.087890625,782.893798828125
545,788.5347900390625,779.6703491210938,785.7142944335938,785.7142944335938
546,785.3113403320312,776.4468994140625,788.937744140625,787.7289428710938
547,775.6410522460938,771.2088012695312,787.3259887695312,786.5201416015625
548,771.2088012695312,774.029296875,788.1318969726562,788.1318969726562
549,772.8204956054688,777.6557006835938,786.1171875,798.2051391601562
550,772.4176025390625,775.6410522460938,785.7142944335938,801.8314819335938
551,774.8351440429688,777.6557006835938,789.3406372070312,790.952392578125
552,781.6849975585938,780.0732421875,788.937744140625,791.7582397460938
553,779.2673950195312,778.4615478515625,785.7142944335938,796.996337890625
554,776.8497924804688,781.6849975585938,785.3113403320312,795.7875366210938
555,785.3113403320312,784.5054931640625,789.3406372070312,790.952392578125
556,793.3699340820312,785.3113403320312,791.7582397460938,792.967041015625
557,796.996337890625,790.5494384765625,788.937744140625,794.1758422851562
558,795.3846435546875,794.5787353515625,785.3113403320312,789.3406372070312
559,797.3992919921875,795.7875366210938,781.6849975585938,787.3259887695312
560,803.040283203125,797.8021850585938,784.1025390625,790.1465454101562
561,807.87548828125,798.2051391601562,787.7289428710938,792.1611938476562
562,811.90478515625,794.981689453125,782.893798828125,786.923095703125
563,811.098876953125,791.7582397460938,780.879150390625,786.923095703125
564,801.4285888671875,792.1611938476562,780.4761962890625,789.7435913085938
565,802.2344360351562,788.937744140625,778.8644409179688,786.923095703125
566,810.6959838867188,786.923095703125,782.087890625,788.5347900390625
567,813.5164794921875,794.5787353515625,782.893798828125,790.5494384765625
568,809.084228515625,796.996337890625,782.893798828125,786.923095703125
569,800.6226806640625,795.3846435546875,783.2966918945312,782.4908447265625
570,798.6080322265625,796.1904907226562,781.6849975585938,782.087890625
571,806.2637329101562,793.7728881835938,785.3113403320312,782.893798828125
572,809.89013671875,791.7582397460938,788.5347900390625,784.908447265625
573,807.069580078125,791.3552856445312,789.7435913085938,788.5347900390625
574,803.040283203125,791.7582397460938,790.1465454101562,786.1171875
575,804.6520385742188,794.1758422851562,793.3699340820312,789.7435913085938
576,806.6666870117188,792.5640869140625,793.3699340820312,793.3699340820312
577,804.2490844726562,787.7289428710938,787.3259887695312,787.7289428710938
578,799.4139404296875,783.6996459960938,784.5054931640625,784.908447265625
579,794.1758422851562,785.3113403320312,787.3259887695312,787.3259887695312
580,796.5933837890625,788.5347900390625,790.1465454101562,788.5347900390625
581,804.2490844726562,790.1465454101562,791.3552856445312,792.967041015625
582,805.8607788085938,788.937744140625,792.1611938476562,796.996337890625
583,807.4725341796875,791.3552856445312,794.1758422851562,801.025634765625
584,808.2783813476562,793.3699340820312,796.5933837890625,798.2051391601562
585,802.2344360351562,793.7728881835938,791.3552856445312,786.1171875
586,806.2637329101562,796.5933837890625,788.937744140625,786.923095703125
587,810.2930297851562,797.3992919921875,788.5347900390625,791.3552856445312
588,802.2344360351562,794.5787353515625,782.893798828125,784.5054931640625
589,802.6373901367188,794.1758422851562,786.1171875,778.05859375
590,803.8461303710938,800.2197875976562,788.1318969726562,784.1025390625
591,795.7875366210938,799.8168334960938,784.5054931640625,787.3259887695312
592,789.3406372070312,801.025634765625,783.2966918945312,788.937744140625
593,791.7582397460938,803.8461303710938,782.4908447265625,789.7435913085938
594,788.937744140625,804.2490844726562,784.1025390625,790.1465454101562
595,782.087890625,799.4139404296875,783.6996459960938,788.1318969726562
596,784.1025390625,796.996337890625,784.1025390625,788.937744140625
597,792.967041015625,799.010986328125,785.3113403320312,792.1611938476562
598,799.4139404296875,795.3846435546875,787.7289428710938,793.7728881835938
599,791.7582397460938,794.1758422851562,787.7289428710938,794.981689453125
600,783.2966918945312,794.981689453125,788.1318969726562,789.3406372070312
601,790.5494384765625,797.8021850585938,790.5494384765625,790.1465454101562
602,799.010986328125,799.010986328125,790.5494384765625,796.5933837890625
603,799.8168334960938,796.5933837890625,794.1758422851562,803.040283203125
604,798.2051391601562,794.981689453125,801.025634765625,799.010986328125
605,789.7435913085938,792.967041015625,799.4139404296875,789.7435913085938
606,783.2966918945312,790.5494384765625,797.8021850585938,796.996337890625
607,793.3699340820312,788.937744140625,800.6226806640625,803.8461303710938
608,803.4432373046875,792.1611938476562,800.2197875976562,804.6520385742188
609,800.2197875976562,794.5787353515625,800.6226806640625,803.8461303710938
610,803.040283203125,794.1758422851562,803.040283203125,809.084228515625
611,801.8314819335938,789.7435913085938,803.040283203125,808.2783813476562
612,799.010986328125,787.7289428710938,799.4139404296875,798.6080322265625
613,803.040283203125,786.5201416015625,796.5933837890625,796.1904907226562
614,804.6520385742188,784.908447265625,793.7728881835938,796.996337890625
615,806.6666870117188,788.5347900390625,789.7435913085938,795.3846435546875
616,806.2637329101562,792.1611938476562,788.5347900390625,790.5494384765625
617,804.6520385742188,796.1904907226562,789.7435913085938,794.5787353515625
618,807.4725341796875,796.5933837890625,789.3406372070312,796.996337890625
619,810.6959838867188,794.5787353515625,785.7142944335938,792.967041015625
620,811.90478515625,796.5933837890625,786.5201416015625,786.1171875
621,811.5018310546875,799.8168334960938,784.908447265625,786.1171875
622,815.5311279296875,803.040283203125,786.923095703125,791.3552856445312
623,818.3516235351562,803.8461303710938,790.5494384765625,795.7875366210938
624,811.098876953125,800.2197875976562,782.4908447265625,790.5494384765625
625,801.4285888671875,794.981689453125,779.6703491210938,784.5054931640625
626,803.040283203125,797.3992919921875,782.4908447265625,790.1465454101562
627,806.2637329101562,798.6080322265625,786.923095703125,794.1758422851562
628,805.4578857421875,797.3992919921875,789.3406372070312,790.5494384765625
629,803.4432373046875,796.996337890625,788.1318969726562,788.1318969726562
630,796.996337890625,798.2051391601562,786.923095703125,785.3113403320312
631,792.967041015625,800.6226806640625,788.5347900390625,787.3259887695312
632,793.3699340820312,795.3846435546875,788.937744140625,785.7142944335938
633,797.8021850585938,789.3406372070312,787.3259887695312,784.5054931640625
634,799.4139404296875,788.1318969726562,783.2966918945312,787.3259887695312
635,800.6226806640625,790.1465454101562,781.6849975585938,792.5640869140625
636,797.3992919921875,788.1318969726562,784.1025390625,793.3699340820312
637,799.8168334960938,785.3113403320312,788.5347900390625,794.1758422851562
638,805.8607788085938,783.6996459960938,789.3406372070312,796.1904907226562
639,803.8461303710938,783.2966918945312,789.7435913085938,792.967041015625
640,801.4285888671875,786.923095703125,788.5347900390625,790.1465454101562
641,798.6080322265625,788.937744140625,788.5347900390625,790.5494384765625
642,796.5933837890625,790.1465454101562,789.3406372070312,790.1465454101562
643,796.1904907226562,790.5494384765625,788.937744140625,786.923095703125
644,799.010986328125,788.937744140625,789.7435913085938,784.908447265625
645,793.3699340820312,788.1318969726562,787.7289428710938,778.4615478515625
646,787.3259887695312,790.1465454101562,787.3259887695312,778.8644409179688
647,788.937744140625,790.5494384765625,788.1318969726562,782.4908447265625
648,794.1758422851562,786.1171875,790.5494384765625,786.5201416015625
649,805.054931640625,787.7289428710938,794.1758422851562,799.4139404296875
650,799.8168334960938,795.7875366210938,786.923095703125,791.3552856445312
651,793.3699340820312,798.2051391601562,782.4908447265625,775.2380981445312
652,794.5787353515625,800.6226806640625,783.2966918945312,774.8351440429688
653,788.937744140625,799.8168334960938,778.8644409179688,771.6116943359375
654,790.1465454101562,796.1904907226562,778.8644409179688,771.2088012695312
655,796.1904907226562,794.5787353515625,784.1025390625,773.2234497070312
656,801.025634765625,795.3846435546875,784.1025390625,772.8204956054688
657,797.3992919921875,794.5787353515625,785.3113403320312,777.2527465820312
658,794.5787353515625,792.5640869140625,788.5347900390625,782.893798828125
659,794.981689453125,791.3552856445312,785.3113403320312,780.879150390625
660,793.7728881835938,791.7582397460938,781.2820434570312,787.3259887695312
661,793.7728881835938,795.7875366210938,786.923095703125,792.5640869140625
662,789.7435913085938,795.3846435546875,789.7435913085938,784.1025390625
663,788.1318969726562,792.1611938476562,788.5347900390625,784.908447265625
664,790.952392578125,792.5640869140625,788.1318969726562,786.923095703125
665,791.7582397460938,795.3846435546875,789.3406372070312,785.3113403320312
666,791.3552856445312,793.3699340820312,786.923095703125,786.5201416015625
667,790.1465454101562,792.1611938476562,786.1171875,786.1171875
668,786.5201416015625,791.3552856445312,782.893798828125,784.1025390625
669,792.1611938476562,789.7435913085938,780.879150390625,787.7289428710938
670,798.2051391601562,793.3699340820312,782.4908447265625,787.7289428710938
671,792.967041015625,796.996337890625,786.5201416015625,785.7142944335938
672,788.937744140625,796.5933837890625,787.7289428710938,790.952392578125
673,788.5347900390625,799.4139404296875,789.7435913085938,789.7435913085938
674,794.5787353515625,801.4285888671875,792.5640869140625,784.1025390625
675,800.2197875976562,798.2051391601562,791.7582397460938,785.7142944335938
676,796.1904907226562,795.7875366210938,790.952392578125,786.5201416015625
677,790.1465454101562,793.7728881835938,788.937744140625,782.4908447265625
678,792.5640869140625,794.5787353515625,791.3552856445312,779.2673950195312
679,796.996337890625,796.1904907226562,793.3699340820312,785.7142944335938
680,799.010986328125,795.3846435546875,789.7435913085938,790.5494384765625
681,801.8314819335938,798.6080322265625,790.1465454101562,787.3259887695312
682,797.3992919921875,801.4285888671875,791.7582397460938,784.1025390625
683,795.7875366210938,799.8168334960938,790.952392578125,786.923095703125
684,799.8168334960938,798.2051391601562,789.7435913085938,789.7435913085938
685,803.8461303710938,801.4285888671875,793.7728881835938,787.7289428710938
686,804.6520385742188,807.069580078125,790.952392578125,790.5494384765625
687,800.6226806640625,803.8461303710938,785.3113403320312,788.1318969726562
688,799.8168334960938,802.2344360351562,789.3406372070312,790.1465454101562
689,803.4432373046875,806.2637329101562,792.967041015625,794.5787353515625
690,805.8607788085938,807.87548828125,794.981689453125,794.1758422851562
691,802.6373901367188,806.2637329101562,796.1904907226562,796.996337890625
692,794.1758422851562,800.2197875976562,794.5787353515625,791.3552856445312
693,790.952392578125,796.1904907226562,795.3846435546875,789.3406372070312
694,796.996337890625,798.6080322265625,796.1904907226562,790.5494384765625
695,799.8168334960938,801.4285888671875,794.1758422851562,790.1465454101562
696,793.3699340820312,799.8168334960938,792.967041015625,789.3406372070312
697,787.7289428710938,799.010986328125,792.1611938476562,782.087890625
698,791.7582397460938,801.8314819335938,793.3699340820312,782.4908447265625
699,791.3552856445312,800.2197875976562,796.5933837890625,782.893798828125
700,792.967041015625,799.010986328125,799.4139404296875,783.2966918945312
701,799.010986328125,800.6226806640625,799.8168334960938,787.3259887695312
702,796.996337890625,798.6080322265625,798.2051391601562,783.6996459960938
703,790.1465454101562,794.1758422851562,800.6226806640625,782.087890625
704,788.5347900390625,794.981689453125,799.4139404296875,780.4761962890625
705,793.7728881835938,794.5787353515625,795.3846435546875,776.8497924804688
706,796.5933837890625,795.3846435546875,794.1758422851562,782.893798828125
707,797.3992919921875,795.3846435546875,790.952392578125,784.5054931640625
708,793.3699340820312,795.3846435546875,793.3699340820312,782.4908447265625
709,793.3699340820312,796.5933837890625,794.1758422851562,789.3406372070312
710,795.7875366210938,794.5787353515625,790.1465454101562,787.7289428710938
711,797.8021850585938,793.3699340820312,791.3552856445312,784.5054931640625
712,797.8021850585938,794.981689453125,792.967041015625,789.7435913085938
713,795.7875366210938,799.010986328125,792.5640869140625,788.5347900390625
714,796.1904907226562,801.4285888671875,794.1758422851562,792.1611938476562
715,792.967041015625,797.3992919921875,793.7728881835938,795.7875366210938
716,792.967041015625,795.7875366210938,792.967041015625,790.952392578125
717,792.1611938476562,797.3992919921875,792.1611938476562,784.908447265625
718,788.937744140625,797.3992919921875,794.1758422851562,784.908447265625
719,790.1465454101562,800.6226806640625,794.5787353515625,788.937744140625
720,792.967041015625,801.025634765625,792.967041015625,789.7435913085938
721,790.1465454101562,792.967041015625,792.1611938476562,780.0732421875
722,784.5054931640625,792.5640869140625,788.5347900390625,777.6557006835938
723,777.2527465820312,799.8168334960938,792.967041015625,780.879150390625
724,778.4615478515625,801.4285888671875,794.5787353515625,776.8497924804688
725,788.937744140625,799.010986328125,793.7728881835938,778.4615478515625
726,790.5494384765625,803.8461303710938,796.5933837890625,778.8644409179688
727,790.952392578125,800.6226806640625,795.3846435546875,778.05859375
728,789.7435913085938,797.3992919921875,792.1611938476562,779.6703491210938
729,788.937744140625,795.3846435546875,791.7582397460938,780.879150390625
730,793.7728881835938,790.1465454101562,790.952392578125,784.5054931640625
731,801.025634765625,793.3699340820312,787.7289428710938,784.908447265625
732,801.025634765625,796.5933837890625,787.3259887695312,787.7289428710938
733,797.3992919921875,799.4139404296875,790.952392578125,796.996337890625
734,794.1758422851562,799.010986328125,792.1611938476562,792.1611938476562
735,796.5933837890625,799.010986328125,792.967041015625,781.2820434570312
736,797.8021850585938,799.010986328125,792.1611938476562,780.879150390625
737,794.5787353515625,799.010986328125,793.3699340820312,785.7142944335938
738,793.3699340820312,801.8314819335938,796.5933837890625,788.937744140625
739,790.5494384765625,803.8461303710938,796.5933837890625,784.1025390625
740,794.1758422851562,802.2344360351562,796.5933837890625,787.3259887695312
741,797.8021850585938,800.2197875976562,793.7728881835938,785.7142944335938
742,799.010986328125,805.4578857421875,792.5640869140625,787.7289428710938
743,800.6226806640625,808.2783813476562,794.981689453125,792.1611938476562
744,792.967041015625,801.8314819335938,790.5494384765625,785.7142944335938
745,791.7582397460938,800.2197875976562,788.937744140625,789.3406372070312
746,803.8461303710938,804.6520385742188,794.1758422851562,791.3552856445312
747,807.4725341796875,805.054931640625,794.1758422851562,786.5201416015625
748,802.2344360351562,801.025634765625,793.3699340820312,789.3406372070312
749,794.5787353515625,800.2197875976562,794.981689453125,787.7289428710938
750,787.7289428710938,799.4139404296875,791.3552856445312,781.2820434570312
751,790.952392578125,796.996337890625,790.952392578125,780.879150390625
752,798.2051391601562,799.010986328125,792.967041015625,782.087890625
753,794.981689453125,801.4285888671875,791.3552856445312,776.4468994140625
754,792.1611938476562,798.2051391601562,790.1465454101562,778.05859375
755,794.5787353515625,797.3992919921875,792.967041015625,786.923095703125
756,796.5933837890625,794.5787353515625,794.5787353515625,788.5347900390625
757,796.996337890625,788.5347900390625,792.5640869140625,779.2673950195312
758,789.7435913085938,792.967041015625,791.3552856445312,770.4029541015625
759,792.1611938476562,801.4285888671875,792.5640869140625,777.2527465820312
760,798.2051391601562,803.4432373046875,795.7875366210938,785.7142944335938
761,794.981689453125,802.2344360351562,796.5933837890625,787.7289428710938
762,794.5787353515625,799.010986328125,791.3552856445312,780.0732421875
763,798.6080322265625,799.4139404296875,790.952392578125,781.6849975585938
764,792.967041015625,800.2197875976562,794.5787353515625,786.5201416015625
765,789.3406372070312,799.4139404296875,794.5787353515625,784.908447265625
766,793.7728881835938,800.6226806640625,796.1904907226562,789.7435913085938
767,797.8021850585938,803.040283203125,796.5933837890625,794.1758422851562
768,797.3992919921875,801.025634765625,798.2051391601562,799.010986328125
769,790.5494384765625,796.5933837890625,794.1758422851562,792.5640869140625
770,789.7435913085938,799.010986328125,790.5494384765625,784.1025390625
771,796.996337890625,800.2197875976562,792.967041015625,784.908447265625
772,794.981689453125,793.3699340820312,793.7728881835938,780.4761962890625
773,790.1465454101562,794.1758422851562,791.7582397460938,782.4908447265625
774,788.1318969726562,793.7728881835938,788.5347900390625,786.1171875
775,789.3406372070312,791.7582397460938,791.7582397460938,786.1171875
776,792.967041015625,793.7728881835938,797.3992919921875,786.1171875
777,794.1758422851562,795.7875366210938,797.8021850585938,787.7289428710938
778,793.7728881835938,797.3992919921875,794.5787353515625,786.1171875
779,787.3259887695312,798.2051391601562,791.7582397460938,786.1171875
780,787.7289428710938,794.981689453125,795.3846435546875,790.5494384765625
781,789.7435913085938,792.1611938476562,798.2051391601562,786.5201416015625
782,786.5201416015625,794.1758422851562,797.3992919921875,781.2820434570312
783,789.3406372070312,792.967041015625,794.1758422851562,779.2673950195312
784,793.3699340820312,794.5787353515625,793.3699340820312,785.7142944335938
785,786.923095703125,793.3699340820312,792.5640869140625,784.908447265625
786,784.1025390625,790.5494384765625,790.952392578125,783.6996459960938
787,788.937744140625,793.3699340820312,794.5787353515625,786.923095703125
788,791.7582397460938,799.4139404296875,796.1904907226562,788.937744140625
789,787.3259887695312,798.2051391601562,799.010986328125,785.3113403320312
790,784.5054931640625,795.3846435546875,798.6080322265625,781.6849975585938
791,787.3259887695312,791.3552856445312,797.3992919921875,782.087890625
792,789.3406372070312,788.5347900390625,798.6080322265625,786.923095703125
793,792.1611938476562,792.967041015625,799.010986328125,794.1758422851562
794,794.981689453125,792.5640869140625,798.6080322265625,795.7875366210938
795,795.3846435546875,790.5494384765625,798.6080322265625,801.8314819335938
796,792.5640869140625,793.3699340820312,796.5933837890625,798.6080322265625
797,799.4139404296875,794.981689453125,792.5640869140625,794.981689453125
798,804.2490844726562,793.7728881835938,794.5787353515625,795.3846435546875
799,801.8314819335938,793.3699340820312,797.8021850585938,785.7142944335938
800,794.981689453125,792.5640869140625,795.3846435546875,778.05859375
801,788.937744140625,793.7728881835938,794.1758422851562,778.4615478515625
802,791.3552856445312,793.3699340820312,792.5640869140625,781.6849975585938
803,796.5933837890625,792.1611938476562,792.5640869140625,783.6996459960938
804,795.3846435546875,791.3552856445312,794.981689453125,781.2820434570312
805,794.1758422851562,790.952392578125,796.996337890625,781.6849975585938
806,794.1758422851562,791.7582397460938,795.3846435546875,788.1318969726562
807,793.3699340820312,792.1611938476562,796.1904907226562,787.7289428710938
808,794.1758422851562,794.1758422851562,793.7728881835938,782.4908447265625
809,792.5640869140625,796.5933837890625,789.7435913085938,784.5054931640625
810,794.1758422851562,794.1758422851562,793.3699340820312,791.3552856445312
811,792.5640869140625,791.7582397460938,794.981689453125,788.5347900390625
812,793.3699340820312,795.7875366210938,795.7875366210938,786.5201416015625
813,798.2051391601562,791.3552856445312,792.967041015625,788.1318969726562
814,798.6080322265625,790.1465454101562,792.1611938476562,786.5201416015625
815,795.3846435546875,792.967041015625,796.1904907226562,787.7289428710938
816,792.967041015625,794.981689453125,796.996337890625,786.1171875
817,794.5787353515625,796.996337890625,796.996337890625,786.1171875
818,799.8168334960938,796.996337890625,799.8168334960938,799.010986328125
819,798.6080322265625,798.2051391601562,797.3992919921875,801.025634765625
820,793.3699340820312,797.3992919921875,796.1904907226562,790.1465454101562
821,795.7875366210938,795.3846435546875,794.1758422851562,792.1611938476562
822,796.1904907226562,794.5787353515625,788.5347900390625,791.3552856445312
823,795.3846435546875,794.5787353515625,791.3552856445312,786.923095703125
824,800.6226806640625,800.2197875976562,796.996337890625,788.1318969726562
825,802.6373901367188,803.040283203125,797.8021850585938,791.3552856445312
826,796.996337890625,799.4139404296875,797.3992919921875,789.3406372070312
827,791.7582397460938,796.996337890625,798.2051391601562,787.3259887695312
828,794.5787353515625,799.8168334960938,798.6080322265625,788.1318969726562
829,795.3846435546875,799.4139404296875,798.2051391601562,789.3406372070312
830,791.3552856445312,792.967041015625,796.5933837890625,791.7582397460938
831,788.1318969726562,794.1758422851562,798.6080322265625,790.5494384765625
832,788.1318969726562,796.1904907226562,797.3992919921875,786.1171875
833,792.1611938476562,798.2051391601562,794.1758422851562,785.7142944335938
834,793.3699340820312,800.6226806640625,801.025634765625,788.5347900390625
835,794.1758422851562,799.4139404296875,801.4285888671875,788.1318969726562
836,788.5347900390625,797.3992919921875,796.1904907226562,783.2966918945312
837,784.1025390625,796.1904907226562,797.3992919921875,782.4908447265625
838,792.1611938476562,797.3992919921875,797.3992919921875,785.3113403320312
839,795.3846435546875,800.2197875976562,796.996337890625,782.893798828125
840,797.8021850585938,799.010986328125,794.5787353515625,779.2673950195312
841,792.1611938476562,796.996337890625,790.952392578125,784.1025390625
842,788.5347900390625,793.7728881835938,794.5787353515625,784.5054931640625
843,794.1758422851562,790.5494384765625,793.7728881835938,778.4615478515625
844,794.1758422851562,790.5494384765625,793.7728881835938,782.087890625
845,797.3992919921875,794.5787353515625,801.025634765625,789.3406372070312
846,799.010986328125,799.010986328125,804.6520385742188,788.937744140625
847,797.3992919921875,799.4139404296875,798.6080322265625,783.6996459960938
848,797.8021850585938,797.3992919921875,797.8021850585938,787.3259887695312
849,802.6373901367188,802.2344360351562,798.6080322265625,791.3552856445312
850,803.4432373046875,801.4285888671875,793.7728881835938,788.937744140625
851,801.025634765625,796.5933837890625,795.7875366210938,784.1025390625
852,803.040283203125,794.981689453125,797.8021850585938,787.7289428710938
853,805.054931640625,794.1758422851562,801.025634765625,799.010986328125
854,806.2637329101562,800.6226806640625,803.4432373046875,794.1758422851562
855,803.040283203125,799.4139404296875,799.4139404296875,785.7142944335938
856,794.1758422851562,796.1904907226562,798.6080322265625,782.893798828125
857,789.7435913085938,797.3992919921875,798.2051391601562,785.3113403320312
858,788.5347900390625,795.3846435546875,798.6080322265625,789.3406372070312
859,790.952392578125,795.7875366210938,802.2344360351562,792.967041015625
860,793.3699340820312,796.996337890625,804.6520385742188,798.2051391601562
861,795.3846435546875,797.3992919921875,802.2344360351562,799.8168334960938
862,793.3699340820312,796.1904907226562,796.1904907226562,793.3699340820312
863,792.967041015625,794.981689453125,794.5787353515625,795.3846435546875
864,796.5933837890625,792.5640869140625,796.5933837890625,798.2051391601562
865,792.967041015625,790.952392578125,799.8168334960938,791.7582397460938
866,791.3552856445312,796.996337890625,801.4285888671875,790.5494384765625
867,792.1611938476562,799.010986328125,804.2490844726562,791.3552856445312
868,793.3699340820312,799.010986328125,805.054931640625,790.1465454101562
869,796.1904907226562,801.8314819335938,800.6226806640625,792.967041015625
870,799.010986328125,795.3846435546875,796.996337890625,788.937744140625
871,791.7582397460938,792.5640869140625,794.1758422851562,780.0732421875
872,788.937744140625,794.981689453125,796.5933837890625,781.6849975585938
873,794.981689453125,798.2051391601562,799.8168334960938,787.7289428710938
874,790.5494384765625,797.3992919921875,800.2197875976562,786.1171875
875,784.5054931640625,794.5787353515625,799.4139404296875,783.2966918945312
876,786.1171875,797.3992919921875,798.6080322265625,781.2820434570312
877,786.923095703125,801.4285888671875,800.2197875976562,776.4468994140625
878,783.6996459960938,797.3992919921875,797.8021850585938,772.4176025390625
879,784.5054931640625,796.996337890625,796.996337890625,776.4468994140625
880,789.7435913085938,797.8021850585938,799.4139404296875,783.2966918945312
881,790.952392578125,795.7875366210938,799.8168334960938,777.2527465820312
882,791.7582397460938,794.1758422851562,798.2051391601562,775.6410522460938
883,792.1611938476562,795.3846435546875,798.6080322265625,780.4761962890625
884,789.7435913085938,796.996337890625,800.2197875976562,782.4908447265625
885,794.981689453125,799.4139404296875,801.4285888671875,789.7435913085938
886,796.1904907226562,799.4139404296875,800.6226806640625,792.5640869140625
887,793.3699340820312,799.010986328125,799.8168334960938,793.3699340820312
888,793.7728881835938,798.2051391601562,802.6373901367188,799.4139404296875
889,794.1758422851562,793.3699340820312,805.8607788085938,792.5640869140625
890,791.7582397460938,794.981689453125,801.8314819335938,785.7142944335938
891,795.3846435546875,800.6226806640625,800.6226806640625,798.2051391601562
892,801.025634765625,801.8314819335938,802.6373901367188,804.2490844726562
893,794.5787353515625,800.2197875976562,802.2344360351562,795.3846435546875
894,792.967041015625,801.025634765625,801.025634765625,796.1904907226562
895,792.967041015625,798.6080322265625,800.2197875976562,797.8021850585938
896,793.3699340820312,793.3699340820312,798.6080322265625,790.1465454101562
897,794.1758422851562,795.3846435546875,799.8168334960938,789.7435913085938
898,791.7582397460938,795.3846435546875,800.2197875976562,788.1318969726562
899,790.952392578125,792.5640869140625,794.981689453125,783.6996459960938
900,788.937744140625,789.7435913085938,792.1611938476562,782.087890625
901,784.5054931640625,790.5494384765625,791.7582397460938,780.879150390625
902,786.5201416015625,793.3699340820312,795.7875366210938,781.6849975585938
903,784.5054931640625,794.1758422851562,796.1904907226562,781.6849975585938
904,783.2966918945312,792.967041015625,789.7435913085938,781.6849975585938
905,788.5347900390625,789.7435913085938,789.7435913085938,780.879150390625
906,791.7582397460938,786.923095703125,792.5640869140625,782.087890625
907,790.952392578125,789.7435913085938,792.1611938476562,778.05859375
908,786.923095703125,796.996337890625,789.3406372070312,770.8058471679688
909,794.1758422851562,799.8168334960938,786.923095703125,773.6264038085938
910,790.5494384765625,799.8168334960938,789.7435913085938,776.0439453125
911,791.3552856445312,802.6373901367188,793.7728881835938,773.2234497070312
912,792.967041015625,804.6520385742188,795.3846435546875,772.8204956054688
913,788.937744140625,801.8314819335938,788.937744140625,774.8351440429688
914,794.1758422851562,802.2344360351562,787.7289428710938,783.6996459960938
915,791.7582397460938,801.8314819335938,794.5787353515625,788.5347900390625
916,788.937744140625,797.8021850585938,792.5640869140625,782.893798828125
917,792.967041015625,794.981689453125,792.5640869140625,779.6703491210938
918,797.3992919921875,800.2197875976562,791.7582397460938,782.893798828125
919,795.3846435546875,801.4285888671875,790.952392578125,784.1025390625
920,793.7728881835938,798.2051391601562,792.1611938476562,781.6849975585938
921,794.1758422851562,796.996337890625,790.5494384765625,782.087890625
922,792.1611938476562,796.1904907226562,790.1465454101562,780.0732421875
923,790.952392578125,794.981689453125,788.5347900390625,775.2380981445312
924,784.908447265625,793.7728881835938,788.937744140625,773.6264038085938
925,788.5347900390625,797.3992919921875,792.967041015625,784.1025390625
926,793.7728881835938,801.4285888671875,790.952392578125,791.3552856445312
927,793.7728881835938,802.2344360351562,788.5347900390625,785.7142944335938
928,798.6080322265625,803.8461303710938,794.5787353515625,784.908447265625
929,795.7875366210938,805.4578857421875,795.3846435546875,782.893798828125
930,796.5933837890625,808.2783813476562,793.7728881835938,783.6996459960938
931,799.8168334960938,811.5018310546875,794.5787353515625,788.937744140625
932,799.010986328125,808.6813354492188,792.967041015625,790.5494384765625
933,797.3992919921875,805.054931640625,796.1904907226562,789.7435913085938
934,791.7582397460938,803.4432373046875,792.967041015625,781.6849975585938
935,793.3699340820312,798.6080322265625,787.7289428710938,786.1171875
936,792.967041015625,799.8168334960938,791.3552856445312,789.7435913085938
937,790.952392578125,800.2197875976562,790.1465454101562,786.5201416015625
938,790.952392578125,801.8314819335938,790.5494384765625,786.923095703125
939,788.5347900390625,803.4432373046875,788.937744140625,780.4761962890625
940,793.3699340820312,803.8461303710938,786.923095703125,785.3113403320312
941,793.7728881835938,799.4139404296875,791.7582397460938,790.952392578125
942,794.1758422851562,791.3552856445312,790.1465454101562,789.7435913085938
943,796.5933837890625,792.1611938476562,788.5347900390625,788.5347900390625
944,796.1904907226562,795.7875366210938,790.5494384765625,789.7435913085938
945,801.4285888671875,797.3992919921875,794.1758422851562,793.7728881835938
946,801.025634765625,799.4139404296875,799.010986328125,794.1758422851562
947,801.4285888671875,798.6080322265625,798.2051391601562,792.5640869140625
948,803.8461303710938,799.4139404296875,796.996337890625,795.3846435546875
949,796.5933837890625,798.2051391601562,799.8168334960938,796.996337890625
950,790.5494384765625,796.1904907226562,803.040283203125,786.5201416015625
951,794.5787353515625,799.010986328125,800.6226806640625,786.5201416015625
952,796.1904907226562,798.2051391601562,797.3992919921875,789.7435913085938
953,792.1611938476562,796.5933837890625,793.7728881835938,782.893798828125
954,791.7582397460938,798.6080322265625,792.1611938476562,780.0732421875
955,790.1465454101562,796.996337890625,794.1758422851562,776.4468994140625
956,793.7728881835938,794.5787353515625,795.7875366210938,782.893798828125
957,797.8021850585938,795.3846435546875,798.2051391601562,788.5347900390625
958,791.7582397460938,793.7728881835938,796.1904907226562,785.3113403320312
959,786.923095703125,791.7582397460938,795.7875366210938,785.3113403320312
960,786.1171875,788.5347900390625,795.7875366210938,785.7142944335938
961,790.952392578125,790.5494384765625,794.5787353515625,788.937744140625
962,792.1611938476562,792.967041015625,794.981689453125,791.7582397460938
963,789.7435913085938,791.3552856445312,793.7728881835938,796.1904907226562
964,788.937744140625,794.981689453125,796.1904907226562,796.5933837890625
965,792.1611938476562,794.5787353515625,796.996337890625,788.937744140625
966,793.3699340820312,793.3699340820312,796.996337890625,789.7435913085938
967,795.3846435546875,792.967041015625,796.996337890625,798.6080322265625
968,794.5787353515625,791.3552856445312,794.1758422851562,794.1758422851562
969,789.7435913085938,788.1318969726562,792.1611938476562,779.2673950195312
970,789.7435913085938,791.3552856445312,792.967041015625,776.4468994140625
971,787.7289428710938,796.5933837890625,789.7435913085938,780.4761962890625
972,788.5347900390625,793.3699340820312,791.3552856445312,782.893798828125
973,788.5347900390625,793.3699340820312,794.5787353515625,781.6849975585938
974,792.1611938476562,795.3846435546875,795.3846435546875,776.8497924804688
975,794.1758422851562,793.3699340820312,795.7875366210938,781.2820434570312
976,786.923095703125,793.3699340820312,793.3699340820312,786.1171875
977,788.5347900390625,794.981689453125,796.1904907226562,782.893798828125
978,792.5640869140625,795.7875366210938,795.3846435546875,782.087890625
979,790.1465454101562,794.1758422851562,794.1758422851562,784.1025390625
980,786.5201416015625,790.5494384765625,795.3846435546875,785.3113403320312
981,789.7435913085938,795.7875366210938,797.8021850585938,784.5054931640625
982,794.981689453125,801.8314819335938,793.7728881835938,780.879150390625
983,797.8021850585938,799.4139404296875,790.1465454101562,783.2966918945312
984,796.5933837890625,794.5787353515625,789.7435913085938,785.3113403320312
985,790.5494384765625,794.5787353515625,790.1465454101562,783.6996459960938
986,786.923095703125,795.3846435546875,792.1611938476562,784.5054931640625
987,785.7142944335938,791.7582397460938,790.5494384765625,786.923095703125
988,788.5347900390625,790.5494384765625,790.952392578125,789.3406372070312
989,794.5787353515625,798.2051391601562,793.7728881835938,791.7582397460938
990,794.981689453125,801.025634765625,797.8021850585938,790.952392578125
991,793.3699340820312,799.010986328125,796.1904907226562,786.923095703125
992,794.1758422851562,799.4139404296875,789.7435913085938,786.1171875
993,795.7875366210938,799.010986328125,789.7435913085938,783.2966918945312
994,796.996337890625,795.7875366210938,796.1904907226562,788.937744140625
995,794.5787353515625,793.3699340820312,796.5933837890625,795.3846435546875
996,785.7142944335938,794.5787353515625,796.5933837890625,788.937744140625
997,784.5054931640625,794.1758422851562,795.3846435546875,785.3113403320312
998,789.7435913085938,792.5640869140625,793.3699340820312,790.1465454101562
999,788.1318969726562,792.967041015625,793.3699340820312,787.7289428710938
1000,783.2966918945312,794.981689453125,794.1758422851562,781.2820434570312
1001,781.6849975585938,794.1758422851562,793.7728881835938,780.4761962890625
1002,785.3113403320312,793.7728881835938,795.7875366210938,784.908447265625
1003,786.923095703125,794.981689453125,793.7728881835938,786.5201416015625
1004,788.5347900390625,795.7875366210938,789.3406372070312,777.6557006835938
1005,787.7289428710938,796.1904907226562,790.952392578125,774.029296875
1006,784.1025390625,793.7728881835938,788.1318969726562,776.8497924804688
1007,786.923095703125,794.1758422851562,791.7582397460938,779.2673950195312
1008,791.3552856445312,792.5640869140625,791.3552856445312,776.4468994140625
1009,791.7582397460938,788.1318969726562,785.7142944335938,777.6557006835938
1010,787.7289428710938,787.7289428710938,788.1318969726562,786.5201416015625
1011,778.8644409179688,787.3259887695312,790.1465454101562,784.5054931640625
1012,771.6116943359375,787.3259887695312,790.5494384765625,773.2234497070312
1013,782.087890625,791.3552856445312,790.952392578125,773.6264038085938
1014,787.7289428710938,790.1465454101562,793.7728881835938,776.4468994140625
1015,779.6703491210938,789.3406372070312,792.1611938476562,771.2088012695312
1016,776.8497924804688,794.1758422851562,794.1758422851562,770.4029541015625
1017,783.6996459960938,794.981689453125,799.010986328125,777.6557006835938
1018,788.5347900390625,797.8021850585938,795.3846435546875,778.4615478515625
1019,788.937744140625,803.4432373046875,801.025634765625,772.8204956054688
1020,788.937744140625,798.2051391601562,799.010986328125,770.8058471679688
1021,782.893798828125,788.5347900390625,791.7582397460938,766.7765502929688
1022,772.0146484375,790.952392578125,802.2344360351562,768.3883056640625
1023,772.4176025390625,792.1611938476562,808.6813354492188,771.6116943359375
1024,774.4322509765625,795.7875366210938,810.6959838867188,768.7911987304688
1025,764.7619018554688,804.2490844726562,810.2930297851562,762.3442993164062
1026,746.6300659179688,797.3992919921875,805.4578857421875,751.4652099609375
1027,728.4981689453125,793.3699340820312,804.6520385742188,733.3333129882812
1028,724.8717651367188,802.2344360351562,810.6959838867188,729.7069702148438
1029,717.6190185546875,805.8607788085938,821.97802734375,728.4981689453125
1030,700.6959838867188,800.6226806640625,821.1721801757812,709.96337890625
1031,687.8021850585938,803.040283203125,821.5750732421875,694.6520385742188
1032,680.952392578125,812.7106323242188,838.901123046875,689.010986328125
1033,672.087890625,809.89013671875,837.2893676757812,685.3846435546875
1034,662.0146484375,803.8461303710938,830.8424682617188,672.087890625
1035,653.1502075195312,803.8461303710938,833.6630249023438,653.1502075195312
1036,647.912109375,802.6373901367188,839.3040161132812,650.3296508789062
1037,649.5238037109375,805.054931640625,846.1538696289062,658.3883056640625
1038,650.7326049804688,805.8607788085938,843.7362670898438,660.0
1039,649.9267578125,802.2344360351562,841.3186645507812,655.970703125
1040,647.5091552734375,800.2197875976562,842.930419921875,656.7765502929688
1041,649.5238037109375,799.8168334960938,841.3186645507812,660.0
1042,649.9267578125,797.3992919921875,838.4981689453125,661.2088012695312
1043,658.3883056640625,797.8021850585938,841.7216186523438,669.6703491210938
1044,678.937744140625,793.7728881835938,840.10986328125,689.4139404296875
1045,695.4578857421875,796.996337890625,841.3186645507812,711.1721801757812
1046,701.90478515625,799.010986328125,841.7216186523438,709.96337890625
1047,704.7252807617188,799.010986328125,833.2600708007812,705.1282348632812
1048,711.1721801757812,797.3992919921875,831.2454223632812,716.8131713867188
1049,729.3040161132812,795.7875366210938,830.03662109375,726.886474609375
1050,746.2271118164062,791.7582397460938,822.3809814453125,736.959716796875
1051,752.6740112304688,786.1171875,819.1575317382812,745.4212646484375
1052,763.5531005859375,789.3406372070312,814.3223266601562,757.912109375
1053,774.029296875,790.952392578125,805.8607788085938,773.2234497070312
1054,778.05859375,788.1318969726562,801.8314819335938,781.6849975585938
1055,793.3699340820312,789.3406372070312,798.6080322265625,794.981689453125
1056,805.054931640625,790.5494384765625,798.2051391601562,803.4432373046875
1057,808.6813354492188,789.3406372070312,793.3699340820312,807.069580078125
1058,806.6666870117188,786.5201416015625,787.3259887695312,803.040283203125
1059,817.94873046875,786.1171875,786.923095703125,810.6959838867188
1060,824.3956298828125,785.3113403320312,783.2966918945312,821.1721801757812
1061,821.5750732421875,778.8644409179688,778.8644409179688,818.7545776367188
1062,828.4249267578125,781.2820434570312,780.879150390625,819.5604248046875
1063,832.4542236328125,785.3113403320312,779.6703491210938,824.3956298828125
1064,838.09521484375,787.7289428710938,776.0439453125,827.2161254882812
1065,837.2893676757812,789.3406372070312,774.8351440429688,823.5897216796875
1066,836.886474609375,786.5201416015625,771.2088012695312,819.5604248046875
1067,831.6483764648438,786.923095703125,766.7765502929688,816.3369750976562
1068,828.8278198242188,791.7582397460938,763.5531005859375,819.5604248046875
1069,837.6923217773438,792.967041015625,765.1648559570312,822.3809814453125
1070,840.915771484375,791.3552856445312,766.7765502929688,826.00732421875
1071,842.12451171875,792.1611938476562,763.5531005859375,829.2307739257812
1072,839.7069702148438,791.3552856445312,763.9560546875,827.2161254882812
1073,836.4835205078125,786.5201416015625,761.94140625,817.1428833007812
1074,839.7069702148438,786.923095703125,762.7472534179688,821.5750732421875
1075,849.7802124023438,792.967041015625,769.1941528320312,833.2600708007812
1076,850.5860595703125,789.3406372070312,769.1941528320312,833.2600708007812
1077,841.7216186523438,786.1171875,766.3735961914062,827.6190185546875
1078,840.5128173828125,787.7289428710938,767.9853515625,827.2161254882812
1079,845.3479614257812,786.5201416015625,768.7911987304688,838.901123046875
1080,845.3479614257812,787.3259887695312,768.3883056640625,836.886474609375
1081,844.5421142578125,786.1171875,767.9853515625,824.3956298828125
1082,838.4981689453125,784.1025390625,767.1795043945312,818.7545776367188
1083,829.6337280273438,781.6849975585938,767.5823974609375,821.5750732421875
1084,832.05126953125,780.0732421875,770.8058471679688,826.4102783203125
1085,834.06591796875,784.1025390625,772.4176025390625,822.7838745117188
1086,836.4835205078125,786.1171875,770.8058471679688,822.7838745117188
1087,836.886474609375,786.1171875,770.4029541015625,828.4249267578125
1088,833.2600708007812,788.5347900390625,772.4176025390625,828.02197265625
1089,832.05126953125,792.5640869140625,773.6264038085938,826.8131713867188
1090,834.06591796875,794.981689453125,772.4176025390625,829.6337280273438
1091,835.2747192382812,794.981689453125,772.8204956054688,830.03662109375
1092,834.06591796875,795.3846435546875,768.3883056640625,824.7985229492188
1093,832.05126953125,793.3699340820312,767.5823974609375,821.5750732421875
1094,830.8424682617188,788.1318969726562,770.0,824.3956298828125
1095,833.6630249023438,790.5494384765625,772.4176025390625,834.4688720703125
1096,839.3040161132812,794.981689453125,777.2527465820312,829.2307739257812
1097,832.4542236328125,793.7728881835938,776.8497924804688,819.1575317382812
1098,826.00732421875,795.7875366210938,778.05859375,818.3516235351562
1099,827.6190185546875,796.5933837890625,782.893798828125,814.7252807617188
1100,832.8571166992188,795.3846435546875,782.893798828125,813.113525390625
1101,830.4395751953125,796.1904907226562,776.4468994140625,809.084228515625
1102,822.3809814453125,794.1758422851562,776.0439453125,806.2637329101562
1103,817.1428833007812,790.952392578125,779.6703491210938,805.4578857421875
1104,813.113525390625,791.3552856445312,775.6410522460938,803.8461303710938
1105,814.3223266601562,793.3699340820312,773.6264038085938,803.4432373046875
1106,815.1282348632812,793.7728881835938,777.2527465820312,805.8607788085938
1107,812.3076782226562,792.5640869140625,782.087890625,807.069580078125
1108,808.2783813476562,790.1465454101562,780.4761962890625,798.6080322265625
1109,807.87548828125,792.1611938476562,781.2820434570312,795.3846435546875
1110,804.2490844726562,792.967041015625,783.2966918945312,796.996337890625
1111,803.040283203125,790.952392578125,779.2673950195312,797.3992919921875
1112,811.098876953125,792.5640869140625,781.6849975585938,799.4139404296875
1113,811.90478515625,794.1758422851562,785.3113403320312,800.6226806640625
1114,808.6813354492188,792.5640869140625,782.4908447265625,801.8314819335938
1115,811.5018310546875,790.5494384765625,776.4468994140625,796.5933837890625
1116,815.1282348632812,790.1465454101562,775.2380981445312,789.3406372070312
1117,820.7692260742188,790.5494384765625,779.6703491210938,797.3992919921875
1118,815.93408203125,790.1465454101562,778.05859375,801.8314819335938
1119,807.069580078125,787.7289428710938,780.4761962890625,792.5640869140625
1120,807.4725341796875,786.923095703125,784.908447265625,792.1611938476562
1121,809.084228515625,788.937744140625,783.6996459960938,799.4139404296875
1122,807.87548828125,791.3552856445312,784.1025390625,804.2490844726562
1123,805.054931640625,789.7435913085938,784.5054931640625,804.2490844726562
1124,803.8461303710938,789.7435913085938,787.3259887695312,803.4432373046875
1125,810.6959838867188,796.1904907226562,789.7435913085938,803.4432373046875
1126,818.3516235351562,799.4139404296875,791.7582397460938,803.4432373046875
1127,817.94873046875,795.3846435546875,791.7582397460938,803.040283203125
1128,809.084228515625,798.2051391601562,791.7582397460938,798.6080322265625
1129,799.010986328125,799.4139404296875,789.7435913085938,799.010986328125
1130,802.6373901367188,796.5933837890625,791.3552856445312,802.6373901367188
1131,806.2637329101562,794.981689453125,797.3992919921875,796.5933837890625
1132,801.8314819335938,792.5640869140625,793.7728881835938,792.1611938476562
1133,799.8168334960938,796.1904907226562,791.7582397460938,792.5640869140625
1134,794.981689453125,796.5933837890625,789.3406372070312,790.1465454101562
1135,788.937744140625,791.7582397460938,787.7289428710938,785.7142944335938
1136,790.952392578125,791.7582397460938,788.937744140625,790.952392578125
1137,794.981689453125,795.7875366210938,794.981689453125,800.2197875976562
1138,795.7875366210938,799.010986328125,797.8021850585938,796.996337890625
1139,794.5787353515625,797.8021850585938,790.952392578125,788.1318969726562
1140,794.981689453125,796.1904907226562,791.7582397460938,785.7142944335938
1141,797.3992919921875,797.3992919921875,798.6080322265625,792.967041015625
1142,798.2051391601562,798.2051391601562,794.5787353515625,793.7728881835938
1143,796.1904907226562,797.8021850585938,785.7142944335938,786.5201416015625
1144,795.3846435546875,794.981689453125,787.3259887695312,786.5201416015625
1145,793.3699340820312,794.1758422851562,792.5640869140625,792.5640869140625
1146,795.3846435546875,794.5787353515625,793.3699340820312,793.3699340820312
1147,800.6226806640625,792.5640869140625,790.1465454101562,788.5347900390625
1148,798.2051391601562,794.981689453125,791.3552856445312,792.1611938476562
1149,790.952392578125,797.3992919921875,795.3846435546875,794.5787353515625
1150,788.937744140625,796.1904907226562,794.5787353515625,791.7582397460938
1151,790.1465454101562,793.3699340820312,790.1465454101562,788.937744140625
1152,796.996337890625,794.981689453125,791.3552856445312,789.7435913085938
1153,796.996337890625,794.1758422851562,793.7728881835938,790.1465454101562
1154,790.952392578125,791.7582397460938,790.1465454101562,785.7142944335938
1155,795.3846435546875,796.996337890625,791.3552856445312,788.937744140625
1156,794.1758422851562,798.2051391601562,791.7582397460938,787.7289428710938
1157,792.967041015625,795.3846435546875,792.5640869140625,782.893798828125
1158,792.967041015625,791.7582397460938,792.1611938476562,782.4908447265625
1159,788.5347900390625,785.7142944335938,786.5201416015625,781.6849975585938
1160,785.3113403320312,784.908447265625,784.908447265625,780.879150390625
1161,785.7142944335938,791.7582397460938,786.1171875,784.1025390625
1162,792.967041015625,795.7875366210938,789.3406372070312,787.3259887695312
1163,790.5494384765625,790.952392578125,787.3259887695312,782.893798828125
1164,788.5347900390625,791.7582397460938,781.2820434570312,780.0732421875
1165,789.7435913085938,791.7582397460938,783.6996459960938,774.4322509765625
1166,792.5640869140625,791.7582397460938,786.923095703125,775.6410522460938
1167,802.6373901367188,800.6226806640625,788.1318969726562,785.3113403320312
1168,805.4578857421875,798.6080322265625,788.1318969726562,787.3259887695312
1169,804.2490844726562,796.5933837890625,788.937744140625,784.5054931640625
1170,800.6226806640625,798.2051391601562,786.923095703125,784.908447265625
1171,800.2197875976562,794.981689453125,782.4908447265625,788.1318969726562
1172,803.8461303710938,793.3699340820312,785.7142944335938,787.7289428710938
1173,803.040283203125,795.7875366210938,786.1171875,785.3113403320312
1174,799.4139404296875,796.996337890625,783.6996459960938,788.1318969726562
1175,799.010986328125,794.5787353515625,785.7142944335938,793.7728881835938
1176,799.010986328125,793.3699340820312,788.5347900390625,792.967041015625
1177,803.040283203125,792.967041015625,789.7435913085938,796.5933837890625
1178,801.4285888671875,791.7582397460938,790.952392578125,797.3992919921875
1179,793.3699340820312,786.1171875,788.937744140625,793.3699340820312
1180,789.3406372070312,783.6996459960938,784.5054931640625,794.1758422851562
1181,788.937744140625,785.7142944335938,786.5201416015625,789.7435913085938
1182,791.3552856445312,787.7289428710938,788.5347900390625,790.1465454101562
1183,796.1904907226562,789.3406372070312,784.5054931640625,792.5640869140625
1184,793.7728881835938,789.7435913085938,784.1025390625,788.5347900390625
1185,788.937744140625,788.937744140625,786.5201416015625,780.879150390625
1186,788.5347900390625,786.923095703125,785.7142944335938,776.8497924804688
1187,787.3259887695312,786.1171875,785.3113403320312,777.2527465820312
1188,785.3113403320312,784.5054931640625,787.3259887695312,777.6557006835938
1189,790.952392578125,788.937744140625,786.1171875,778.8644409179688
1190,793.7728881835938,794.981689453125,785.7142944335938,783.6996459960938
1191,790.5494384765625,794.5787353515625,789.3406372070312,790.5494384765625
1192,789.7435913085938,791.7582397460938,790.1465454101562,786.923095703125
1193,798.6080322265625,794.981689453125,790.1465454101562,788.937744140625
1194,803.4432373046875,800.6226806640625,789.7435913085938,794.981689453125
1195,801.4285888671875,799.4139404296875,791.3552856445312,795.3846435546875
1196,803.8461303710938,798.2051391601562,794.5787353515625,799.8168334960938
1197,798.6080322265625,793.7728881835938,793.3699340820312,790.5494384765625
1198,801.025634765625,790.5494384765625,792.5640869140625,789.3406372070312
1199,809.4871826171875,791.3552856445312,797.3992919921875,795.3846435546875
1200,805.4578857421875,786.5201416015625,797.8021850585938,788.937744140625
1201,798.6080322265625,785.7142944335938,793.3699340820312,788.937744140625
1202,796.996337890625,786.5201416015625,792.1611938476562,796.1904907226562
1203,793.7728881835938,785.7142944335938,792.5640869140625,789.7435913085938
1204,792.967041015625,788.937744140625,790.1465454101562,778.8644409179688
1205,791.7582397460938,786.5201416015625,786.5201416015625,776.8497924804688
1206,785.3113403320312,789.7435913085938,785.3113403320312,780.0732421875
1207,785.7142944335938,792.5640869140625,785.3113403320312,781.6849975585938
1208,788.1318969726562,785.7142944335938,785.3113403320312,782.893798828125
1209,790.952392578125,784.908447265625,787.3259887695312,784.908447265625
1210,788.1318969726562,787.7289428710938,786.923095703125,780.4761962890625
1211,781.6849975585938,788.5347900390625,788.5347900390625,774.029296875
1212,784.908447265625,790.5494384765625,788.5347900390625,774.8351440429688
1213,788.5347900390625,786.5201416015625,784.5054931640625,782.087890625
1214,793.7728881835938,786.923095703125,788.5347900390625,788.5347900390625
1215,793.3699340820312,789.7435913085938,792.5640869140625,782.087890625
1216,784.1025390625,786.5201416015625,788.1318969726562,774.8351440429688
1217,787.3259887695312,789.3406372070312,791.3552856445312,777.2527465820312
1218,797.8021850585938,790.1465454101562,792.1611938476562,778.4615478515625
1219,807.4725341796875,787.3259887695312,788.5347900390625,782.087890625
1220,811.098876953125,785.3113403320312,793.7728881835938,794.1758422851562
1221,809.084228515625,782.4908447265625,796.5933837890625,805.4578857421875
1222,808.2783813476562,788.1318969726562,793.3699340820312,802.2344360351562
1223,795.3846435546875,798.2051391601562,790.952392578125,788.937744140625
1224,790.1465454101562,798.2051391601562,788.1318969726562,784.1025390625
1225,799.010986328125,792.5640869140625,786.5201416015625,796.5933837890625
1226,790.952392578125,790.1465454101562,785.3113403320312,789.3406372070312
1227,786.1171875,787.7289428710938,784.1025390625,780.0732421875
1228,794.1758422851562,792.967041015625,786.923095703125,793.3699340820312
1229,798.6080322265625,794.5787353515625,791.3552856445312,801.8314819335938
1230,796.996337890625,792.5640869140625,794.981689453125,801.025634765625
1231,794.5787353515625,791.7582397460938,789.3406372070312,792.1611938476562
1232,793.7728881835938,790.5494384765625,786.923095703125,789.3406372070312
1233,796.996337890625,789.7435913085938,789.3406372070312,790.1465454101562
1234,796.5933837890625,788.5347900390625,790.1465454101562,789.7435913085938
1235,798.2051391601562,793.7728881835938,791.7582397460938,789.3406372070312
1236,799.4139404296875,794.981689453125,788.937744140625,786.5201416015625
1237,790.5494384765625,791.3552856445312,787.7289428710938,784.908447265625
1238,787.3259887695312,788.937744140625,785.7142944335938,776.8497924804688
1239,792.1611938476562,793.3699340820312,785.7142944335938,774.4322509765625
1240,792.5640869140625,796.1904907226562,787.3259887695312,777.6557006835938
1241,792.5640869140625,794.5787353515625,787.3259887695312,777.6557006835938
1242,786.923095703125,794.1758422851562,790.1465454101562,774.4322509765625
1243,782.087890625,790.5494384765625,785.7142944335938,775.6410522460938
1244,788.5347900390625,786.923095703125,782.893798828125,784.908447265625
1245,792.5640869140625,790.952392578125,785.3113403320312,783.6996459960938
1246,794.1758422851562,791.7582397460938,784.908447265625,783.6996459960938
1247,794.5787353515625,790.1465454101562,788.1318969726562,788.5347900390625
1248,790.1465454101562,790.1465454101562,787.3259887695312,787.3259887695312
1249,794.1758422851562,789.7435913085938,787.3259887695312,786.923095703125
1250,795.7875366210938,789.3406372070312,788.937744140625,789.7435913085938
1251,795.3846435546875,788.5347900390625,789.7435913085938,792.5640869140625
1252,793.7728881835938,787.3259887695312,789.3406372070312,790.5494384765625
1253,790.5494384765625,786.923095703125,790.952392578125,792.5640869140625
1254,792.1611938476562,789.3406372070312,791.3552856445312,794.5787353515625
1255,794.5787353515625,790.1465454101562,788.1318969726562,795.7875366210938
1256,790.952392578125,787.7289428710938,788.1318969726562,797.3992919921875
1257,784.5054931640625,787.3259887695312,787.3259887695312,788.937744140625
1258,784.908447265625,789.3406372070312,786.5201416015625,783.6996459960938
1259,790.952392578125,792.5640869140625,790.952392578125,788.5347900390625
1260,796.1904907226562,797.3992919921875,789.7435913085938,794.981689453125
1261,793.3699340820312,794.5787353515625,787.3259887695312,790.1465454101562
1262,786.1171875,791.7582397460938,788.937744140625,778.8644409179688
1263,782.4908447265625,791.3552856445312,792.1611938476562,782.4908447265625
1264,786.1171875,789.7435913085938,794.981689453125,792.967041015625
1265,787.3259887695312,795.3846435546875,795.3846435546875,790.5494384765625
1266,789.7435913085938,798.6080322265625,798.2051391601562,783.6996459960938
1267,790.1465454101562,795.7875366210938,797.3992919921875,778.4615478515625
1268,788.937744140625,794.1758422851562,791.7582397460938,770.8058471679688
1269,791.7582397460938,790.5494384765625,790.1465454101562,769.1941528320312
1270,791.3552856445312,788.1318969726562,789.3406372070312,773.6264038085938
1271,791.3552856445312,787.7289428710938,791.3552856445312,780.879150390625
1272,790.5494384765625,789.3406372070312,792.1611938476562,781.2820434570312
1273,791.3552856445312,791.3552856445312,790.1465454101562,778.8644409179688
1274,790.5494384765625,790.1465454101562,792.5640869140625,784.908447265625
1275,792.1611938476562,789.7435913085938,792.5640869140625,790.952392578125
1276,793.7728881835938,792.1611938476562,789.3406372070312,787.7289428710938
1277,792.1611938476562,790.952392578125,786.923095703125,782.087890625
1278,784.908447265625,787.7289428710938,786.923095703125,779.6703491210938
1279,783.6996459960938,789.7435913085938,787.7289428710938,775.2380981445312
1280,786.1171875,790.952392578125,787.7289428710938,770.8058471679688
1281,786.1171875,793.7728881835938,788.937744140625,771.6116943359375
1282,791.3552856445312,793.7728881835938,787.7289428710938,772.8204956054688
1283,786.1171875,789.7435913085938,786.923095703125,774.8351440429688
1284,779.2673950195312,789.3406372070312,787.3259887695312,778.05859375
1285,783.6996459960938,792.967041015625,786.923095703125,782.087890625
1286,785.7142944335938,793.3699340820312,788.1318969726562,788.937744140625
1287,780.879150390625,792.5640869140625,790.5494384765625,785.3113403320312
1288,781.6849975585938,793.3699340820312,795.7875366210938,780.879150390625
1289,787.7289428710938,793.7728881835938,796.1904907226562,779.6703491210938
1290,797.8021850585938,792.5640869140625,795.7875366210938,783.2966918945312
1291,795.7875366210938,791.3552856445312,794.981689453125,788.5347900390625
1292,790.952392578125,790.952392578125,789.7435913085938,780.879150390625
1293,794.1758422851562,792.5640869140625,792.5640869140625,776.4468994140625
1294,791.7582397460938,791.3552856445312,794.1758422851562,780.879150390625
1295,793.7728881835938,788.5347900390625,791.3552856445312,787.7289428710938
1296,795.7875366210938,791.7582397460938,795.3846435546875,789.7435913085938
1297,795.7875366210938,795.3846435546875,796.5933837890625,787.7289428710938
1298,794.981689453125,796.1904907226562,799.8168334960938,792.967041015625
1299,790.5494384765625,792.1611938476562,803.040283203125,789.3406372070312
1300,789.3406372070312,790.5494384765625,797.3992919921875,782.4908447265625
1301,793.7728881835938,794.981689453125,791.7582397460938,786.1171875
1302,792.5640869140625,792.1611938476562,790.1465454101562,784.1025390625
1303,785.7142944335938,790.5494384765625,789.7435913085938,782.4908447265625
1304,775.6410522460938,791.3552856445312,790.5494384765625,778.8644409179688
1305,774.4322509765625,784.908447265625,785.7142944335938,779.6703491210938
1306,783.2966918945312,789.3406372070312,785.3113403320312,779.6703491210938
1307,784.908447265625,793.7728881835938,788.937744140625,772.8204956054688
1308,780.4761962890625,790.5494384765625,790.5494384765625,772.0146484375
1309,775.2380981445312,784.908447265625,790.952392578125,776.8497924804688
1310,775.6410522460938,783.2966918945312,787.3259887695312,776.4468994140625
1311,782.893798828125,791.7582397460938,788.1318969726562,774.8351440429688
1312,788.5347900390625,793.7728881835938,786.923095703125,778.05859375
1313,791.7582397460938,794.1758422851562,788.5347900390625,778.4615478515625
1314,788.5347900390625,796.5933837890625,790.952392578125,778.05859375
1315,786.5201416015625,796.1904907226562,789.3406372070312,778.05859375
1316,788.937744140625,794.1758422851562,790.1465454101562,779.6703491210938
1317,789.7435913085938,794.1758422851562,788.937744140625,780.4761962890625
1318,791.3552856445312,790.1465454101562,786.923095703125,775.2380981445312
1319,799.010986328125,789.3406372070312,782.087890625,780.4761962890625
1320,803.4432373046875,793.3699340820312,784.5054931640625,792.5640869140625
1321,799.8168334960938,788.937744140625,790.5494384765625,798.2051391601562
1322,799.8168334960938,788.937744140625,786.923095703125,794.1758422851562
1323,798.6080322265625,790.1465454101562,786.1171875,785.7142944335938
1324,796.996337890625,786.5201416015625,788.1318969726562,783.6996459960938
1325,800.2197875976562,790.5494384765625,792.1611938476562,788.1318969726562
1326,797.8021850585938,790.952392578125,788.937744140625,790.1465454101562
1327,797.8021850585938,786.1171875,785.3113403320312,788.5347900390625
1328,797.8021850585938,786.1171875,789.7435913085938,790.5494384765625
1329,794.981689453125,789.3406372070312,790.1465454101562,790.1465454101562
1330,790.952392578125,789.7435913085938,791.3552856445312,786.923095703125
1331,794.5787353515625,787.7289428710938,790.1465454101562,788.937744140625
1332,794.1758422851562,782.4908447265625,788.5347900390625,786.5201416015625
1333,783.2966918945312,781.6849975585938,786.5201416015625,783.6996459960938
1334,780.879150390625,787.3259887695312,786.1171875,774.8351440429688
1335,779.6703491210938,784.908447265625,789.3406372070312,769.5970458984375
1336,780.0732421875,781.2820434570312,786.1171875,773.2234497070312
1337,782.893798828125,776.0439453125,786.1171875,778.8644409179688
1338,784.5054931640625,779.2673950195312,787.3259887695312,782.087890625
1339,784.5054931640625,783.2966918945312,785.3113403320312,779.2673950195312
1340,788.1318969726562,784.908447265625,785.7142944335938,780.879150390625
1341,793.3699340820312,787.7289428710938,785.3113403320312,786.1171875
1342,795.3846435546875,789.3406372070312,784.1025390625,782.893798828125
1343,798.2051391601562,791.7582397460938,788.1318969726562,783.2966918945312
1344,792.967041015625,787.7289428710938,788.937744140625,792.967041015625
1345,785.3113403320312,785.7142944335938,786.5201416015625,788.1318969726562
1346,790.1465454101562,787.7289428710938,786.5201416015625,782.893798828125
1347,796.5933837890625,788.5347900390625,786.923095703125,784.5054931640625
1348,797.3992919921875,792.5640869140625,788.5347900390625,789.3406372070312
1349,794.5787353515625,793.7728881835938,790.952392578125,791.7582397460938
1350,792.967041015625,793.3699340820312,790.1465454101562,788.937744140625
1351,788.937744140625,792.967041015625,783.6996459960938,787.3259887695312
1352,786.923095703125,791.7582397460938,785.3113403320312,786.923095703125
1353,786.1171875,790.5494384765625,787.3259887695312,787.7289428710938
1354,783.6996459960938,787.3259887695312,787.3259887695312,784.5054931640625
1355,781.2820434570312,784.5054931640625,789.7435913085938,784.5054931640625
1356,776.0439453125,786.923095703125,785.3113403320312,784.908447265625
1357,779.2673950195312,791.7582397460938,786.5201416015625,782.893798828125
1358,788.5347900390625,792.967041015625,788.937744140625,785.7142944335938
1359,788.937744140625,788.1318969726562,787.3259887695312,789.7435913085938
1360,782.893798828125,786.5201416015625,784.908447265625,786.5201416015625
1361,781.6849975585938,788.1318969726562,785.3113403320312,786.923095703125
1362,784.5054931640625,792.967041015625,784.5054931640625,787.7289428710938
1363,790.1465454101562,796.5933837890625,785.3113403320312,792.1611938476562
1364,795.3846435546875,798.6080322265625,787.7289428710938,801.4285888671875
1365,797.8021850585938,801.4285888671875,789.3406372070312,796.1904907226562
1366,798.2051391601562,801.8314819335938,789.3406372070312,791.3552856445312
1367,799.4139404296875,800.6226806640625,784.908447265625,795.3846435546875
1368,801.8314819335938,799.010986328125,785.3113403320312,795.7875366210938
1369,796.996337890625,795.3846435546875,788.937744140625,790.952392578125
1370,796.1904907226562,797.8021850585938,790.5494384765625,794.1758422851562
1371,801.025634765625,796.5933837890625,793.3699340820312,799.010986328125
1372,801.4285888671875,796.996337890625,793.7728881835938,793.3699340820312
1373,797.3992919921875,801.025634765625,793.3699340820312,791.3552856445312
1374,796.1904907226562,800.6226806640625,790.1465454101562,793.7728881835938
1375,791.3552856445312,799.010986328125,787.7289428710938,790.5494384765625
1376,785.7142944335938,794.1758422851562,792.1611938476562,789.7435913085938
1377,788.937744140625,792.5640869140625,792.967041015625,790.1465454101562
1378,794.1758422851562,791.3552856445312,791.7582397460938,786.1171875
1379,788.1318969726562,788.5347900390625,790.952392578125,782.893798828125
1380,783.6996459960938,789.3406372070312,792.1611938476562,778.4615478515625
1381,779.6703491210938,788.937744140625,790.1465454101562,776.0439453125
1382,779.6703491210938,787.7289428710938,787.3259887695312,779.2673950195312
1383,789.3406372070312,790.1465454101562,790.1465454101562,785.3113403320312
1384,791.3552856445312,790.1465454101562,791.7582397460938,782.4908447265625
1385,792.1611938476562,787.3259887695312,793.7728881835938,781.2820434570312
1386,794.1758422851562,787.7289428710938,795.3846435546875,778.8644409179688
1387,794.5787353515625,789.7435913085938,791.7582397460938,774.8351440429688
1388,801.4285888671875,791.7582397460938,790.1465454101562,777.2527465820312
1389,811.5018310546875,792.5640869140625,789.3406372070312,779.6703491210938
1390,808.6813354492188,791.7582397460938,785.3113403320312,782.4908447265625
1391,796.5933837890625,790.952392578125,786.923095703125,784.908447265625
1392,795.3846435546875,790.1465454101562,792.967041015625,788.5347900390625
1393,802.2344360351562,789.7435913085938,797.3992919921875,793.7728881835938
1394,802.6373901367188,789.7435913085938,798.6080322265625,797.3992919921875
1395,792.967041015625,788.5347900390625,798.2051391601562,787.7289428710938
1396,788.937744140625,788.1318969726562,796.5933837890625,782.4908447265625
1397,793.3699340820312,790.1465454101562,795.3846435546875,788.1318969726562
1398,797.3992919921875,791.7582397460938,799.4139404296875,790.5494384765625
1399,796.1904907226562,789.3406372070312,800.6226806640625,788.937744140625
1400,795.3846435546875,788.937744140625,799.8168334960938,789.7435913085938
1401,792.5640869140625,788.937744140625,802.6373901367188,788.5347900390625
1402,790.1465454101562,788.937744140625,803.8461303710938,788.937744140625
1403,794.981689453125,792.967041015625,801.4285888671875,795.3846435546875
1404,799.010986328125,794.1758422851562,798.6080322265625,794.981689453125
1405,792.1611938476562,784.1025390625,798.6080322265625,789.7435913085938
1406,786.5201416015625,783.2966918945312,796.5933837890625,794.1758422851562
1407,788.937744140625,790.1465454101562,794.981689453125,794.1758422851562
1408,791.3552856445312,788.5347900390625,792.967041015625,790.1465454101562
1409,795.3846435546875,788.937744140625,792.967041015625,794.981689453125
1410,796.5933837890625,790.1465454101562,792.967041015625,792.967041015625
1411,795.7875366210938,788.937744140625,790.1465454101562,792.5640869140625
1412,789.7435913085938,786.5201416015625,786.5201416015625,790.952392578125
1413,792.5640869140625,780.879150390625,783.2966918945312,788.5347900390625
1414,801.025634765625,777.6557006835938,786.1171875,792.1611938476562
1415,795.7875366210938,778.8644409179688,782.893798828125,788.1318969726562
1416,794.5787353515625,776.0439453125,782.087890625,782.893798828125
1417,792.1611938476562,774.8351440429688,786.1171875,782.4908447265625
1418,792.1611938476562,781.2820434570312,784.5054931640625,782.087890625
1419,795.7875366210938,784.908447265625,786.1171875,777.6557006835938
1420,794.5787353515625,787.7289428710938,786.923095703125,778.4615478515625
1421,792.967041015625,786.1171875,786.1171875,777.2527465820312
1422,790.5494384765625,783.6996459960938,790.952392578125,776.0439453125
1423,790.1465454101562,782.4908447265625,789.3406372070312,775.2380981445312
1424,792.5640869140625,786.1171875,788.1318969726562,780.0732421875
1425,798.6080322265625,788.1318969726562,792.1611938476562,791.3552856445312
1426,794.5787353515625,786.1171875,792.967041015625,784.908447265625
1427,785.3113403320312,786.5201416015625,787.7289428710938,778.05859375
1428,786.923095703125,782.893798828125,783.2966918945312,780.879150390625
1429,795.7875366210938,784.5054931640625,786.923095703125,784.5054931640625
1430,797.3992919921875,788.1318969726562,789.3406372070312,784.908447265625
1431,791.3552856445312,785.3113403320312,786.923095703125,782.087890625
1432,792.5640869140625,783.6996459960938,785.3113403320312,787.3259887695312
1433,793.7728881835938,782.893798828125,786.5201416015625,788.5347900390625
1434,794.1758422851562,783.6996459960938,785.7142944335938,781.6849975585938
1435,792.1611938476562,783.2966918945312,785.3113403320312,780.879150390625
1436,790.952392578125,784.1025390625,788.5347900390625,783.2966918945312
1437,794.981689453125,784.908447265625,787.3259887695312,782.087890625
1438,798.2051391601562,787.7289428710938,788.5347900390625,785.3113403320312
1439,798.2051391601562,786.1171875,792.967041015625,784.1025390625
1440,799.4139404296875,785.7142944335938,792.967041015625,786.5201416015625
1441,792.967041015625,789.7435913085938,792.5640869140625,785.3113403320312
1442,786.923095703125,788.937744140625,791.3552856445312,778.8644409179688
1443,787.7289428710938,784.5054931640625,791.3552856445312,784.1025390625
1444,791.7582397460938,781.6849975585938,791.7582397460938,782.087890625
1445,794.1758422851562,785.3113403320312,790.952392578125,782.4908447265625
1446,795.7875366210938,787.3259887695312,792.1611938476562,788.1318969726562
1447,796.5933837890625,790.1465454101562,796.996337890625,791.7582397460938
1448,789.7435913085938,791.7582397460938,799.4139404296875,793.7728881835938
1449,790.952392578125,789.3406372070312,791.3552856445312,789.7435913085938
1450,796.5933837890625,790.1465454101562,791.7582397460938,793.7728881835938
1451,800.2197875976562,789.7435913085938,796.5933837890625,796.5933837890625
1452,792.967041015625,790.1465454101562,793.7728881835938,788.1318969726562
1453,792.967041015625,790.952392578125,792.1611938476562,784.5054931640625
1454,796.5933837890625,788.5347900390625,791.7582397460938,781.6849975585938
1455,793.3699340820312,790.952392578125,790.5494384765625,780.0732421875
1456,794.5787353515625,791.3552856445312,791.7582397460938,780.0732421875
1457,792.1611938476562,792.1611938476562,791.3552856445312,774.8351440429688
1458,790.1465454101562,793.3699340820312,789.7435913085938,775.2380981445312
1459,794.5787353515625,789.7435913085938,790.1465454101562,776.4468994140625
1460,802.6373901367188,790.952392578125,790.5494384765625,782.087890625
1461,801.025634765625,791.7582397460938,794.5787353515625,786.5201416015625
1462,797.8021850585938,791.3552856445312,793.7728881835938,785.3113403320312
1463,797.8021850585938,792.5640869140625,794.981689453125,789.7435913085938
1464,795.3846435546875,787.3259887695312,795.3846435546875,788.1318969726562
1465,791.3552856445312,780.879150390625,789.7435913085938,780.0732421875
1466,791.7582397460938,776.0439453125,787.7289428710938,778.8644409179688
1467,795.3846435546875,778.4615478515625,787.3259887695312,779.2673950195312
1468,792.5640869140625,781.2820434570312,789.3406372070312,786.5201416015625
1469,792.1611938476562,782.087890625,787.7289428710938,786.1171875
1470,795.3846435546875,787.7289428710938,784.5054931640625,783.6996459960938
1471,798.6080322265625,786.923095703125,784.5054931640625,784.5054931640625
1472,802.2344360351562,785.3113403320312,787.3259887695312,784.1025390625
1473,798.2051391601562,784.908447265625,784.1025390625,781.2820434570312
1474,794.5787353515625,785.7142944335938,782.893798828125,782.4908447265625
1475,799.010986328125,788.5347900390625,785.7142944335938,786.1171875
1476,794.981689453125,788.5347900390625,782.4908447265625,780.4761962890625
1477,788.5347900390625,786.923095703125,784.5054931640625,777.6557006835938
1478,792.5640869140625,788.5347900390625,788.937744140625,782.087890625
1479,792.1611938476562,785.7142944335938,784.5054931640625,782.4908447265625
1480,788.937744140625,780.4761962890625,782.893798828125,778.4615478515625
1481,792.1611938476562,782.087890625,784.1025390625,785.7142944335938
1482,796.996337890625,785.3113403320312,781.6849975585938,792.1611938476562
1483,794.981689453125,785.3113403320312,784.5054931640625,787.7289428710938
1484,787.7289428710938,787.3259887695312,788.937744140625,784.1025390625
1485,790.1465454101562,782.893798828125,783.6996459960938,788.1318969726562
1486,794.981689453125,781.2820434570312,782.893798828125,791.7582397460938
1487,789.7435913085938,783.6996459960938,786.923095703125,786.5201416015625
1488,785.7142944335938,783.2966918945312,785.7142944335938,783.6996459960938
1489,787.7289428710938,786.923095703125,788.937744140625,785.7142944335938
1490,788.5347900390625,786.923095703125,787.3259887695312,785.3113403320312
1491,790.1465454101562,786.1171875,787.7289428710938,787.7289428710938
1492,794.1758422851562,787.3259887695312,786.5201416015625,792.1611938476562
1493,789.3406372070312,785.7142944335938,786.923095703125,792.1611938476562
1494,785.7142944335938,786.5201416015625,788.937744140625,789.7435913085938
1495,786.5201416015625,786.1171875,788.1318969726562,788.5347900390625
1496,788.5347900390625,783.6996459960938,789.7435913085938,789.3406372070312
1497,792.5640869140625,787.3259887695312,789.7435913085938,791.3552856445312
1498,792.967041015625,789.7435913085938,786.923095703125,794.981689453125
1499,788.5347900390625,791.7582397460938,788.937744140625,794.5787353515625
1500,787.3259887695312,792.5640869140625,789.7435913085938,786.5201416015625
1501,792.1611938476562,790.5494384765625,785.3113403320312,784.5054931640625
1502,789.3406372070312,789.7435913085938,784.5054931640625,794.1758422851562
1503,783.2966918945312,789.7435913085938,787.7289428710938,790.952392578125
1504,782.087890625,789.3406372070312,788.5347900390625,785.7142944335938
1505,785.3113403320312,787.7289428710938,786.5201416015625,788.1318969726562
1506,789.7435913085938,784.908447265625,783.2966918945312,781.2820434570312
1507,790.952392578125,782.893798828125,778.8644409179688,781.2820434570312
1508,789.7435913085938,786.1171875,787.7289428710938,788.937744140625
1509,785.3113403320312,788.937744140625,788.1318969726562,783.6996459960938
1510,782.893798828125,787.7289428710938,782.893798828125,782.4908447265625
1511,788.1318969726562,786.923095703125,786.923095703125,784.908447265625
1512,788.1318969726562,784.1025390625,786.5201416015625,779.2673950195312
1513,788.1318969726562,783.2966918945312,784.5054931640625,785.3113403320312
1514,791.3552856445312,785.3113403320312,783.2966918945312,784.5054931640625
1515,790.1465454101562,786.5201416015625,784.908447265625,774.029296875
1516,790.1465454101562,784.5054931640625,781.6849975585938,778.05859375
1517,790.952392578125,783.6996459960938,781.6849975585938,784.5054931640625
1518,792.5640869140625,789.7435913085938,784.908447265625,786.923095703125
1519,792.967041015625,795.7875366210938,783.6996459960938,786.923095703125
1520,796.1904907226562,796.996337890625,785.7142944335938,788.1318969726562
1521,796.1904907226562,796.996337890625,787.7289428710938,787.3259887695312
1522,793.3699340820312,798.6080322265625,786.5201416015625,782.893798828125
1523,794.981689453125,794.1758422851562,789.7435913085938,786.1171875
1524,790.5494384765625,790.5494384765625,791.3552856445312,792.5640869140625
1525,784.1025390625,790.952392578125,792.1611938476562,794.5787353515625
1526,784.908447265625,793.3699340820312,794.981689453125,790.5494384765625
1527,789.7435913085938,792.5640869140625,795.3846435546875,789.3406372070312
1528,788.1318969726562,792.5640869140625,792.1611938476562,784.1025390625
1529,783.6996459960938,790.952392578125,791.7582397460938,776.4468994140625
1530,785.3113403320312,789.3406372070312,794.1758422851562,776.4468994140625
1531,786.5201416015625,790.5494384765625,788.937744140625,779.6703491210938
1532,788.937744140625,789.7435913085938,789.3406372070312,779.6703491210938
1533,793.7728881835938,794.1758422851562,789.3406372070312,778.4615478515625
1534,787.7289428710938,791.7582397460938,785.7142944335938,775.2380981445312
1535,784.5054931640625,788.5347900390625,790.1465454101562,778.8644409179688
1536,794.981689453125,790.5494384765625,792.967041015625,794.981689453125
1537,797.3992919921875,787.3259887695312,783.2966918945312,791.7582397460938
1538,796.1904907226562,792.5640869140625,780.879150390625,781.2820434570312
1539,794.1758422851562,792.1611938476562,781.6849975585938,784.908447265625
1540,789.7435913085938,788.1318969726562,780.879150390625,785.3113403320312
1541,790.952392578125,793.3699340820312,782.087890625,787.3259887695312
1542,801.4285888671875,793.7728881835938,779.2673950195312,798.2051391601562
1543,799.8168334960938,791.3552856445312,781.2820434570312,801.4285888671875
1544,795.3846435546875,793.3699340820312,787.3259887695312,797.8021850585938
1545,795.7875366210938,792.967041015625,784.1025390625,795.3846435546875
1546,792.967041015625,791.7582397460938,782.893798828125,797.8021850585938
1547,798.2051391601562,791.7582397460938,786.923095703125,807.069580078125
1548,803.4432373046875,794.1758422851562,788.5347900390625,809.89013671875
1549,796.5933837890625,793.3699340820312,790.5494384765625,797.8021850585938
1550,789.7435913085938,789.3406372070312,792.1611938476562,792.967041015625
1551,789.7435913085938,791.3552856445312,790.952392578125,799.010986328125
1552,791.3552856445312,791.3552856445312,792.1611938476562,794.981689453125
1553,793.7728881835938,792.967041015625,796.996337890625,789.7435913085938
1554,792.967041015625,794.981689453125,793.3699340820312,789.3406372070312
1555,788.5347900390625,792.967041015625,790.1465454101562,785.7142944335938
1556,788.1318969726562,789.7435913085938,790.952392578125,777.6557006835938
1557,788.1318969726562,787.7289428710938,787.7289428710938,777.6557006835938
1558,788.937744140625,789.7435913085938,783.6996459960938,782.087890625
1559,786.923095703125,790.1465454101562,785.7142944335938,780.879150390625
1560,782.893798828125,790.952392578125,789.7435913085938,776.8497924804688
1561,782.893798828125,791.3552856445312,789.3406372070312,777.2527465820312
1562,785.7142944335938,790.1465454101562,789.7435913085938,779.2673950195312
1563,790.952392578125,790.5494384765625,791.3552856445312,788.1318969726562
1564,792.5640869140625,790.952392578125,788.937744140625,792.1611938476562
1565,785.3113403320312,790.1465454101562,785.7142944335938,782.893798828125
1566,786.5201416015625,790.952392578125,785.7142944335938,784.5054931640625
1567,791.3552856445312,787.7289428710938,783.2966918945312,783.6996459960938
1568,797.3992919921875,790.952392578125,784.5054931640625,785.3113403320312
1569,802.2344360351562,796.1904907226562,789.3406372070312,792.1611938476562
1570,795.7875366210938,791.7582397460938,785.7142944335938,793.3699340820312
1571,792.967041015625,792.5640869140625,783.6996459960938,796.1904907226562
1572,795.7875366210938,792.1611938476562,783.2966918945312,795.3846435546875
1573,797.3992919921875,788.1318969726562,782.087890625,792.967041015625
1574,796.996337890625,786.923095703125,782.893798828125,795.7875366210938
1575,791.3552856445312,786.1171875,782.893798828125,803.8461303710938
1576,782.4908447265625,786.923095703125,784.1025390625,799.010986328125
1577,785.7142944335938,788.1318969726562,787.7289428710938,793.3699340820312
1578,792.1611938476562,788.937744140625,790.952392578125,792.967041015625
1579,792.1611938476562,790.5494384765625,790.5494384765625,791.7582397460938
1580,795.3846435546875,791.7582397460938,790.5494384765625,792.5640869140625
1581,793.7728881835938,793.3699340820312,790.1465454101562,786.5201416015625
1582,792.5640869140625,793.3699340820312,789.3406372070312,782.4908447265625
1583,791.3552856445312,788.1318969726562,786.5201416015625,781.2820434570312
1584,787.7289428710938,783.2966918945312,786.923095703125,784.5054931640625
1585,784.1025390625,781.6849975585938,788.5347900390625,782.087890625
1586,782.087890625,784.1025390625,784.5054931640625,780.0732421875
1587,782.893798828125,784.908447265625,785.7142944335938,781.2820434570312
1588,790.952392578125,788.1318969726562,788.1318969726562,780.0732421875
1589,792.967041015625,792.967041015625,787.7289428710938,784.5054931640625
1590,791.3552856445312,792.5640869140625,789.3406372070312,785.3113403320312
1591,791.7582397460938,788.937744140625,787.3259887695312,779.6703491210938
