timestamp,RAW_TP9,RAW_AF7,RAW_AF8,RAW_TP10
1,792.5640869140625,790.1465454101562,792.1611938476562,787.3259887695312
2,791.7582397460938,792.967041015625,796.1904907226562,788.5347900390625
3,795.3846435546875,799.8168334960938,796.996337890625,794.5787353515625
4,801.8314819335938,799.4139404296875,795.7875366210938,794.981689453125
5,799.010986328125,801.4285888671875,793.3699340820312,792.5640869140625
6,794.5787353515625,798.6080322265625,798.6080322265625,799.010986328125
7,796.996337890625,795.7875366210938,802.6373901367188,805.8607788085938
8,796.5933837890625,796.1904907226562,795.3846435546875,799.4139404296875
9,799.010986328125,792.1611938476562,792.5640869140625,798.2051391601562
10,795.3846435546875,789.3406372070312,794.5787353515625,800.2197875976562
11,791.7582397460938,794.1758422851562,793.3699340820312,793.7728881835938
12,794.981689453125,792.967041015625,796.5933837890625,791.3552856445312
13,793.7728881835938,789.3406372070312,802.6373901367188,794.5787353515625
14,788.937744140625,786.1171875,798.2051391601562,790.952392578125
15,788.937744140625,783.6996459960938,796.1904907226562,786.923095703125
16,790.952392578125,786.923095703125,798.6080322265625,788.5347900390625
17,787.7289428710938,788.937744140625,798.2051391601562,789.3406372070312
18,790.5494384765625,790.1465454101562,796.996337890625,786.1171875
19,797.3992919921875,789.7435913085938,795.7875366210938,780.4761962890625
20,799.010986328125,789.3406372070312,793.7728881835938,780.4761962890625
21,796.996337890625,788.937744140625,794.981689453125,783.6996459960938
22,794.5787353515625,791.7582397460938,792.5640869140625,780.4761962890625
23,792.5640869140625,796.996337890625,793.3699340820312,780.879150390625
24,792.5640869140625,795.7875366210938,796.996337890625,785.3113403320312
25,794.5787353515625,795.7875366210938,797.8021850585938,786.1171875
26,792.1611938476562,795.7875366210938,799.4139404296875,784.1025390625
27,790.1465454101562,794.981689453125,794.981689453125,782.4908447265625
28,789.7435913085938,795.7875366210938,792.5640869140625,782.4908447265625
29,791.3552856445312,795.7875366210938,797.3992919921875,786.5201416015625
30,787.7289428710938,800.2197875976562,794.1758422851562,788.5347900390625
31,785.3113403320312,802.6373901367188,790.5494384765625,786.1171875
32,787.3259887695312,797.3992919921875,788.937744140625,789.7435913085938
33,790.1465454101562,795.3846435546875,785.3113403320312,792.967041015625
34,793.7728881835938,793.3699340820312,784.908447265625,792.967041015625
35,790.5494384765625,789.7435913085938,789.3406372070312,795.7875366210938
36,786.1171875,787.3259887695312,790.5494384765625,792.967041015625
37,787.7289428710938,787.3259887695312,789.3406372070312,792.967041015625
38,791.7582397460938,789.7435913085938,796.5933837890625,792.967041015625
39,793.3699340820312,788.937744140625,794.5787353515625,786.5201416015625
40,789.7435913085938,786.5201416015625,791.3552856445312,790.952392578125
41,781.6849975585938,790.5494384765625,790.1465454101562,795.7875366210938
42,776.4468994140625,788.937744140625,790.952392578125,787.3259887695312
43,783.6996459960938,786.1171875,790.1465454101562,786.5201416015625
44,791.3552856445312,787.7289428710938,788.5347900390625,792.1611938476562
45,796.1904907226562,796.1904907226562,789.7435913085938,796.996337890625
46,798.2051391601562,797.8021850585938,791.7582397460938,797.3992919921875
47,795.3846435546875,793.7728881835938,793.3699340820312,794.981689453125
48,788.1318969726562,793.7728881835938,792.5640869140625,791.3552856445312
49,792.1611938476562,792.5640869140625,792.967041015625,794.981689453125
50,798.6080322265625,791.7582397460938,793.7728881835938,800.2197875976562
51,794.5787353515625,788.5347900390625,795.3846435546875,795.7875366210938
52,790.1465454101562,787.3259887695312,795.3846435546875,794.1758422851562
53,789.3406372070312,790.952392578125,796.1904907226562,795.3846435546875
54,790.952392578125,790.1465454101562,796.1904907226562,788.937744140625
55,790.952392578125,793.3699340820312,792.967041015625,788.937744140625
56,788.937744140625,792.1611938476562,794.5787353515625,794.1758422851562
57,782.893798828125,790.952392578125,798.6080322265625,790.952392578125
58,781.2820434570312,792.5640869140625,798.2051391601562,788.937744140625
59,782.087890625,786.1171875,796.5933837890625,790.952392578125
60,783.6996459960938,788.5347900390625,796.5933837890625,787.7289428710938
61,788.5347900390625,792.1611938476562,800.2197875976562,790.5494384765625
62,788.1318969726562,792.5640869140625,803.4432373046875,796.5933837890625
63,782.4908447265625,789.3406372070312,800.2197875976562,791.3552856445312
64,782.893798828125,784.1025390625,798.2051391601562,786.5201416015625
65,786.5201416015625,786.5201416015625,799.010986328125,786.923095703125
66,788.1318969726562,791.7582397460938,798.2051391601562,789.3406372070312
67,792.5640869140625,794.981689453125,797.3992919921875,797.8021850585938
68,792.1611938476562,791.3552856445312,797.3992919921875,797.8021850585938
69,790.5494384765625,790.952392578125,795.7875366210938,786.923095703125
70,799.010986328125,798.2051391601562,795.3846435546875,792.1611938476562
71,807.4725341796875,800.2197875976562,796.5933837890625,796.5933837890625
72,802.2344360351562,799.010986328125,794.1758422851562,793.7728881835938
73,797.3992919921875,798.6080322265625,797.8021850585938,790.5494384765625
74,800.2197875976562,794.5787353515625,796.996337890625,790.5494384765625
75,800.6226806640625,800.6226806640625,798.2051391601562,799.4139404296875
76,801.8314819335938,804.6520385742188,802.2344360351562,800.6226806640625
77,805.054931640625,804.6520385742188,797.8021850585938,799.010986328125
78,803.4432373046875,800.2197875976562,795.3846435546875,794.981689453125
79,795.7875366210938,792.1611938476562,795.3846435546875,802.2344360351562
80,793.7728881835938,790.952392578125,796.1904907226562,803.040283203125
81,792.967041015625,792.5640869140625,797.3992919921875,790.952392578125
82,788.1318969726562,791.3552856445312,794.1758422851562,787.3259887695312
83,782.4908447265625,788.1318969726562,791.7582397460938,789.7435913085938
84,783.2966918945312,788.5347900390625,794.981689453125,796.996337890625
85,787.7289428710938,789.3406372070312,795.3846435546875,794.981689453125
86,790.5494384765625,789.7435913085938,797.8021850585938,792.1611938476562
87,797.3992919921875,795.3846435546875,803.4432373046875,796.996337890625
88,792.5640869140625,794.5787353515625,803.8461303710938,794.1758422851562
89,788.937744140625,792.967041015625,799.4139404296875,792.5640869140625
90,790.1465454101562,788.1318969726562,799.8168334960938,793.3699340820312
91,789.7435913085938,782.4908447265625,799.4139404296875,793.3699340820312
92,789.7435913085938,782.893798828125,790.1465454101562,788.1318969726562
93,783.2966918945312,783.2966918945312,785.7142944335938,778.4615478515625
94,778.8644409179688,786.5201416015625,789.3406372070312,781.6849975585938
95,782.4908447265625,790.1465454101562,788.5347900390625,787.7289428710938
96,783.6996459960938,790.952392578125,788.1318969726562,787.3259887695312
97,786.1171875,789.7435913085938,793.7728881835938,789.7435913085938
98,783.6996459960938,791.7582397460938,799.4139404296875,793.7728881835938
99,781.6849975585938,791.3552856445312,795.3846435546875,790.5494384765625
100,783.6996459960938,788.5347900390625,791.3552856445312,784.908447265625
101,783.2966918945312,788.937744140625,791.3552856445312,783.6996459960938
102,786.923095703125,787.3259887695312,790.1465454101562,787.7289428710938
103,786.923095703125,785.7142944335938,790.5494384765625,785.3113403320312
104,781.6849975585938,788.937744140625,792.1611938476562,776.4468994140625
105,785.3113403320312,786.5201416015625,790.5494384765625,780.879150390625
106,791.3552856445312,781.2820434570312,790.5494384765625,785.7142944335938
107,789.7435913085938,787.3259887695312,790.952392578125,783.2966918945312
108,792.967041015625,797.3992919921875,792.5640869140625,786.1171875
109,800.2197875976562,798.6080322265625,796.5933837890625,794.5787353515625
110,796.1904907226562,794.1758422851562,794.1758422851562,792.5640869140625
111,795.3846435546875,792.967041015625,791.3552856445312,793.7728881835938
112,801.4285888671875,793.3699340820312,792.967041015625,796.5933837890625
113,799.010986328125,792.967041015625,793.7728881835938,793.3699340820312
114,796.1904907226562,795.3846435546875,794.5787353515625,794.981689453125
115,798.2051391601562,799.8168334960938,796.996337890625,792.967041015625
116,801.025634765625,801.025634765625,794.5787353515625,796.5933837890625
117,803.040283203125,798.2051391601562,790.1465454101562,795.7875366210938
118,800.6226806640625,798.2051391601562,790.5494384765625,790.952392578125
119,793.7728881835938,797.8021850585938,789.3406372070312,786.5201416015625
120,790.952392578125,796.5933837890625,788.5347900390625,785.7142944335938
121,796.1904907226562,795.7875366210938,792.5640869140625,791.7582397460938
122,796.996337890625,798.6080322265625,792.5640869140625,793.7728881835938
123,796.996337890625,794.981689453125,789.7435913085938,791.7582397460938
124,791.7582397460938,794.1758422851562,788.937744140625,790.1465454101562
125,784.5054931640625,798.6080322265625,786.1171875,797.3992919921875
126,788.5347900390625,799.8168334960938,787.3259887695312,803.8461303710938
127,792.967041015625,796.1904907226562,789.7435913085938,805.054931640625
128,792.1611938476562,790.1465454101562,790.5494384765625,805.054931640625
129,790.5494384765625,796.5933837890625,789.7435913085938,803.040283203125
130,794.981689453125,798.6080322265625,791.7582397460938,800.6226806640625
131,797.8021850585938,792.967041015625,794.981689453125,795.3846435546875
132,798.2051391601562,794.1758422851562,791.7582397460938,798.6080322265625
133,796.1904907226562,797.8021850585938,793.3699340820312,796.5933837890625
134,790.5494384765625,799.010986328125,797.3992919921875,794.1758422851562
135,792.967041015625,802.6373901367188,800.2197875976562,797.3992919921875
136,800.2197875976562,800.6226806640625,801.025634765625,798.2051391601562
137,806.2637329101562,794.5787353515625,801.025634765625,811.098876953125
138,803.040283203125,798.2051391601562,800.6226806640625,808.6813354492188
139,794.981689453125,799.010986328125,798.6080322265625,792.967041015625
140,794.5787353515625,793.3699340820312,797.8021850585938,792.967041015625
141,796.5933837890625,793.3699340820312,794.5787353515625,794.1758422851562
142,795.7875366210938,796.5933837890625,795.3846435546875,788.1318969726562
143,796.5933837890625,796.996337890625,796.996337890625,788.937744140625
144,796.5933837890625,794.981689453125,799.010986328125,789.7435913085938
145,794.5787353515625,793.3699340820312,799.8168334960938,787.3259887695312
146,794.5787353515625,789.3406372070312,801.4285888671875,785.7142944335938
147,799.8168334960938,788.937744140625,802.6373901367188,784.5054931640625
148,797.8021850585938,790.952392578125,799.4139404296875,787.3259887695312
149,793.3699340820312,790.5494384765625,797.8021850585938,784.908447265625
150,794.1758422851562,790.5494384765625,802.2344360351562,784.1025390625
151,798.2051391601562,796.5933837890625,802.6373901367188,790.1465454101562
152,801.025634765625,799.010986328125,799.010986328125,797.8021850585938
153,801.025634765625,794.1758422851562,797.8021850585938,792.967041015625
154,797.8021850585938,792.967041015625,796.996337890625,787.7289428710938
155,794.1758422851562,789.7435913085938,796.996337890625,792.5640869140625
156,796.5933837890625,792.967041015625,799.010986328125,796.5933837890625
157,796.996337890625,796.996337890625,796.1904907226562,790.5494384765625
158,795.3846435546875,795.7875366210938,796.5933837890625,787.3259887695312
159,795.3846435546875,794.5787353515625,801.8314819335938,793.7728881835938
160,791.7582397460938,794.1758422851562,796.5933837890625,794.981689453125
161,796.996337890625,799.8168334960938,796.996337890625,792.967041015625
162,800.6226806640625,802.2344360351562,795.7875366210938,788.937744140625
163,797.3992919921875,795.7875366210938,792.5640869140625,790.1465454101562
164,795.7875366210938,792.967041015625,798.6080322265625,794.1758422851562
165,793.3699340820312,792.1611938476562,798.2051391601562,787.7289428710938
166,788.1318969726562,787.3259887695312,796.5933837890625,782.4908447265625
167,792.5640869140625,789.7435913085938,801.4285888671875,786.5201416015625
168,799.4139404296875,792.1611938476562,801.025634765625,785.7142944335938
169,796.1904907226562,792.5640869140625,799.8168334960938,784.5054931640625
170,793.3699340820312,792.1611938476562,801.4285888671875,789.3406372070312
171,794.5787353515625,787.3259887695312,802.2344360351562,789.7435913085938
172,798.2051391601562,794.5787353515625,800.2197875976562,785.7142944335938
173,803.8461303710938,803.8461303710938,799.4139404296875,789.7435913085938
174,805.4578857421875,799.8168334960938,794.981689453125,790.5494384765625
175,801.8314819335938,797.3992919921875,796.996337890625,785.7142944335938
176,795.7875366210938,793.7728881835938,798.6080322265625,781.2820434570312
177,799.4139404296875,788.937744140625,792.5640869140625,780.879150390625
178,806.6666870117188,794.5787353515625,793.3699340820312,788.5347900390625
179,801.8314819335938,793.7728881835938,799.010986328125,790.1465454101562
180,799.010986328125,784.908447265625,803.4432373046875,790.1465454101562
181,790.5494384765625,784.5054931640625,803.4432373046875,790.5494384765625
182,786.5201416015625,788.5347900390625,804.2490844726562,788.937744140625
183,792.967041015625,790.5494384765625,802.6373901367188,792.1611938476562
184,790.952392578125,789.3406372070312,802.2344360351562,792.967041015625
185,790.952392578125,785.7142944335938,800.2197875976562,790.952392578125
186,799.8168334960938,789.3406372070312,795.7875366210938,795.7875366210938
187,799.010986328125,795.3846435546875,795.3846435546875,796.1904907226562
188,786.923095703125,792.1611938476562,798.6080322265625,775.6410522460938
189,783.6996459960938,784.1025390625,797.8021850585938,772.4176025390625
190,784.908447265625,780.0732421875,797.8021850585938,780.4761962890625
191,781.2820434570312,781.6849975585938,797.3992919921875,776.4468994140625
192,777.6557006835938,785.3113403320312,789.7435913085938,770.4029541015625
193,776.8497924804688,788.937744140625,787.7289428710938,765.970703125
194,775.2380981445312,786.1171875,792.967041015625,771.6116943359375
195,771.2088012695312,787.3259887695312,792.5640869140625,774.4322509765625
196,773.6264038085938,785.3113403320312,789.7435913085938,773.2234497070312
197,784.1025390625,786.923095703125,792.5640869140625,777.2527465820312
198,790.952392578125,795.7875366210938,794.981689453125,786.923095703125
199,792.5640869140625,797.8021850585938,792.1611938476562,788.5347900390625
200,795.7875366210938,795.3846435546875,793.3699340820312,784.1025390625
201,790.1465454101562,791.7582397460938,790.5494384765625,781.2820434570312
202,789.7435913085938,789.7435913085938,792.1611938476562,782.087890625
203,790.1465454101562,788.5347900390625,796.5933837890625,787.7289428710938
204,788.937744140625,787.7289428710938,790.952392578125,787.7289428710938
205,794.981689453125,788.937744140625,791.3552856445312,790.952392578125
206,792.5640869140625,786.5201416015625,795.3846435546875,792.1611938476562
207,787.3259887695312,781.6849975585938,795.7875366210938,790.5494384765625
208,788.937744140625,787.3259887695312,799.010986328125,796.1904907226562
209,794.5787353515625,793.7728881835938,801.025634765625,798.2051391601562
210,794.5787353515625,792.967041015625,805.4578857421875,801.025634765625
211,791.3552856445312,795.3846435546875,803.040283203125,799.010986328125
212,794.1758422851562,792.5640869140625,800.2197875976562,797.8021850585938
213,794.5787353515625,790.1465454101562,796.996337890625,797.8021850585938
214,794.5787353515625,792.967041015625,796.996337890625,793.3699340820312
215,792.1611938476562,789.7435913085938,799.010986328125,789.3406372070312
216,789.3406372070312,788.1318969726562,799.010986328125,786.923095703125
217,790.952392578125,792.967041015625,800.6226806640625,789.7435913085938
218,794.5787353515625,795.3846435546875,800.2197875976562,794.981689453125
219,796.1904907226562,797.8021850585938,796.5933837890625,792.967041015625
220,790.5494384765625,797.3992919921875,795.3846435546875,790.952392578125
221,785.3113403320312,794.5787353515625,795.3846435546875,799.8168334960938
222,790.5494384765625,795.3846435546875,796.996337890625,804.2490844726562
223,798.6080322265625,799.010986328125,800.2197875976562,796.5933837890625
224,796.5933837890625,798.2051391601562,795.7875366210938,795.7875366210938
225,793.3699340820312,794.5787353515625,794.5787353515625,793.7728881835938
226,790.5494384765625,793.3699340820312,797.8021850585938,784.908447265625
227,790.1465454101562,794.5787353515625,794.1758422851562,780.4761962890625
228,788.5347900390625,791.3552856445312,792.1611938476562,785.7142944335938
229,787.3259887695312,790.5494384765625,792.967041015625,791.7582397460938
230,786.5201416015625,790.5494384765625,791.7582397460938,786.923095703125
231,782.087890625,792.1611938476562,791.7582397460938,784.1025390625
232,783.6996459960938,792.5640869140625,793.7728881835938,788.1318969726562
233,784.5054931640625,791.7582397460938,791.3552856445312,788.937744140625
234,785.7142944335938,792.5640869140625,793.7728881835938,790.5494384765625
235,784.908447265625,789.3406372070312,793.7728881835938,788.5347900390625
236,779.2673950195312,790.5494384765625,789.3406372070312,786.1171875
237,778.8644409179688,793.3699340820312,790.5494384765625,788.1318969726562
238,782.893798828125,791.7582397460938,791.3552856445312,786.1171875
239,790.5494384765625,791.3552856445312,791.7582397460938,790.5494384765625
240,796.5933837890625,791.3552856445312,794.5787353515625,792.967041015625
241,791.3552856445312,790.5494384765625,790.952392578125,784.908447265625
242,790.952392578125,789.7435913085938,784.5054931640625,782.4908447265625
243,792.967041015625,789.3406372070312,787.7289428710938,788.1318969726562
244,794.1758422851562,790.1465454101562,792.1611938476562,794.5787353515625
245,799.4139404296875,791.7582397460938,795.7875366210938,796.5933837890625
246,796.5933837890625,795.3846435546875,801.025634765625,795.7875366210938
247,790.1465454101562,792.5640869140625,796.996337890625,792.5640869140625
248,792.5640869140625,787.3259887695312,792.967041015625,798.2051391601562
249,794.981689453125,792.5640869140625,793.3699340820312,801.025634765625
250,790.1465454101562,789.7435913085938,793.3699340820312,786.923095703125
251,788.1318969726562,784.908447265625,791.7582397460938,780.4761962890625
252,788.5347900390625,787.3259887695312,786.5201416015625,776.0439453125
253,788.937744140625,787.7289428710938,786.5201416015625,778.4615478515625
254,788.5347900390625,790.952392578125,789.3406372070312,788.1318969726562
255,788.937744140625,791.7582397460938,791.3552856445312,791.7582397460938
256,787.3259887695312,792.967041015625,792.967041015625,794.5787353515625
257,786.5201416015625,798.2051391601562,795.3846435546875,788.1318969726562
258,786.5201416015625,794.1758422851562,792.967041015625,782.087890625
259,787.7289428710938,791.7582397460938,792.1611938476562,784.908447265625
260,789.7435913085938,796.1904907226562,793.7728881835938,785.7142944335938
261,786.5201416015625,790.952392578125,792.1611938476562,779.2673950195312
262,785.3113403320312,793.7728881835938,794.1758422851562,779.2673950195312
263,786.5201416015625,794.981689453125,792.5640869140625,782.893798828125
264,790.5494384765625,789.7435913085938,792.967041015625,786.923095703125
265,798.6080322265625,791.7582397460938,796.5933837890625,790.1465454101562
266,795.3846435546875,793.3699340820312,794.1758422851562,793.3699340820312
267,786.1171875,794.981689453125,793.3699340820312,790.1465454101562
268,783.2966918945312,790.952392578125,789.7435913085938,782.893798828125
269,783.2966918945312,788.5347900390625,792.967041015625,782.893798828125
270,785.7142944335938,794.981689453125,800.6226806640625,786.5201416015625
271,790.5494384765625,796.996337890625,799.4139404296875,791.3552856445312
272,783.2966918945312,793.3699340820312,798.2051391601562,789.3406372070312
273,779.6703491210938,788.1318969726562,796.996337890625,788.5347900390625
274,782.4908447265625,789.7435913085938,794.981689453125,788.937744140625
275,782.893798828125,790.952392578125,795.3846435546875,786.5201416015625
276,782.893798828125,792.1611938476562,796.996337890625,789.3406372070312
277,781.2820434570312,791.3552856445312,802.2344360351562,785.7142944335938
278,779.2673950195312,789.7435913085938,797.8021850585938,782.087890625
279,777.6557006835938,794.1758422851562,795.7875366210938,784.5054931640625
280,781.6849975585938,799.010986328125,801.8314819335938,790.1465454101562
281,780.879150390625,796.996337890625,797.8021850585938,790.1465454101562
282,778.8644409179688,793.3699340820312,799.010986328125,789.7435913085938
283,787.7289428710938,795.7875366210938,801.4285888671875,796.5933837890625
284,793.3699340820312,797.3992919921875,797.3992919921875,793.3699340820312
285,798.2051391601562,794.1758422851562,795.7875366210938,791.7582397460938
286,797.3992919921875,796.996337890625,793.7728881835938,791.3552856445312
287,790.1465454101562,794.5787353515625,792.967041015625,784.5054931640625
288,789.7435913085938,792.5640869140625,795.7875366210938,784.1025390625
289,793.3699340820312,792.5640869140625,797.8021850585938,788.937744140625
290,797.8021850585938,791.7582397460938,799.4139404296875,794.1758422851562
291,796.996337890625,794.5787353515625,798.6080322265625,796.996337890625
292,796.1904907226562,797.8021850585938,795.3846435546875,794.1758422851562
293,801.4285888671875,797.3992919921875,795.3846435546875,793.7728881835938
294,800.2197875976562,794.1758422851562,796.5933837890625,798.6080322265625
295,790.5494384765625,791.7582397460938,796.5933837890625,796.996337890625
296,792.967041015625,789.7435913085938,799.010986328125,796.5933837890625
297,794.5787353515625,793.3699340820312,799.4139404296875,803.4432373046875
298,786.5201416015625,795.7875366210938,796.5933837890625,799.4139404296875
299,782.893798828125,794.1758422851562,796.996337890625,794.1758422851562
300,789.7435913085938,796.5933837890625,796.5933837890625,791.3552856445312
301,789.3406372070312,797.3992919921875,794.1758422851562,781.6849975585938
302,783.2966918945312,794.1758422851562,794.981689453125,779.6703491210938
303,782.087890625,789.3406372070312,789.3406372070312,782.4908447265625
304,782.4908447265625,787.3259887695312,787.7289428710938,782.4908447265625
305,782.087890625,789.7435913085938,793.3699340820312,790.1465454101562
306,781.6849975585938,792.1611938476562,793.7728881835938,798.2051391601562
307,784.5054931640625,794.1758422851562,799.010986328125,792.967041015625
308,783.2966918945312,791.7582397460938,796.996337890625,786.5201416015625
309,782.4908447265625,792.5640869140625,796.5933837890625,790.952392578125
310,786.1171875,791.3552856445312,797.3992919921875,790.952392578125
311,792.967041015625,792.967041015625,794.1758422851562,793.7728881835938
312,794.5787353515625,791.7582397460938,793.7728881835938,796.5933837890625
313,794.981689453125,786.923095703125,794.5787353515625,789.7435913085938
314,796.996337890625,786.923095703125,798.6080322265625,788.1318969726562
315,800.2197875976562,781.2820434570312,797.3992919921875,793.3699340820312
316,803.8461303710938,784.5054931640625,794.5787353515625,799.4139404296875
317,794.5787353515625,785.3113403320312,792.5640869140625,799.4139404296875
318,792.1611938476562,784.1025390625,791.3552856445312,792.1611938476562
319,792.967041015625,785.3113403320312,796.1904907226562,787.3259887695312
320,786.5201416015625,785.7142944335938,800.2197875976562,790.952392578125
321,788.5347900390625,786.1171875,793.3699340820312,791.7582397460938
322,794.1758422851562,785.3113403320312,792.967041015625,790.952392578125
323,790.5494384765625,788.937744140625,794.1758422851562,787.7289428710938
324,786.923095703125,795.7875366210938,794.5787353515625,791.3552856445312
325,794.1758422851562,792.5640869140625,796.996337890625,801.4285888671875
326,803.040283203125,790.952392578125,793.7728881835938,803.4432373046875
327,803.4432373046875,790.5494384765625,790.952392578125,801.025634765625
328,803.4432373046875,786.923095703125,794.981689453125,803.8461303710938
329,800.6226806640625,787.3259887695312,796.1904907226562,803.8461303710938
330,799.4139404296875,793.7728881835938,790.1465454101562,793.3699340820312
331,808.2783813476562,796.996337890625,788.937744140625,793.7728881835938
332,804.6520385742188,794.5787353515625,790.1465454101562,797.3992919921875
333,797.3992919921875,793.7728881835938,790.5494384765625,799.010986328125
334,794.5787353515625,793.7728881835938,792.1611938476562,800.2197875976562
335,796.1904907226562,796.5933837890625,792.5640869140625,795.7875366210938
336,798.6080322265625,798.2051391601562,797.3992919921875,796.996337890625
337,800.6226806640625,798.6080322265625,802.2344360351562,802.2344360351562
338,799.4139404296875,800.2197875976562,801.4285888671875,803.8461303710938
339,795.7875366210938,797.3992919921875,801.4285888671875,800.2197875976562
340,793.3699340820312,789.7435913085938,800.6226806640625,799.8168334960938
341,790.952392578125,791.3552856445312,799.8168334960938,798.6080322265625
342,788.5347900390625,793.7728881835938,799.010986328125,790.1465454101562
343,786.923095703125,794.1758422851562,796.996337890625,786.923095703125
344,790.5494384765625,792.1611938476562,794.981689453125,786.1171875
345,791.7582397460938,793.3699340820312,797.8021850585938,786.923095703125
346,793.7728881835938,795.7875366210938,805.054931640625,793.3699340820312
347,792.967041015625,794.981689453125,805.4578857421875,795.3846435546875
348,789.3406372070312,796.1904907226562,804.2490844726562,795.3846435546875
349,790.5494384765625,792.967041015625,803.040283203125,794.5787353515625
350,790.1465454101562,790.1465454101562,800.2197875976562,794.1758422851562
351,792.967041015625,788.937744140625,800.6226806640625,796.5933837890625
352,795.7875366210938,796.1904907226562,801.8314819335938,797.3992919921875
353,795.3846435546875,802.2344360351562,803.4432373046875,792.1611938476562
354,793.7728881835938,794.981689453125,798.6080322265625,786.923095703125
355,796.1904907226562,791.3552856445312,801.4285888671875,797.8021850585938
356,800.6226806640625,789.3406372070312,803.8461303710938,801.8314819335938
357,798.6080322265625,785.7142944335938,796.5933837890625,790.5494384765625
358,797.3992919921875,790.1465454101562,795.7875366210938,792.1611938476562
359,800.6226806640625,788.5347900390625,798.2051391601562,792.5640869140625
360,802.2344360351562,790.5494384765625,793.3699340820312,788.1318969726562
361,798.6080322265625,793.7728881835938,793.7728881835938,787.7289428710938
362,792.1611938476562,794.1758422851562,795.3846435546875,787.3259887695312
363,790.952392578125,791.3552856445312,791.3552856445312,793.7728881835938
364,788.937744140625,788.5347900390625,794.5787353515625,794.5787353515625
365,785.3113403320312,793.3699340820312,798.6080322265625,788.937744140625
366,786.5201416015625,796.1904907226562,798.2051391601562,793.7728881835938
367,789.3406372070312,793.3699340820312,798.6080322265625,791.7582397460938
368,790.952392578125,789.3406372070312,796.5933837890625,784.5054931640625
369,793.3699340820312,791.7582397460938,794.1758422851562,788.937744140625
370,790.5494384765625,792.5640869140625,796.5933837890625,788.1318969726562
371,788.1318969726562,788.937744140625,798.2051391601562,785.3113403320312
372,792.1611938476562,794.981689453125,799.4139404296875,787.7289428710938
373,794.1758422851562,802.2344360351562,799.8168334960938,787.7289428710938
374,791.7582397460938,796.996337890625,791.7582397460938,784.1025390625
375,792.967041015625,793.3699340820312,788.1318969726562,782.893798828125
376,796.1904907226562,793.7728881835938,790.1465454101562,786.1171875
377,802.2344360351562,792.1611938476562,788.937744140625,787.7289428710938
378,807.4725341796875,793.3699340820312,792.5640869140625,793.7728881835938
379,804.6520385742188,790.5494384765625,796.5933837890625,794.981689453125
380,801.025634765625,791.3552856445312,794.981689453125,786.5201416015625
381,804.2490844726562,788.937744140625,790.5494384765625,787.7289428710938
382,805.054931640625,783.6996459960938,790.5494384765625,790.952392578125
383,792.1611938476562,788.1318969726562,794.1758422851562,783.6996459960938
384,780.0732421875,789.3406372070312,791.3552856445312,777.6557006835938
385,779.2673950195312,787.3259887695312,783.6996459960938,770.0
386,782.087890625,788.1318969726562,783.2966918945312,768.3883056640625
387,778.8644409179688,789.3406372070312,782.4908447265625,766.3735961914062
388,780.0732421875,790.5494384765625,784.1025390625,766.3735961914062
389,779.2673950195312,787.7289428710938,788.937744140625,768.7911987304688
390,777.2527465820312,786.923095703125,789.7435913085938,771.2088012695312
391,781.2820434570312,792.967041015625,791.7582397460938,774.029296875
392,781.6849975585938,797.3992919921875,794.981689453125,772.8204956054688
393,782.4908447265625,796.1904907226562,794.981689453125,775.2380981445312
394,784.1025390625,796.1904907226562,797.3992919921875,776.0439453125
395,783.2966918945312,794.981689453125,798.6080322265625,780.4761962890625
396,783.6996459960938,796.5933837890625,796.996337890625,782.893798828125
397,789.7435913085938,798.6080322265625,798.2051391601562,782.893798828125
398,795.3846435546875,797.8021850585938,796.5933837890625,789.3406372070312
399,796.996337890625,798.6080322265625,794.5787353515625,791.3552856445312
400,788.937744140625,793.7728881835938,790.952392578125,781.6849975585938
401,788.1318969726562,794.981689453125,788.5347900390625,784.1025390625
402,794.5787353515625,798.6080322265625,793.7728881835938,792.967041015625
403,801.025634765625,796.1904907226562,796.5933837890625,793.3699340820312
404,803.8461303710938,794.5787353515625,801.4285888671875,795.7875366210938
405,805.054931640625,796.1904907226562,802.6373901367188,803.8461303710938
406,802.6373901367188,794.5787353515625,800.2197875976562,807.4725341796875
407,798.6080322265625,795.3846435546875,800.6226806640625,798.2051391601562
408,801.4285888671875,801.025634765625,801.025634765625,799.010986328125
409,794.981689453125,806.2637329101562,801.025634765625,796.996337890625
410,786.923095703125,805.4578857421875,795.3846435546875,788.1318969726562
411,788.1318969726562,800.6226806640625,796.1904907226562,788.5347900390625
412,788.937744140625,799.4139404296875,799.4139404296875,792.5640869140625
413,787.7289428710938,798.6080322265625,796.996337890625,794.5787353515625
414,781.6849975585938,794.1758422851562,798.2051391601562,791.7582397460938
415,776.8497924804688,788.1318969726562,794.1758422851562,781.6849975585938
416,782.087890625,788.937744140625,789.3406372070312,784.908447265625
417,783.2966918945312,790.5494384765625,793.3699340820312,785.3113403320312
418,783.2966918945312,792.967041015625,795.3846435546875,780.4761962890625
419,787.7289428710938,797.3992919921875,793.7728881835938,778.8644409179688
420,787.3259887695312,793.3699340820312,793.3699340820312,781.2820434570312
421,786.5201416015625,797.8021850585938,791.7582397460938,788.1318969726562
422,798.2051391601562,807.87548828125,791.7582397460938,792.1611938476562
423,800.2197875976562,803.4432373046875,793.3699340820312,790.5494384765625
424,790.5494384765625,796.996337890625,792.5640869140625,786.923095703125
425,788.937744140625,798.2051391601562,795.7875366210938,790.1465454101562
426,786.923095703125,794.1758422851562,797.8021850585938,788.5347900390625
427,791.3552856445312,793.3699340820312,795.7875366210938,786.5201416015625
428,796.5933837890625,794.5787353515625,798.6080322265625,792.967041015625
429,792.1611938476562,791.3552856445312,802.2344360351562,795.7875366210938
430,792.967041015625,789.3406372070312,801.4285888671875,797.8021850585938
431,791.3552856445312,793.3699340820312,803.4432373046875,796.1904907226562
432,787.7289428710938,801.025634765625,804.6520385742188,792.5640869140625
433,790.952392578125,803.040283203125,805.4578857421875,792.5640869140625
434,792.967041015625,802.2344360351562,803.4432373046875,791.7582397460938
435,794.5787353515625,802.2344360351562,800.2197875976562,796.5933837890625
436,797.3992919921875,803.8461303710938,799.010986328125,804.6520385742188
437,794.5787353515625,801.8314819335938,801.025634765625,805.4578857421875
438,790.952392578125,798.2051391601562,798.6080322265625,796.1904907226562
439,795.7875366210938,798.6080322265625,794.981689453125,790.5494384765625
440,799.010986328125,797.3992919921875,794.1758422851562,788.5347900390625
441,796.996337890625,794.1758422851562,796.996337890625,788.1318969726562
442,790.952392578125,795.7875366210938,795.3846435546875,785.3113403320312
443,794.981689453125,799.010986328125,795.7875366210938,792.967041015625
444,802.2344360351562,795.7875366210938,800.6226806640625,792.967041015625
445,795.3846435546875,788.937744140625,800.6226806640625,788.1318969726562
446,788.1318969726562,787.3259887695312,795.3846435546875,788.5347900390625
447,790.952392578125,788.5347900390625,794.1758422851562,792.5640869140625
448,794.5787353515625,789.7435913085938,796.1904907226562,797.8021850585938
449,795.3846435546875,788.5347900390625,794.981689453125,796.1904907226562
450,797.3992919921875,787.3259887695312,797.3992919921875,796.1904907226562
451,797.3992919921875,789.3406372070312,800.6226806640625,800.2197875976562
452,794.981689453125,786.1171875,802.6373901367188,804.6520385742188
453,797.3992919921875,785.3113403320312,802.6373901367188,799.010986328125
454,800.6226806640625,787.3259887695312,803.4432373046875,799.8168334960938
455,799.010986328125,790.1465454101562,804.6520385742188,801.8314819335938
456,793.7728881835938,789.3406372070312,805.054931640625,794.981689453125
457,792.1611938476562,783.6996459960938,802.6373901367188,791.3552856445312
458,788.937744140625,786.1171875,796.996337890625,782.4908447265625
459,785.3113403320312,788.937744140625,792.5640869140625,780.4761962890625
460,787.3259887695312,786.1171875,792.1611938476562,781.6849975585938
461,788.1318969726562,786.923095703125,792.5640869140625,776.8497924804688
462,782.087890625,788.1318969726562,790.5494384765625,776.0439453125
463,782.4908447265625,785.7142944335938,787.3259887695312,788.937744140625
464,789.3406372070312,785.3113403320312,789.7435913085938,796.5933837890625
465,797.3992919921875,790.952392578125,796.1904907226562,790.952392578125
466,799.4139404296875,795.7875366210938,798.2051391601562,790.5494384765625
467,797.3992919921875,794.5787353515625,801.4285888671875,793.7728881835938
468,806.6666870117188,798.6080322265625,807.87548828125,799.8168334960938
469,809.084228515625,799.4139404296875,809.084228515625,801.4285888671875
470,808.2783813476562,801.025634765625,805.4578857421875,801.8314819335938
471,803.040283203125,803.8461303710938,805.054931640625,795.3846435546875
472,798.2051391601562,796.996337890625,798.6080322265625,789.3406372070312
473,799.4139404296875,796.996337890625,790.952392578125,788.937744140625
474,803.4432373046875,799.8168334960938,794.5787353515625,794.1758422851562
475,803.040283203125,799.8168334960938,798.6080322265625,797.8021850585938
476,802.6373901367188,799.8168334960938,798.6080322265625,796.996337890625
477,802.2344360351562,793.7728881835938,799.8168334960938,803.4432373046875
478,797.3992919921875,792.967041015625,797.3992919921875,804.6520385742188
479,800.2197875976562,798.2051391601562,792.1611938476562,801.8314819335938
480,803.040283203125,798.2051391601562,792.1611938476562,800.2197875976562
481,802.2344360351562,800.6226806640625,795.3846435546875,794.1758422851562
482,798.2051391601562,792.967041015625,799.4139404296875,794.1758422851562
483,787.7289428710938,790.1465454101562,798.2051391601562,792.5640869140625
484,782.4908447265625,796.1904907226562,794.981689453125,788.5347900390625
485,788.1318969726562,796.1904907226562,798.2051391601562,789.7435913085938
486,791.7582397460938,794.1758422851562,802.2344360351562,789.3406372070312
487,792.967041015625,794.1758422851562,803.040283203125,787.7289428710938
488,792.5640869140625,797.3992919921875,802.2344360351562,785.3113403320312
489,788.5347900390625,793.7728881835938,800.2197875976562,785.7142944335938
490,788.937744140625,787.3259887695312,796.1904907226562,788.1318969726562
491,790.1465454101562,788.5347900390625,792.967041015625,788.5347900390625
492,786.923095703125,793.7728881835938,795.3846435546875,781.6849975585938
493,784.1025390625,793.7728881835938,799.8168334960938,782.893798828125
494,789.7435913085938,793.7728881835938,801.4285888671875,788.5347900390625
495,791.3552856445312,793.3699340820312,802.2344360351562,786.5201416015625
496,788.5347900390625,786.923095703125,803.8461303710938,785.7142944335938
497,790.1465454101562,785.3113403320312,805.4578857421875,790.1465454101562
498,790.5494384765625,792.5640869140625,806.6666870117188,793.7728881835938
499,792.1611938476562,793.3699340820312,804.6520385742188,791.7582397460938
500,796.996337890625,792.5640869140625,800.2197875976562,795.3846435546875
501,792.967041015625,793.3699340820312,798.6080322265625,796.5933837890625
502,788.937744140625,789.3406372070312,798.6080322265625,790.952392578125
503,790.1465454101562,790.5494384765625,798.2051391601562,789.7435913085938
504,789.7435913085938,792.967041015625,796.1904907226562,788.1318969726562
505,792.1611938476562,792.5640869140625,796.996337890625,791.3552856445312
506,793.7728881835938,796.996337890625,796.1904907226562,790.1465454101562
507,792.967041015625,797.3992919921875,791.7582397460938,781.6849975585938
508,791.3552856445312,795.7875366210938,788.5347900390625,780.4761962890625
509,795.3846435546875,792.967041015625,788.937744140625,786.5201416015625
510,796.5933837890625,791.3552856445312,793.7728881835938,789.3406372070312
511,799.010986328125,793.3699340820312,797.3992919921875,785.3113403320312
512,797.3992919921875,795.3846435546875,795.7875366210938,784.1025390625
513,791.7582397460938,794.1758422851562,791.3552856445312,786.5201416015625
514,791.7582397460938,797.8021850585938,790.5494384765625,783.6996459960938
515,789.3406372070312,796.996337890625,791.7582397460938,776.8497924804688
516,790.5494384765625,792.5640869140625,790.5494384765625,779.6703491210938
517,786.1171875,796.1904907226562,787.7289428710938,775.6410522460938
518,785.7142944335938,794.5787353515625,783.6996459960938,769.5970458984375
519,788.5347900390625,792.5640869140625,786.1171875,775.6410522460938
520,788.1318969726562,793.3699340820312,788.937744140625,785.7142944335938
521,796.996337890625,791.3552856445312,793.7728881835938,796.1904907226562
522,792.967041015625,787.7289428710938,800.6226806640625,795.7875366210938
523,786.1171875,783.2966918945312,801.025634765625,792.1611938476562
524,792.967041015625,784.1025390625,800.2197875976562,799.4139404296875
525,790.952392578125,788.5347900390625,794.981689453125,800.2197875976562
526,788.1318969726562,790.1465454101562,794.5787353515625,794.1758422851562
527,786.5201416015625,788.937744140625,794.5787353515625,786.923095703125
528,779.6703491210938,784.5054931640625,795.3846435546875,782.087890625
529,776.4468994140625,784.5054931640625,794.5787353515625,782.893798828125
530,779.6703491210938,782.087890625,790.952392578125,784.908447265625
531,785.3113403320312,783.6996459960938,791.7582397460938,787.7289428710938
532,789.3406372070312,791.3552856445312,796.1904907226562,792.5640869140625
533,786.1171875,786.5201416015625,799.010986328125,790.952392578125
534,778.8644409179688,777.2527465820312,792.1611938476562,784.5054931640625
535,782.087890625,784.5054931640625,789.7435913085938,788.1318969726562
536,788.5347900390625,788.5347900390625,789.7435913085938,788.937744140625
537,787.7289428710938,782.4908447265625,784.1025390625,786.1171875
538,784.5054931640625,781.6849975585938,780.0732421875,782.893798828125
539,787.7289428710938,789.7435913085938,782.4908447265625,785.7142944335938
540,789.3406372070312,792.5640869140625,786.1171875,790.952392578125
541,790.1465454101562,788.1318969726562,787.3259887695312,787.7289428710938
542,793.7728881835938,786.923095703125,788.5347900390625,786.923095703125
543,792.1611938476562,788.5347900390625,790.5494384765625,795.3846435546875
544,790.5494384765625,787.7289428710938,788.937744140625,799.8168334960938
545,786.5201416015625,783.6996459960938,787.3259887695312,792.5640869140625
546,788.1318969726562,784.908447265625,788.1318969726562,790.1465454101562
547,792.967041015625,787.7289428710938,794.981689453125,798.6080322265625
548,792.967041015625,788.937744140625,799.4139404296875,806.6666870117188
549,792.5640869140625,789.3406372070312,794.981689453125,797.8021850585938
550,788.1318969726562,783.6996459960938,789.7435913085938,781.6849975585938
551,789.3406372070312,783.6996459960938,788.5347900390625,786.5201416015625
552,792.967041015625,789.7435913085938,790.1465454101562,793.7728881835938
553,795.7875366210938,788.1318969726562,791.7582397460938,792.5640869140625
554,788.1318969726562,784.1025390625,791.7582397460938,792.5640869140625
555,781.2820434570312,783.6996459960938,789.7435913085938,793.3699340820312
556,784.5054931640625,782.4908447265625,790.5494384765625,794.5787353515625
557,778.4615478515625,783.2966918945312,792.5640869140625,784.1025390625
558,772.4176025390625,780.879150390625,786.923095703125,778.8644409179688
559,779.6703491210938,779.2673950195312,789.3406372070312,789.7435913085938
560,786.5201416015625,777.6557006835938,792.5640869140625,791.7582397460938
561,786.923095703125,774.8351440429688,784.908447265625,788.937744140625
562,788.937744140625,775.6410522460938,785.7142944335938,789.7435913085938
563,794.5787353515625,780.4761962890625,786.923095703125,786.923095703125
564,794.5787353515625,784.5054931640625,786.5201416015625,786.923095703125
565,789.3406372070312,783.2966918945312,786.923095703125,789.7435913085938
566,794.981689453125,783.6996459960938,786.5201416015625,790.952392578125
567,801.4285888671875,784.1025390625,793.3699340820312,793.7728881835938
568,801.8314819335938,782.893798828125,794.5787353515625,796.5933837890625
569,797.3992919921875,784.1025390625,793.3699340820312,791.7582397460938
570,797.8021850585938,785.3113403320312,792.1611938476562,794.5787353515625
571,802.6373901367188,786.1171875,793.7728881835938,804.6520385742188
572,809.084228515625,792.967041015625,799.010986328125,805.8607788085938
573,806.2637329101562,796.996337890625,804.6520385742188,801.8314819335938
574,798.6080322265625,794.981689453125,809.4871826171875,799.8168334960938
575,796.996337890625,797.8021850585938,811.098876953125,802.2344360351562
576,795.3846435546875,794.981689453125,808.6813354492188,800.2197875976562
577,793.3699340820312,792.1611938476562,803.4432373046875,801.025634765625
578,797.8021850585938,800.2197875976562,803.040283203125,804.2490844726562
579,801.025634765625,804.2490844726562,804.2490844726562,800.6226806640625
580,801.025634765625,801.8314819335938,807.4725341796875,794.981689453125
581,801.8314819335938,801.8314819335938,807.069580078125,794.1758422851562
582,801.025634765625,797.8021850585938,803.040283203125,796.5933837890625
583,798.6080322265625,792.967041015625,799.8168334960938,795.3846435546875
584,787.3259887695312,789.7435913085938,799.4139404296875,790.1465454101562
585,785.7142944335938,790.5494384765625,799.4139404296875,788.1318969726562
586,786.5201416015625,789.3406372070312,796.1904907226562,786.1171875
587,783.2966918945312,788.937744140625,794.5787353515625,783.6996459960938
588,790.952392578125,787.3259887695312,797.3992919921875,787.3259887695312
589,789.3406372070312,783.6996459960938,798.6080322265625,788.937744140625
590,786.5201416015625,787.3259887695312,795.7875366210938,784.908447265625
591,785.7142944335938,788.5347900390625,795.3846435546875,780.0732421875
592,784.1025390625,787.7289428710938,794.981689453125,780.879150390625
593,783.6996459960938,786.5201416015625,794.1758422851562,784.908447265625
594,782.893798828125,792.1611938476562,795.7875366210938,788.5347900390625
595,778.8644409179688,801.8314819335938,794.981689453125,786.1171875
596,776.0439453125,801.025634765625,796.996337890625,780.0732421875
597,774.029296875,797.8021850585938,798.6080322265625,776.0439453125
598,769.5970458984375,791.3552856445312,799.010986328125,771.2088012695312
599,773.2234497070312,789.3406372070312,805.4578857421875,770.8058471679688
600,763.1502075195312,791.7582397460938,794.5787353515625,761.1355590820312
601,755.091552734375,800.2197875976562,792.5640869140625,751.4652099609375
602,753.4798583984375,804.6520385742188,804.6520385742188,744.6153564453125
603,737.3626098632812,792.1611938476562,798.2051391601562,726.886474609375
604,724.4688720703125,792.967041015625,804.6520385742188,713.1868286132812
605,713.1868286132812,807.87548828125,811.098876953125,707.1428833007812
606,701.098876953125,809.4871826171875,813.5164794921875,699.084228515625
607,685.7875366210938,805.054931640625,820.7692260742188,682.5640869140625
608,676.923095703125,798.2051391601562,822.3809814453125,674.1025390625
609,670.4761962890625,799.8168334960938,829.6337280273438,665.6410522460938
610,653.5531005859375,805.4578857421875,836.4835205078125,651.94140625
611,648.3150024414062,802.6373901367188,839.3040161132812,648.7179565429688
612,652.7472534179688,798.2051391601562,842.930419921875,651.5384521484375
613,645.8974609375,796.1904907226562,848.5714111328125,649.9267578125
614,646.3003540039062,791.7582397460938,850.5860595703125,662.0146484375
615,645.8974609375,790.5494384765625,853.4066162109375,668.4615478515625
616,641.062255859375,793.3699340820312,847.3626098632812,663.2234497070312
617,651.94140625,786.5201416015625,839.7069702148438,676.5201416015625
618,662.0146484375,786.1171875,845.7509155273438,685.3846435546875
619,670.0732421875,789.3406372070312,848.5714111328125,687.3992919921875
620,686.5933837890625,785.7142944335938,847.3626098632812,703.113525390625
621,698.6813354492188,783.2966918945312,845.3479614257812,716.00732421875
622,704.7252807617188,787.3259887695312,841.7216186523438,716.8131713867188
623,723.2600708007812,789.7435913085938,836.886474609375,732.12451171875
624,739.7802124023438,790.5494384765625,832.05126953125,748.2417602539062
625,749.8534545898438,792.5640869140625,831.6483764648438,753.4798583984375
626,749.8534545898438,796.1904907226562,825.2014770507812,752.2710571289062
627,751.8681030273438,799.4139404296875,819.5604248046875,756.7033081054688
628,776.8497924804688,799.010986328125,822.7838745117188,782.4908447265625
629,782.4908447265625,796.5933837890625,815.1282348632812,789.3406372070312
630,788.937744140625,795.3846435546875,809.4871826171875,787.3259887695312
631,800.2197875976562,796.5933837890625,802.6373901367188,792.967041015625
632,796.996337890625,799.8168334960938,791.3552856445312,791.3552856445312
633,803.040283203125,799.8168334960938,790.5494384765625,794.981689453125
634,813.5164794921875,800.2197875976562,790.952392578125,801.4285888671875
635,813.5164794921875,797.8021850585938,794.5787353515625,813.113525390625
636,808.6813354492188,794.5787353515625,790.5494384765625,815.1282348632812
637,815.93408203125,793.7728881835938,789.3406372070312,816.7399291992188
638,820.7692260742188,794.5787353515625,790.5494384765625,817.94873046875
639,818.3516235351562,789.7435913085938,787.7289428710938,818.3516235351562
640,812.3076782226562,780.879150390625,786.5201416015625,818.3516235351562
641,816.7399291992188,786.5201416015625,780.0732421875,820.3662719726562
642,820.7692260742188,788.937744140625,775.2380981445312,826.4102783203125
643,824.7985229492188,784.1025390625,772.0146484375,835.2747192382812
644,826.4102783203125,784.908447265625,770.0,835.6776733398438
645,826.4102783203125,784.1025390625,773.6264038085938,830.03662109375
646,837.2893676757812,784.908447265625,773.2234497070312,835.6776733398438
647,841.7216186523438,787.7289428710938,772.8204956054688,840.10986328125
648,849.3773193359375,789.3406372070312,772.4176025390625,841.3186645507812
649,855.018310546875,790.952392578125,773.2234497070312,836.4835205078125
650,853.8095092773438,793.3699340820312,772.0146484375,833.2600708007812
651,856.6300659179688,794.1758422851562,769.5970458984375,834.4688720703125
652,855.8241577148438,794.1758422851562,768.7911987304688,830.8424682617188
653,855.8241577148438,796.1904907226562,767.5823974609375,828.8278198242188
654,856.6300659179688,792.967041015625,765.970703125,832.8571166992188
655,859.047607421875,794.981689453125,765.5677490234375,840.10986328125
656,849.7802124023438,794.981689453125,762.3442993164062,830.4395751953125
657,843.7362670898438,788.5347900390625,758.7179565429688,825.6043701171875
658,849.3773193359375,791.3552856445312,761.94140625,837.2893676757812
659,848.5714111328125,795.3846435546875,762.3442993164062,836.08056640625
660,842.5274658203125,792.967041015625,765.1648559570312,830.03662109375
661,838.901123046875,794.1758422851562,765.970703125,831.6483764648438
662,830.8424682617188,792.1611938476562,765.1648559570312,830.4395751953125
663,829.2307739257812,792.5640869140625,768.7911987304688,828.8278198242188
664,829.2307739257812,790.5494384765625,770.4029541015625,826.4102783203125
665,827.2161254882812,790.1465454101562,769.1941528320312,826.8131713867188
666,827.6190185546875,794.1758422851562,768.7911987304688,830.8424682617188
667,827.6190185546875,790.952392578125,771.2088012695312,832.8571166992188
668,831.6483764648438,789.7435913085938,769.1941528320312,826.00732421875
669,833.2600708007812,786.923095703125,767.1795043945312,821.5750732421875
670,828.02197265625,784.5054931640625,766.7765502929688,820.3662719726562
671,828.4249267578125,788.937744140625,768.7911987304688,822.7838745117188
672,825.6043701171875,790.1465454101562,772.4176025390625,817.5457763671875
673,817.5457763671875,788.5347900390625,771.2088012695312,815.1282348632812
674,821.97802734375,790.5494384765625,770.0,819.1575317382812
675,826.8131713867188,792.1611938476562,771.6116943359375,813.91943359375
676,822.7838745117188,791.7582397460938,770.8058471679688,804.6520385742188
677,820.3662719726562,796.1904907226562,772.4176025390625,810.2930297851562
678,817.5457763671875,792.5640869140625,774.8351440429688,818.7545776367188
679,817.94873046875,787.3259887695312,777.6557006835938,817.1428833007812
680,821.1721801757812,787.7289428710938,779.2673950195312,819.96337890625
681,823.99267578125,792.1611938476562,779.6703491210938,816.7399291992188
682,821.5750732421875,794.981689453125,782.087890625,807.87548828125
683,815.5311279296875,793.3699340820312,781.6849975585938,806.2637329101562
684,813.5164794921875,792.967041015625,778.8644409179688,803.4432373046875
685,811.90478515625,792.1611938476562,779.2673950195312,801.4285888671875
686,807.4725341796875,791.3552856445312,778.8644409179688,799.010986328125
687,804.2490844726562,792.967041015625,778.8644409179688,797.8021850585938
688,805.4578857421875,792.1611938476562,784.1025390625,796.1904907226562
689,811.098876953125,790.952392578125,783.2966918945312,799.010986328125
690,812.7106323242188,790.952392578125,786.923095703125,803.4432373046875
691,813.113525390625,792.967041015625,792.967041015625,806.6666870117188
692,811.5018310546875,794.1758422851562,792.967041015625,808.6813354492188
693,815.1282348632812,796.5933837890625,791.3552856445312,814.7252807617188
694,816.3369750976562,794.1758422851562,794.981689453125,824.7985229492188
695,813.113525390625,791.3552856445312,797.8021850585938,823.99267578125
696,813.5164794921875,793.7728881835938,796.1904907226562,817.1428833007812
697,806.6666870117188,789.3406372070312,795.7875366210938,806.6666870117188
698,810.2930297851562,784.5054931640625,794.1758422851562,807.4725341796875
699,814.3223266601562,789.7435913085938,792.5640869140625,812.3076782226562
700,810.2930297851562,791.3552856445312,790.5494384765625,809.4871826171875
701,803.4432373046875,787.7289428710938,790.5494384765625,805.8607788085938
702,796.1904907226562,785.7142944335938,792.5640869140625,803.8461303710938
703,798.6080322265625,787.3259887695312,793.3699340820312,802.2344360351562
704,798.2051391601562,788.5347900390625,790.1465454101562,802.6373901367188
705,797.3992919921875,789.7435913085938,791.7582397460938,796.5933837890625
706,795.7875366210938,789.3406372070312,797.3992919921875,786.5201416015625
707,794.5787353515625,787.7289428710938,796.5933837890625,786.5201416015625
708,792.5640869140625,789.7435913085938,796.996337890625,792.5640869140625
709,792.967041015625,788.1318969726562,798.6080322265625,792.967041015625
710,796.1904907226562,784.1025390625,796.1904907226562,791.7582397460938
711,790.1465454101562,782.893798828125,792.967041015625,790.952392578125
712,788.1318969726562,784.908447265625,789.7435913085938,790.952392578125
713,784.908447265625,784.1025390625,786.1171875,792.1611938476562
714,784.908447265625,784.908447265625,784.908447265625,789.7435913085938
715,790.5494384765625,780.4761962890625,782.893798828125,784.908447265625
716,786.1171875,772.4176025390625,780.879150390625,781.2820434570312
717,785.7142944335938,775.6410522460938,780.0732421875,782.4908447265625
718,792.967041015625,778.4615478515625,782.087890625,782.087890625
719,796.1904907226562,782.4908447265625,784.5054931640625,784.5054931640625
720,802.6373901367188,790.5494384765625,783.6996459960938,794.1758422851562
721,804.6520385742188,788.5347900390625,780.879150390625,790.952392578125
722,802.2344360351562,789.3406372070312,784.1025390625,788.937744140625
723,800.6226806640625,789.3406372070312,790.1465454101562,790.5494384765625
724,801.025634765625,790.1465454101562,793.7728881835938,797.3992919921875
725,803.040283203125,792.967041015625,792.967041015625,802.6373901367188
726,807.069580078125,791.7582397460938,787.7289428710938,796.1904907226562
727,811.098876953125,789.7435913085938,791.7582397460938,793.7728881835938
728,809.084228515625,794.981689453125,796.5933837890625,792.967041015625
729,812.7106323242188,798.6080322265625,796.5933837890625,798.6080322265625
730,811.5018310546875,788.937744140625,799.010986328125,796.5933837890625
731,806.6666870117188,782.893798828125,798.6080322265625,799.4139404296875
732,801.8314819335938,784.1025390625,799.010986328125,807.87548828125
733,795.7875366210938,785.3113403320312,799.010986328125,795.3846435546875
734,797.8021850585938,786.923095703125,802.6373901367188,787.7289428710938
735,801.025634765625,790.952392578125,804.2490844726562,796.5933837890625
736,802.2344360351562,790.1465454101562,796.5933837890625,796.1904907226562
737,801.4285888671875,788.937744140625,799.8168334960938,790.1465454101562
738,797.8021850585938,792.967041015625,805.054931640625,792.1611938476562
739,792.5640869140625,792.1611938476562,800.2197875976562,794.981689453125
740,791.7582397460938,790.5494384765625,799.8168334960938,797.3992919921875
741,795.7875366210938,785.3113403320312,798.6080322265625,801.8314819335938
742,794.5787353515625,784.5054931640625,797.3992919921875,796.5933837890625
743,788.5347900390625,787.3259887695312,799.4139404296875,792.967041015625
744,789.7435913085938,788.937744140625,799.4139404296875,796.5933837890625
745,790.5494384765625,789.3406372070312,799.010986328125,794.5787353515625
746,790.5494384765625,784.5054931640625,796.996337890625,796.996337890625
747,788.937744140625,781.6849975585938,793.7728881835938,801.4285888671875
748,780.4761962890625,778.4615478515625,792.1611938476562,794.5787353515625
749,782.087890625,773.6264038085938,796.1904907226562,790.5494384765625
750,786.5201416015625,772.0146484375,792.967041015625,792.967041015625
751,789.7435913085938,777.2527465820312,792.1611938476562,796.1904907226562
752,793.3699340820312,783.2966918945312,792.1611938476562,800.2197875976562
753,790.5494384765625,785.7142944335938,786.1171875,797.3992919921875
754,785.3113403320312,782.4908447265625,786.1171875,792.1611938476562
755,788.5347900390625,778.05859375,790.5494384765625,794.5787353515625
756,794.981689453125,782.4908447265625,794.981689453125,796.996337890625
757,794.1758422851562,782.087890625,792.5640869140625,792.1611938476562
758,795.3846435546875,784.1025390625,792.967041015625,795.3846435546875
759,796.5933837890625,791.7582397460938,797.3992919921875,803.040283203125
760,794.1758422851562,792.5640869140625,799.010986328125,804.6520385742188
761,796.996337890625,789.3406372070312,799.8168334960938,799.8168334960938
762,801.4285888671875,787.7289428710938,801.025634765625,803.040283203125
763,791.7582397460938,788.937744140625,796.5933837890625,799.8168334960938
764,783.2966918945312,792.5640869140625,796.996337890625,786.1171875
765,786.1171875,794.1758422851562,794.5787353515625,781.2820434570312
766,789.7435913085938,791.7582397460938,791.3552856445312,782.087890625
767,789.7435913085938,790.952392578125,794.1758422851562,784.1025390625
768,780.4761962890625,789.7435913085938,791.3552856445312,782.087890625
769,781.2820434570312,791.3552856445312,788.1318969726562,775.6410522460938
770,787.7289428710938,792.1611938476562,792.1611938476562,776.4468994140625
771,785.7142944335938,792.1611938476562,791.3552856445312,779.2673950195312
772,789.3406372070312,793.7728881835938,788.937744140625,782.4908447265625
773,790.952392578125,793.7728881835938,794.981689453125,784.1025390625
774,787.7289428710938,794.5787353515625,794.1758422851562,787.3259887695312
775,782.893798828125,789.7435913085938,787.3259887695312,783.6996459960938
776,782.4908447265625,786.923095703125,788.937744140625,772.8204956054688
777,788.1318969726562,785.3113403320312,792.1611938476562,776.8497924804688
778,790.952392578125,789.3406372070312,793.3699340820312,784.5054931640625
779,786.5201416015625,791.7582397460938,792.5640869140625,784.1025390625
780,782.4908447265625,783.2966918945312,793.7728881835938,786.5201416015625
781,786.1171875,784.5054931640625,792.5640869140625,791.7582397460938
782,786.923095703125,787.3259887695312,790.952392578125,792.967041015625
783,786.1171875,780.879150390625,794.981689453125,793.3699340820312
784,786.5201416015625,782.087890625,796.5933837890625,791.7582397460938
785,784.908447265625,787.7289428710938,797.3992919921875,795.3846435546875
786,784.1025390625,785.7142944335938,797.3992919921875,801.8314819335938
787,788.937744140625,783.6996459960938,796.5933837890625,801.025634765625
788,792.5640869140625,787.7289428710938,796.1904907226562,796.5933837890625
789,788.1318969726562,788.937744140625,794.1758422851562,788.937744140625
790,787.3259887695312,796.996337890625,790.952392578125,786.1171875
791,794.981689453125,799.010986328125,792.5640869140625,791.7582397460938
792,803.040283203125,796.1904907226562,793.3699340820312,795.7875366210938
793,802.6373901367188,797.3992919921875,792.5640869140625,792.5640869140625
794,803.4432373046875,801.025634765625,794.5787353515625,792.1611938476562
795,802.2344360351562,802.6373901367188,796.1904907226562,795.7875366210938
796,800.6226806640625,797.8021850585938,798.2051391601562,797.8021850585938
797,804.2490844726562,789.7435913085938,795.7875366210938,799.4139404296875
798,802.6373901367188,790.1465454101562,794.1758422851562,799.4139404296875
799,800.2197875976562,792.5640869140625,795.7875366210938,794.981689453125
800,802.2344360351562,791.3552856445312,798.6080322265625,796.1904907226562
801,803.8461303710938,794.1758422851562,797.8021850585938,798.2051391601562
802,803.8461303710938,796.5933837890625,796.996337890625,795.7875366210938
803,799.4139404296875,793.7728881835938,798.6080322265625,794.981689453125
804,792.5640869140625,792.5640869140625,796.5933837890625,789.7435913085938
805,791.3552856445312,796.996337890625,797.3992919921875,788.5347900390625
806,790.952392578125,794.981689453125,796.1904907226562,792.5640869140625
807,792.5640869140625,794.1758422851562,797.3992919921875,791.3552856445312
808,790.1465454101562,786.1171875,798.2051391601562,790.1465454101562
809,790.1465454101562,789.3406372070312,797.8021850585938,796.1904907226562
810,789.7435913085938,799.010986328125,796.5933837890625,796.996337890625
811,784.908447265625,792.967041015625,792.1611938476562,789.7435913085938
812,786.5201416015625,794.5787353515625,788.937744140625,788.937744140625
813,788.937744140625,796.996337890625,789.7435913085938,792.1611938476562
814,790.952392578125,794.1758422851562,790.952392578125,786.923095703125
815,796.996337890625,792.967041015625,794.1758422851562,790.5494384765625
816,797.8021850585938,796.5933837890625,798.6080322265625,797.3992919921875
817,804.6520385742188,795.3846435546875,803.040283203125,797.8021850585938
818,807.87548828125,791.3552856445312,803.4432373046875,791.3552856445312
819,803.4432373046875,795.3846435546875,801.8314819335938,792.967041015625
820,803.4432373046875,799.010986328125,797.8021850585938,802.2344360351562
821,807.069580078125,802.6373901367188,794.981689453125,804.6520385742188
822,811.098876953125,803.040283203125,796.5933837890625,801.8314819335938
823,808.6813354492188,802.2344360351562,795.3846435546875,795.3846435546875
824,806.2637329101562,804.2490844726562,796.1904907226562,790.1465454101562
825,801.4285888671875,802.2344360351562,797.3992919921875,790.952392578125
826,797.3992919921875,799.010986328125,793.3699340820312,791.3552856445312
827,801.8314819335938,798.6080322265625,788.1318969726562,790.5494384765625
828,803.040283203125,795.3846435546875,789.3406372070312,789.7435913085938
829,800.6226806640625,800.6226806640625,790.5494384765625,793.3699340820312
830,797.3992919921875,804.2490844726562,791.7582397460938,794.5787353515625
831,794.5787353515625,798.2051391601562,793.3699340820312,789.7435913085938
832,790.952392578125,792.1611938476562,794.1758422851562,788.5347900390625
833,790.1465454101562,792.967041015625,796.5933837890625,790.5494384765625
834,789.7435913085938,793.3699340820312,799.8168334960938,794.981689453125
835,782.893798828125,789.7435913085938,798.6080322265625,796.996337890625
836,782.893798828125,789.7435913085938,796.996337890625,797.3992919921875
837,787.3259887695312,789.7435913085938,801.025634765625,802.6373901367188
838,789.7435913085938,791.7582397460938,796.996337890625,804.2490844726562
839,794.981689453125,792.967041015625,794.1758422851562,811.90478515625
840,798.6080322265625,793.3699340820312,798.6080322265625,819.96337890625
841,794.981689453125,797.8021850585938,800.6226806640625,805.8607788085938
842,792.1611938476562,796.5933837890625,799.8168334960938,793.7728881835938
843,795.3846435546875,792.1611938476562,798.2051391601562,796.996337890625
844,794.5787353515625,790.5494384765625,794.5787353515625,799.4139404296875
845,787.3259887695312,789.3406372070312,794.981689453125,801.8314819335938
846,783.6996459960938,789.3406372070312,794.1758422851562,796.5933837890625
847,788.1318969726562,784.908447265625,792.967041015625,795.7875366210938
848,792.1611938476562,782.087890625,792.5640869140625,796.1904907226562
849,794.5787353515625,787.3259887695312,792.5640869140625,788.937744140625
850,790.952392578125,787.7289428710938,794.981689453125,787.7289428710938
851,791.7582397460938,787.7289428710938,797.3992919921875,786.1171875
852,796.1904907226562,788.1318969726562,796.5933837890625,782.893798828125
853,799.4139404296875,792.967041015625,793.7728881835938,787.3259887695312
854,797.8021850585938,795.7875366210938,794.981689453125,790.952392578125
855,792.1611938476562,790.5494384765625,794.981689453125,787.3259887695312
856,790.952392578125,792.1611938476562,795.7875366210938,788.1318969726562
857,788.5347900390625,790.5494384765625,791.7582397460938,793.3699340820312
858,796.5933837890625,784.1025390625,789.3406372070312,792.5640869140625
859,805.054931640625,784.908447265625,796.1904907226562,790.5494384765625
860,797.8021850585938,783.2966918945312,796.1904907226562,791.3552856445312
861,792.5640869140625,784.1025390625,795.3846435546875,789.7435913085938
862,796.996337890625,787.7289428710938,794.5787353515625,797.3992919921875
863,796.996337890625,787.7289428710938,796.5933837890625,800.2197875976562
864,791.3552856445312,789.3406372070312,796.5933837890625,787.3259887695312
865,786.5201416015625,786.923095703125,793.7728881835938,786.1171875
866,781.6849975585938,783.6996459960938,795.3846435546875,787.7289428710938
867,788.5347900390625,788.937744140625,793.3699340820312,786.923095703125
868,792.967041015625,787.3259887695312,789.7435913085938,785.3113403320312
869,792.1611938476562,785.3113403320312,789.7435913085938,785.3113403320312
870,798.6080322265625,789.3406372070312,791.7582397460938,792.967041015625
871,796.1904907226562,792.5640869140625,790.5494384765625,790.952392578125
872,795.3846435546875,794.5787353515625,790.952392578125,779.6703491210938
873,799.010986328125,793.7728881835938,788.1318969726562,781.2820434570312
874,802.6373901367188,790.5494384765625,791.7582397460938,797.3992919921875
875,811.098876953125,789.7435913085938,796.5933837890625,802.6373901367188
876,809.89013671875,795.3846435546875,784.5054931640625,793.7728881835938
877,795.7875366210938,797.3992919921875,781.2820434570312,788.1318969726562
878,788.937744140625,793.3699340820312,787.7289428710938,780.879150390625
879,789.7435913085938,794.5787353515625,785.3113403320312,768.7911987304688
880,785.7142944335938,792.1611938476562,778.8644409179688,762.7472534179688
881,782.893798828125,784.5054931640625,781.2820434570312,767.5823974609375
882,785.7142944335938,786.5201416015625,784.1025390625,776.4468994140625
883,789.7435913085938,789.7435913085938,784.5054931640625,784.1025390625
884,790.1465454101562,786.1171875,787.7289428710938,790.5494384765625
885,792.1611938476562,786.1171875,789.7435913085938,785.7142944335938
886,788.937744140625,789.7435913085938,792.1611938476562,784.5054931640625
887,785.3113403320312,790.5494384765625,792.1611938476562,789.7435913085938
888,785.7142944335938,790.5494384765625,789.7435913085938,786.5201416015625
889,791.3552856445312,790.952392578125,791.3552856445312,785.3113403320312
890,791.7582397460938,789.7435913085938,790.952392578125,787.3259887695312
891,787.7289428710938,790.1465454101562,785.3113403320312,782.087890625
892,788.1318969726562,791.3552856445312,782.087890625,778.4615478515625
893,786.1171875,788.5347900390625,784.908447265625,785.7142944335938
894,784.1025390625,783.6996459960938,788.1318969726562,787.3259887695312
895,780.0732421875,781.6849975585938,791.7582397460938,784.5054931640625
896,776.0439453125,787.7289428710938,790.1465454101562,793.7728881835938
897,778.4615478515625,786.5201416015625,788.937744140625,786.5201416015625
898,782.087890625,784.908447265625,788.937744140625,774.029296875
899,786.5201416015625,786.923095703125,789.7435913085938,778.05859375
900,788.937744140625,787.3259887695312,792.967041015625,788.1318969726562
901,784.1025390625,789.7435913085938,793.7728881835938,788.1318969726562
902,782.087890625,796.1904907226562,793.7728881835938,783.6996459960938
903,784.908447265625,800.2197875976562,794.1758422851562,784.1025390625
904,784.1025390625,798.6080322265625,792.967041015625,788.1318969726562
905,782.4908447265625,794.1758422851562,793.7728881835938,793.3699340820312
906,782.087890625,794.1758422851562,797.8021850585938,794.981689453125
907,782.893798828125,793.7728881835938,801.4285888671875,795.7875366210938
908,783.6996459960938,795.3846435546875,802.6373901367188,794.981689453125
909,787.3259887695312,798.6080322265625,798.2051391601562,798.2051391601562
910,787.7289428710938,795.3846435546875,795.7875366210938,796.996337890625
911,790.1465454101562,796.5933837890625,798.2051391601562,801.8314819335938
912,790.1465454101562,789.7435913085938,799.010986328125,806.6666870117188
913,790.952392578125,782.087890625,796.1904907226562,803.040283203125
914,793.3699340820312,785.3113403320312,793.3699340820312,799.8168334960938
915,792.967041015625,786.5201416015625,792.1611938476562,796.1904907226562
916,798.2051391601562,782.893798828125,788.937744140625,794.5787353515625
917,800.2197875976562,792.5640869140625,786.923095703125,790.952392578125
918,796.5933837890625,799.4139404296875,787.3259887695312,786.1171875
919,802.6373901367188,796.1904907226562,787.3259887695312,788.5347900390625
920,809.084228515625,798.2051391601562,789.3406372070312,786.5201416015625
921,810.2930297851562,794.981689453125,791.7582397460938,780.0732421875
922,811.098876953125,790.952392578125,790.1465454101562,783.2966918945312
923,803.040283203125,791.7582397460938,788.1318969726562,781.2820434570312
924,793.7728881835938,794.1758422851562,789.7435913085938,778.05859375
925,790.5494384765625,792.1611938476562,789.7435913085938,786.923095703125
926,786.923095703125,789.3406372070312,789.3406372070312,784.908447265625
927,784.5054931640625,789.7435913085938,790.952392578125,782.893798828125
928,787.3259887695312,792.967041015625,795.7875366210938,794.1758422851562
929,790.5494384765625,796.5933837890625,796.5933837890625,788.937744140625
930,792.1611938476562,796.5933837890625,794.5787353515625,783.2966918945312
931,789.7435913085938,796.5933837890625,794.981689453125,791.3552856445312
932,783.2966918945312,792.5640869140625,792.1611938476562,789.7435913085938
933,773.2234497070312,784.1025390625,790.952392578125,776.8497924804688
934,772.4176025390625,782.087890625,791.3552856445312,776.4468994140625
935,785.7142944335938,780.879150390625,794.1758422851562,784.1025390625
936,791.3552856445312,782.4908447265625,794.981689453125,790.1465454101562
937,786.5201416015625,783.6996459960938,790.952392578125,790.952392578125
938,785.7142944335938,781.2820434570312,791.7582397460938,793.7728881835938
939,787.3259887695312,786.923095703125,790.952392578125,794.981689453125
940,788.5347900390625,787.7289428710938,782.893798828125,791.3552856445312
941,787.7289428710938,785.7142944335938,784.908447265625,792.1611938476562
942,790.1465454101562,789.3406372070312,788.1318969726562,789.3406372070312
943,792.967041015625,790.1465454101562,783.6996459960938,792.1611938476562
944,793.3699340820312,792.1611938476562,787.7289428710938,793.7728881835938
945,799.4139404296875,794.981689453125,787.7289428710938,794.981689453125
946,796.5933837890625,787.7289428710938,784.5054931640625,792.967041015625
947,794.981689453125,784.908447265625,784.908447265625,785.7142944335938
948,796.1904907226562,790.952392578125,786.923095703125,783.2966918945312
949,793.3699340820312,792.1611938476562,787.3259887695312,783.6996459960938
950,789.3406372070312,786.923095703125,784.5054931640625,783.6996459960938
951,787.7289428710938,784.5054931640625,778.8644409179688,779.6703491210938
952,786.923095703125,786.5201416015625,780.0732421875,779.2673950195312
953,783.6996459960938,789.3406372070312,784.1025390625,779.2673950195312
954,780.4761962890625,785.3113403320312,778.05859375,779.2673950195312
955,779.2673950195312,784.1025390625,782.4908447265625,783.6996459960938
956,779.2673950195312,785.7142944335938,789.7435913085938,784.908447265625
957,781.2820434570312,784.5054931640625,787.3259887695312,782.087890625
958,781.2820434570312,788.5347900390625,788.937744140625,782.4908447265625
959,782.4908447265625,790.5494384765625,794.5787353515625,785.3113403320312
960,785.7142944335938,788.937744140625,797.3992919921875,790.5494384765625
961,786.923095703125,792.5640869140625,794.981689453125,790.1465454101562
962,788.1318969726562,793.7728881835938,796.996337890625,781.2820434570312
963,784.5054931640625,792.5640869140625,795.3846435546875,779.6703491210938
964,782.4908447265625,791.3552856445312,793.7728881835938,781.6849975585938
965,789.7435913085938,782.087890625,791.7582397460938,782.4908447265625
966,793.7728881835938,775.2380981445312,788.937744140625,790.952392578125
967,788.5347900390625,784.1025390625,790.5494384765625,792.5640869140625
968,789.7435913085938,788.937744140625,791.3552856445312,781.6849975585938
969,791.7582397460938,789.3406372070312,784.908447265625,780.879150390625
970,786.1171875,788.1318969726562,776.8497924804688,783.6996459960938
971,793.7728881835938,789.3406372070312,777.2527465820312,786.5201416015625
972,800.2197875976562,792.967041015625,782.893798828125,787.3259887695312
973,790.952392578125,793.7728881835938,781.2820434570312,786.1171875
974,791.3552856445312,790.952392578125,782.4908447265625,786.923095703125
975,800.6226806640625,790.1465454101562,788.1318969726562,785.7142944335938
976,801.4285888671875,795.3846435546875,786.1171875,780.879150390625
977,801.4285888671875,795.7875366210938,786.923095703125,785.7142944335938
978,794.981689453125,793.7728881835938,791.7582397460938,788.1318969726562
979,793.7728881835938,795.3846435546875,795.3846435546875,784.1025390625
980,797.3992919921875,794.5787353515625,795.3846435546875,788.937744140625
981,792.1611938476562,794.5787353515625,795.7875366210938,794.1758422851562
982,788.1318969726562,795.7875366210938,793.7728881835938,783.2966918945312
983,792.967041015625,798.6080322265625,794.1758422851562,778.4615478515625
984,794.5787353515625,798.2051391601562,796.1904907226562,785.7142944335938
985,790.5494384765625,793.7728881835938,794.5787353515625,787.3259887695312
986,792.967041015625,792.5640869140625,794.5787353515625,786.1171875
987,790.1465454101562,788.1318969726562,794.981689453125,785.7142944335938
988,788.5347900390625,785.7142944335938,793.7728881835938,788.1318969726562
989,790.5494384765625,788.937744140625,790.1465454101562,796.5933837890625
990,794.981689453125,791.7582397460938,791.7582397460938,799.4139404296875
991,801.4285888671875,793.3699340820312,790.952392578125,788.5347900390625
992,800.6226806640625,790.952392578125,791.7582397460938,786.5201416015625
993,796.1904907226562,790.1465454101562,794.1758422851562,790.1465454101562
994,791.3552856445312,786.923095703125,797.3992919921875,794.1758422851562
995,793.7728881835938,780.4761962890625,801.4285888671875,797.3992919921875
996,797.8021850585938,782.893798828125,799.8168334960938,796.996337890625
997,790.1465454101562,787.3259887695312,792.967041015625,792.5640869140625
998,790.1465454101562,789.3406372070312,791.7582397460938,788.1318969726562
999,789.3406372070312,788.937744140625,796.5933837890625,785.3113403320312
1000,786.1171875,789.7435913085938,801.4285888671875,787.7289428710938
1001,787.3259887695312,790.952392578125,803.040283203125,795.7875366210938
1002,786.1171875,786.5201416015625,802.2344360351562,791.3552856445312
1003,785.7142944335938,780.879150390625,800.2197875976562,789.7435913085938
1004,783.6996459960938,782.087890625,799.8168334960938,793.7728881835938
1005,783.2966918945312,785.7142944335938,802.6373901367188,789.3406372070312
1006,790.5494384765625,783.2966918945312,803.040283203125,790.952392578125
1007,797.8021850585938,784.5054931640625,802.6373901367188,790.952392578125
1008,801.4285888671875,786.923095703125,802.2344360351562,794.5787353515625
1009,796.996337890625,787.7289428710938,805.4578857421875,802.6373901367188
1010,789.7435913085938,788.5347900390625,802.2344360351562,790.952392578125
1011,790.1465454101562,782.087890625,801.4285888671875,784.5054931640625
1012,792.5640869140625,782.087890625,800.6226806640625,794.981689453125
1013,795.7875366210938,786.1171875,800.6226806640625,796.996337890625
1014,794.1758422851562,784.5054931640625,803.4432373046875,794.981689453125
1015,789.7435913085938,782.4908447265625,798.6080322265625,800.6226806640625
1016,788.5347900390625,790.5494384765625,796.1904907226562,799.8168334960938
1017,792.1611938476562,795.7875366210938,799.8168334960938,797.8021850585938
1018,795.7875366210938,794.1758422851562,799.4139404296875,796.5933837890625
1019,788.937744140625,796.5933837890625,796.5933837890625,790.952392578125
1020,787.3259887695312,799.010986328125,796.5933837890625,785.7142944335938
1021,793.7728881835938,796.996337890625,796.1904907226562,780.879150390625
1022,796.5933837890625,796.996337890625,793.7728881835938,782.893798828125
1023,792.967041015625,796.996337890625,794.5787353515625,789.3406372070312
1024,782.893798828125,792.5640869140625,794.1758422851562,782.4908447265625
1025,781.2820434570312,792.967041015625,795.3846435546875,775.2380981445312
1026,784.1025390625,793.7728881835938,792.1611938476562,779.2673950195312
1027,784.908447265625,790.952392578125,786.923095703125,785.3113403320312
1028,790.1465454101562,793.3699340820312,794.5787353515625,786.923095703125
1029,792.967041015625,796.5933837890625,796.1904907226562,780.0732421875
1030,789.3406372070312,791.7582397460938,790.5494384765625,778.05859375
1031,786.923095703125,790.1465454101562,794.981689453125,779.6703491210938
1032,791.7582397460938,795.3846435546875,798.6080322265625,782.4908447265625
1033,797.8021850585938,798.6080322265625,796.5933837890625,785.7142944335938
1034,791.7582397460938,797.3992919921875,792.967041015625,782.087890625
1035,784.1025390625,795.3846435546875,790.1465454101562,784.1025390625
1036,784.5054931640625,792.967041015625,790.952392578125,785.3113403320312
1037,788.1318969726562,790.5494384765625,790.1465454101562,784.1025390625
1038,787.3259887695312,789.3406372070312,791.7582397460938,788.937744140625
1039,790.952392578125,789.3406372070312,796.1904907226562,799.010986328125
1040,790.5494384765625,792.5640869140625,796.5933837890625,796.1904907226562
1041,789.7435913085938,792.967041015625,793.3699340820312,786.5201416015625
1042,794.1758422851562,790.1465454101562,794.981689453125,792.1611938476562
1043,794.981689453125,792.1611938476562,797.3992919921875,800.6226806640625
1044,796.996337890625,797.3992919921875,798.6080322265625,804.6520385742188
1045,792.1611938476562,798.2051391601562,796.1904907226562,800.6226806640625
1046,793.7728881835938,794.5787353515625,791.3552856445312,798.2051391601562
1047,800.6226806640625,796.1904907226562,788.5347900390625,796.996337890625
1048,800.6226806640625,797.3992919921875,790.952392578125,797.3992919921875
1049,800.6226806640625,794.1758422851562,792.1611938476562,803.4432373046875
1050,799.010986328125,792.967041015625,792.1611938476562,805.4578857421875
1051,800.6226806640625,792.1611938476562,795.7875366210938,802.6373901367188
1052,802.2344360351562,794.5787353515625,794.1758422851562,798.2051391601562
1053,801.025634765625,798.2051391601562,791.3552856445312,798.6080322265625
1054,801.025634765625,801.8314819335938,790.952392578125,800.6226806640625
1055,795.3846435546875,798.6080322265625,791.3552856445312,795.7875366210938
1056,791.3552856445312,794.5787353515625,790.952392578125,788.5347900390625
1057,796.5933837890625,788.5347900390625,790.1465454101562,788.1318969726562
1058,800.6226806640625,784.908447265625,792.1611938476562,790.952392578125
1059,799.010986328125,791.7582397460938,792.967041015625,792.967041015625
1060,797.3992919921875,793.3699340820312,789.7435913085938,789.7435913085938
1061,794.1758422851562,792.5640869140625,790.5494384765625,785.7142944335938
1062,790.1465454101562,790.1465454101562,796.996337890625,794.5787353515625
1063,787.7289428710938,787.3259887695312,792.1611938476562,794.1758422851562
1064,789.3406372070312,786.923095703125,790.1465454101562,786.923095703125
1065,790.1465454101562,790.952392578125,794.1758422851562,787.7289428710938
1066,785.7142944335938,793.3699340820312,793.3699340820312,787.3259887695312
1067,785.7142944335938,794.981689453125,794.981689453125,790.5494384765625
1068,792.5640869140625,798.6080322265625,797.3992919921875,796.996337890625
1069,788.5347900390625,794.5787353515625,793.3699340820312,794.5787353515625
1070,783.6996459960938,791.7582397460938,792.1611938476562,790.5494384765625
1071,785.3113403320312,792.967041015625,792.1611938476562,784.908447265625
1072,785.7142944335938,792.967041015625,790.5494384765625,780.879150390625
1073,788.1318969726562,796.5933837890625,792.1611938476562,794.1758422851562
1074,789.7435913085938,795.3846435546875,792.5640869140625,796.5933837890625
1075,782.893798828125,786.1171875,788.1318969726562,778.8644409179688
1076,780.879150390625,784.5054931640625,784.5054931640625,772.4176025390625
1077,787.7289428710938,790.952392578125,786.923095703125,784.1025390625
1078,790.952392578125,796.1904907226562,789.3406372070312,792.5640869140625
1079,794.981689453125,793.3699340820312,790.952392578125,788.5347900390625
1080,796.996337890625,791.3552856445312,789.3406372070312,792.5640869140625
1081,796.996337890625,795.3846435546875,788.937744140625,794.1758422851562
1082,800.2197875976562,796.5933837890625,787.7289428710938,794.1758422851562
1083,801.4285888671875,797.3992919921875,787.7289428710938,799.4139404296875
1084,797.3992919921875,796.5933837890625,790.1465454101562,793.7728881835938
1085,796.5933837890625,795.3846435546875,788.937744140625,796.1904907226562
1086,799.8168334960938,794.981689453125,792.5640869140625,801.8314819335938
1087,800.6226806640625,797.8021850585938,795.3846435546875,792.1611938476562
1088,808.2783813476562,801.025634765625,796.5933837890625,791.7582397460938
1089,809.89013671875,799.8168334960938,797.8021850585938,794.981689453125
1090,801.8314819335938,798.6080322265625,799.8168334960938,791.7582397460938
1091,794.5787353515625,796.996337890625,799.010986328125,790.1465454101562
1092,788.5347900390625,794.981689453125,797.8021850585938,793.3699340820312
1093,788.5347900390625,795.7875366210938,796.5933837890625,790.1465454101562
1094,787.3259887695312,792.967041015625,791.7582397460938,784.5054931640625
1095,782.893798828125,788.1318969726562,791.3552856445312,787.7289428710938
1096,780.0732421875,788.1318969726562,790.952392578125,786.5201416015625
1097,782.087890625,790.5494384765625,789.7435913085938,785.7142944335938
1098,785.7142944335938,790.5494384765625,788.5347900390625,786.5201416015625
1099,789.7435913085938,792.967041015625,788.937744140625,786.5201416015625
1100,795.7875366210938,799.010986328125,794.981689453125,797.3992919921875
1101,790.952392578125,797.8021850585938,797.3992919921875,799.8168334960938
1102,785.3113403320312,796.5933837890625,796.996337890625,792.967041015625
1103,788.5347900390625,794.5787353515625,796.1904907226562,789.3406372070312
1104,791.7582397460938,795.3846435546875,796.996337890625,786.923095703125
1105,794.5787353515625,798.6080322265625,797.8021850585938,790.1465454101562
1106,795.7875366210938,799.010986328125,795.3846435546875,790.5494384765625
1107,796.1904907226562,792.1611938476562,792.967041015625,786.5201416015625
1108,793.3699340820312,783.6996459960938,790.1465454101562,784.5054931640625
1109,787.3259887695312,780.0732421875,788.5347900390625,780.0732421875
1110,786.5201416015625,784.5054931640625,792.1611938476562,784.5054931640625
1111,786.1171875,791.3552856445312,795.7875366210938,790.5494384765625
1112,785.3113403320312,796.996337890625,794.1758422851562,789.3406372070312
1113,788.1318969726562,798.6080322265625,795.7875366210938,794.981689453125
1114,788.937744140625,796.5933837890625,795.3846435546875,794.1758422851562
1115,784.908447265625,793.3699340820312,793.7728881835938,789.3406372070312
1116,786.1171875,788.5347900390625,793.7728881835938,789.7435913085938
1117,789.3406372070312,788.5347900390625,796.5933837890625,788.1318969726562
1118,788.1318969726562,794.5787353515625,803.040283203125,784.908447265625
1119,792.1611938476562,794.5787353515625,805.054931640625,786.1171875
1120,795.3846435546875,794.5787353515625,803.4432373046875,791.7582397460938
1121,791.3552856445312,794.981689453125,798.2051391601562,785.7142944335938
1122,788.1318969726562,792.967041015625,796.1904907226562,779.2673950195312
1123,787.3259887695312,792.967041015625,792.1611938476562,785.7142944335938
1124,786.5201416015625,789.3406372070312,788.1318969726562,786.5201416015625
1125,787.3259887695312,786.923095703125,788.937744140625,784.5054931640625
1126,786.1171875,786.923095703125,785.3113403320312,784.908447265625
1127,778.4615478515625,782.4908447265625,779.2673950195312,778.05859375
1128,781.6849975585938,784.5054931640625,782.4908447265625,781.2820434570312
1129,790.1465454101562,788.1318969726562,783.6996459960938,787.3259887695312
1130,793.3699340820312,786.5201416015625,781.2820434570312,782.893798828125
1131,790.952392578125,784.5054931640625,784.1025390625,782.087890625
1132,784.908447265625,782.4908447265625,787.3259887695312,782.087890625
1133,783.6996459960938,778.8644409179688,785.7142944335938,784.1025390625
1134,788.937744140625,776.4468994140625,785.3113403320312,788.5347900390625
1135,790.1465454101562,779.6703491210938,782.087890625,788.5347900390625
1136,790.1465454101562,784.908447265625,783.6996459960938,788.5347900390625
1137,789.7435913085938,786.1171875,793.3699340820312,787.3259887695312
1138,789.3406372070312,790.952392578125,793.7728881835938,783.2966918945312
1139,792.5640869140625,791.3552856445312,792.967041015625,785.7142944335938
1140,792.967041015625,788.937744140625,792.5640869140625,788.1318969726562
1141,790.5494384765625,790.952392578125,794.5787353515625,785.7142944335938
1142,786.923095703125,790.5494384765625,790.1465454101562,782.893798828125
1143,781.2820434570312,787.7289428710938,787.3259887695312,782.4908447265625
1144,780.879150390625,790.952392578125,795.3846435546875,783.6996459960938
1145,779.6703491210938,792.5640869140625,797.3992919921875,785.7142944335938
1146,780.879150390625,791.3552856445312,790.5494384765625,786.923095703125
1147,783.6996459960938,787.7289428710938,792.5640869140625,788.937744140625
1148,785.3113403320312,789.3406372070312,795.3846435546875,787.7289428710938
1149,788.937744140625,792.1611938476562,790.1465454101562,787.7289428710938
1150,788.5347900390625,791.7582397460938,792.5640869140625,794.5787353515625
1151,788.937744140625,794.1758422851562,792.967041015625,802.6373901367188
1152,791.7582397460938,791.3552856445312,791.7582397460938,797.3992919921875
1153,792.5640869140625,789.3406372070312,790.952392578125,786.923095703125
1154,792.967041015625,792.967041015625,791.3552856445312,786.5201416015625
1155,792.1611938476562,792.967041015625,794.1758422851562,790.1465454101562
1156,789.7435913085938,787.3259887695312,795.3846435546875,786.923095703125
1157,788.5347900390625,784.1025390625,793.3699340820312,783.2966918945312
1158,788.5347900390625,781.6849975585938,793.7728881835938,787.7289428710938
1159,790.952392578125,780.0732421875,797.3992919921875,788.937744140625
1160,796.996337890625,780.879150390625,797.8021850585938,785.3113403320312
1161,792.1611938476562,778.4615478515625,796.996337890625,786.1171875
1162,788.5347900390625,782.4908447265625,794.981689453125,785.3113403320312
1163,784.1025390625,788.937744140625,796.1904907226562,786.923095703125
1164,780.4761962890625,788.5347900390625,794.5787353515625,788.5347900390625
1165,785.7142944335938,789.7435913085938,795.7875366210938,792.967041015625
1166,785.7142944335938,794.1758422851562,801.4285888671875,795.3846435546875
1167,785.7142944335938,794.5787353515625,799.4139404296875,791.7582397460938
1168,788.5347900390625,794.1758422851562,799.4139404296875,793.7728881835938
1169,794.5787353515625,794.5787353515625,800.2197875976562,792.1611938476562
1170,795.3846435546875,794.1758422851562,800.2197875976562,796.1904907226562
1171,788.937744140625,795.3846435546875,796.1904907226562,792.5640869140625
1172,793.7728881835938,790.952392578125,790.952392578125,788.1318969726562
1173,794.1758422851562,787.3259887695312,791.7582397460938,793.7728881835938
1174,793.7728881835938,792.1611938476562,796.1904907226562,796.996337890625
1175,801.8314819335938,794.5787353515625,796.996337890625,799.4139404296875
1176,801.4285888671875,787.7289428710938,796.996337890625,799.4139404296875
1177,799.010986328125,789.3406372070312,798.6080322265625,801.025634765625
1178,793.7728881835938,791.7582397460938,796.5933837890625,798.2051391601562
1179,790.5494384765625,792.1611938476562,795.7875366210938,791.7582397460938
1180,795.7875366210938,797.3992919921875,798.2051391601562,788.1318969726562
1181,797.8021850585938,794.1758422851562,797.3992919921875,793.7728881835938
1182,791.3552856445312,789.3406372070312,796.996337890625,789.7435913085938
1183,784.5054931640625,785.3113403320312,794.5787353515625,777.2527465820312
1184,787.7289428710938,789.3406372070312,795.3846435546875,780.4761962890625
1185,795.3846435546875,788.937744140625,798.2051391601562,785.3113403320312
1186,793.7728881835938,785.7142944335938,797.8021850585938,785.3113403320312
1187,785.7142944335938,787.3259887695312,798.2051391601562,784.5054931640625
1188,782.4908447265625,787.7289428710938,794.5787353515625,780.0732421875
1189,780.879150390625,794.5787353515625,795.3846435546875,776.0439453125
1190,784.908447265625,792.967041015625,794.5787353515625,780.4761962890625
1191,788.937744140625,790.952392578125,787.7289428710938,782.893798828125
1192,790.1465454101562,793.3699340820312,783.6996459960938,785.3113403320312
1193,792.1611938476562,790.952392578125,784.908447265625,787.3259887695312
1194,792.967041015625,794.981689453125,790.1465454101562,781.6849975585938
1195,796.1904907226562,796.5933837890625,790.5494384765625,782.893798828125
1196,804.6520385742188,795.3846435546875,795.3846435546875,789.7435913085938
1197,809.084228515625,801.025634765625,800.2197875976562,795.7875366210938
1198,805.054931640625,801.025634765625,798.2051391601562,797.3992919921875
1199,800.6226806640625,799.010986328125,801.8314819335938,799.4139404296875
1200,806.6666870117188,802.2344360351562,805.054931640625,805.8607788085938
1201,808.2783813476562,803.040283203125,803.4432373046875,804.6520385742188
1202,799.4139404296875,794.981689453125,805.4578857421875,804.6520385742188
1203,795.3846435546875,793.7728881835938,805.8607788085938,803.040283203125
1204,798.6080322265625,797.8021850585938,805.4578857421875,802.6373901367188
1205,796.996337890625,796.1904907226562,802.2344360351562,796.1904907226562
1206,796.5933837890625,794.981689453125,798.2051391601562,789.3406372070312
1207,796.996337890625,794.1758422851562,795.7875366210938,791.7582397460938
1208,792.967041015625,794.5787353515625,789.3406372070312,787.7289428710938
1209,789.7435913085938,794.981689453125,794.5787353515625,788.5347900390625
1210,794.1758422851562,798.2051391601562,803.4432373046875,790.1465454101562
1211,793.3699340820312,797.8021850585938,799.4139404296875,785.3113403320312
1212,789.3406372070312,790.5494384765625,795.7875366210938,782.893798828125
1213,790.5494384765625,791.3552856445312,790.5494384765625,778.8644409179688
1214,790.5494384765625,792.1611938476562,790.952392578125,778.05859375
1215,788.5347900390625,787.3259887695312,792.5640869140625,778.05859375
1216,790.5494384765625,790.952392578125,790.5494384765625,778.8644409179688
1217,789.3406372070312,792.1611938476562,790.5494384765625,782.4908447265625
1218,789.7435913085938,792.1611938476562,792.1611938476562,783.6996459960938
1219,793.3699340820312,792.5640869140625,796.1904907226562,786.5201416015625
1220,790.1465454101562,788.5347900390625,794.1758422851562,784.1025390625
1221,786.923095703125,787.7289428710938,795.3846435546875,785.3113403320312
1222,789.7435913085938,787.3259887695312,799.010986328125,785.3113403320312
1223,798.2051391601562,786.5201416015625,794.5787353515625,790.1465454101562
1224,794.1758422851562,789.3406372070312,793.7728881835938,789.3406372070312
1225,788.5347900390625,789.7435913085938,795.3846435546875,784.5054931640625
1226,792.5640869140625,792.5640869140625,793.3699340820312,786.1171875
1227,799.010986328125,793.7728881835938,790.952392578125,790.5494384765625
1228,800.2197875976562,795.7875366210938,789.3406372070312,801.025634765625
1229,798.6080322265625,796.996337890625,788.937744140625,793.7728881835938
1230,789.7435913085938,792.1611938476562,784.5054931640625,788.5347900390625
1231,788.937744140625,792.967041015625,789.3406372070312,792.5640869140625
1232,796.5933837890625,792.5640869140625,794.981689453125,793.3699340820312
1233,796.996337890625,795.7875366210938,790.952392578125,799.010986328125
1234,794.5787353515625,795.3846435546875,786.5201416015625,794.1758422851562
1235,794.981689453125,792.1611938476562,789.3406372070312,790.952392578125
1236,797.3992919921875,794.981689453125,791.7582397460938,790.5494384765625
1237,795.3846435546875,791.3552856445312,791.7582397460938,787.7289428710938
1238,794.1758422851562,792.5640869140625,794.981689453125,790.952392578125
1239,794.981689453125,792.1611938476562,791.3552856445312,794.1758422851562
1240,794.1758422851562,787.3259887695312,785.7142944335938,790.5494384765625
1241,789.7435913085938,785.7142944335938,788.937744140625,790.5494384765625
1242,789.3406372070312,783.2966918945312,792.5640869140625,791.3552856445312
1243,783.2966918945312,781.2820434570312,789.7435913085938,792.5640869140625
1244,777.2527465820312,783.2966918945312,786.1171875,792.5640869140625
1245,785.7142944335938,783.2966918945312,790.1465454101562,790.1465454101562
1246,783.6996459960938,786.5201416015625,786.5201416015625,787.3259887695312
1247,779.6703491210938,787.7289428710938,781.6849975585938,783.6996459960938
1248,780.4761962890625,788.1318969726562,783.2966918945312,780.879150390625
1249,780.4761962890625,788.1318969726562,784.1025390625,784.908447265625
1250,782.4908447265625,781.2820434570312,785.7142944335938,788.937744140625
1251,788.937744140625,777.2527465820312,784.908447265625,789.7435913085938
1252,794.5787353515625,783.6996459960938,787.3259887695312,788.5347900390625
1253,794.1758422851562,785.7142944335938,789.3406372070312,787.3259887695312
1254,791.3552856445312,784.1025390625,788.1318969726562,788.1318969726562
1255,788.937744140625,786.5201416015625,787.3259887695312,784.908447265625
1256,785.3113403320312,788.5347900390625,789.7435913085938,779.2673950195312
1257,784.1025390625,788.937744140625,786.923095703125,778.8644409179688
1258,786.5201416015625,785.7142944335938,788.5347900390625,787.3259887695312
1259,790.5494384765625,786.923095703125,794.5787353515625,788.937744140625
1260,792.5640869140625,786.1171875,792.1611938476562,787.7289428710938
1261,793.3699340820312,782.4908447265625,789.3406372070312,786.5201416015625
1262,799.010986328125,787.7289428710938,792.967041015625,788.1318969726562
1263,801.8314819335938,790.1465454101562,794.5787353515625,791.3552856445312
1264,805.4578857421875,788.937744140625,794.981689453125,783.6996459960938
1265,799.8168334960938,788.937744140625,794.1758422851562,787.7289428710938
1266,789.7435913085938,788.1318969726562,792.967041015625,799.8168334960938
1267,790.5494384765625,788.5347900390625,796.5933837890625,794.1758422851562
1268,796.5933837890625,792.967041015625,799.010986328125,789.3406372070312
1269,797.8021850585938,794.5787353515625,798.6080322265625,793.3699340820312
1270,792.1611938476562,795.3846435546875,799.4139404296875,788.1318969726562
1271,790.952392578125,799.8168334960938,795.7875366210938,783.2966918945312
1272,795.7875366210938,797.8021850585938,791.3552856445312,785.7142944335938
1273,791.3552856445312,792.967041015625,788.1318969726562,783.6996459960938
1274,790.952392578125,791.7582397460938,788.1318969726562,784.908447265625
1275,797.8021850585938,797.8021850585938,788.5347900390625,787.7289428710938
1276,796.5933837890625,801.025634765625,790.5494384765625,785.3113403320312
1277,798.2051391601562,799.010986328125,793.7728881835938,796.5933837890625
1278,800.6226806640625,796.1904907226562,795.7875366210938,803.4432373046875
1279,802.6373901367188,794.1758422851562,800.2197875976562,800.6226806640625
1280,805.4578857421875,792.5640869140625,798.6080322265625,803.8461303710938
1281,800.2197875976562,793.7728881835938,795.7875366210938,797.3992919921875
1282,797.3992919921875,795.7875366210938,796.5933837890625,793.7728881835938
1283,800.2197875976562,792.967041015625,792.5640869140625,796.1904907226562
1284,794.1758422851562,783.2966918945312,788.937744140625,795.3846435546875
1285,789.7435913085938,779.2673950195312,788.1318969726562,793.7728881835938
1286,790.5494384765625,782.087890625,787.7289428710938,790.952392578125
1287,788.5347900390625,782.893798828125,791.7582397460938,792.5640869140625
1288,790.5494384765625,786.1171875,796.996337890625,795.3846435546875
1289,791.3552856445312,788.937744140625,799.010986328125,796.5933837890625
1290,791.7582397460938,793.3699340820312,798.2051391601562,793.7728881835938
1291,789.7435913085938,791.3552856445312,795.3846435546875,790.1465454101562
1292,784.5054931640625,790.5494384765625,795.7875366210938,788.1318969726562
1293,784.1025390625,792.1611938476562,799.010986328125,791.7582397460938
1294,791.7582397460938,795.3846435546875,801.4285888671875,794.1758422851562
1295,793.3699340820312,796.996337890625,803.040283203125,788.5347900390625
1296,784.1025390625,792.1611938476562,800.6226806640625,782.893798828125
1297,780.4761962890625,790.1465454101562,798.2051391601562,783.2966918945312
1298,786.1171875,791.3552856445312,798.6080322265625,786.923095703125
1299,792.1611938476562,789.3406372070312,798.2051391601562,790.1465454101562
1300,791.3552856445312,789.7435913085938,795.7875366210938,792.1611938476562
1301,787.3259887695312,792.5640869140625,796.1904907226562,791.3552856445312
1302,792.967041015625,790.952392578125,795.3846435546875,791.7582397460938
1303,796.996337890625,784.908447265625,792.967041015625,796.5933837890625
1304,791.3552856445312,788.5347900390625,791.7582397460938,793.3699340820312
1305,796.5933837890625,795.3846435546875,794.1758422851562,792.967041015625
1306,799.010986328125,793.7728881835938,795.3846435546875,795.7875366210938
1307,799.010986328125,790.952392578125,793.3699340820312,798.2051391601562
1308,799.4139404296875,794.981689453125,793.3699340820312,799.4139404296875
1309,798.6080322265625,795.3846435546875,796.1904907226562,802.2344360351562
1310,802.6373901367188,792.5640869140625,799.010986328125,795.3846435546875
1311,799.8168334960938,789.7435913085938,797.8021850585938,789.7435913085938
1312,790.5494384765625,782.087890625,796.1904907226562,788.1318969726562
1313,784.908447265625,782.893798828125,792.5640869140625,782.087890625
1314,782.4908447265625,786.923095703125,789.7435913085938,781.2820434570312
1315,782.893798828125,783.6996459960938,792.967041015625,784.5054931640625
1316,778.8644409179688,781.6849975585938,790.5494384765625,781.2820434570312
1317,779.6703491210938,783.2966918945312,794.981689453125,779.6703491210938
1318,780.4761962890625,786.1171875,793.7728881835938,783.6996459960938
1319,780.0732421875,787.3259887695312,787.3259887695312,785.3113403320312
1320,786.923095703125,788.1318969726562,794.5787353515625,791.7582397460938
1321,787.3259887695312,789.3406372070312,798.6080322265625,789.7435913085938
1322,789.3406372070312,790.952392578125,794.5787353515625,785.7142944335938
1323,794.981689453125,796.5933837890625,798.6080322265625,791.7582397460938
1324,794.5787353515625,796.5933837890625,801.4285888671875,796.996337890625
1325,795.7875366210938,793.7728881835938,793.7728881835938,793.3699340820312
1326,797.3992919921875,795.3846435546875,794.1758422851562,789.3406372070312
1327,790.5494384765625,788.5347900390625,795.7875366210938,790.1465454101562
1328,788.937744140625,784.1025390625,794.1758422851562,791.3552856445312
1329,794.981689453125,789.3406372070312,796.996337890625,794.1758422851562
1330,795.7875366210938,789.3406372070312,797.8021850585938,799.8168334960938
1331,788.1318969726562,790.1465454101562,790.5494384765625,791.3552856445312
1332,784.1025390625,786.923095703125,789.3406372070312,784.1025390625
1333,791.7582397460938,789.7435913085938,792.5640869140625,788.1318969726562
1334,800.6226806640625,797.8021850585938,792.1611938476562,790.952392578125
1335,797.3992919921875,793.7728881835938,791.7582397460938,787.3259887695312
1336,790.1465454101562,789.7435913085938,788.937744140625,782.893798828125
1337,788.1318969726562,793.7728881835938,786.923095703125,780.879150390625
1338,792.967041015625,794.1758422851562,788.937744140625,788.1318969726562
1339,790.1465454101562,788.937744140625,790.5494384765625,794.981689453125
1340,784.908447265625,790.1465454101562,795.3846435546875,789.7435913085938
1341,788.1318969726562,794.5787353515625,794.981689453125,787.3259887695312
1342,782.4908447265625,793.7728881835938,786.1171875,783.2966918945312
1343,787.7289428710938,790.1465454101562,786.1171875,779.6703491210938
1344,794.981689453125,790.5494384765625,793.7728881835938,782.893798828125
1345,790.5494384765625,794.981689453125,792.967041015625,787.7289428710938
1346,790.952392578125,794.981689453125,793.3699340820312,789.3406372070312
1347,795.7875366210938,794.5787353515625,799.010986328125,792.967041015625
1348,793.7728881835938,796.996337890625,794.981689453125,790.952392578125
1349,798.2051391601562,793.7728881835938,794.5787353515625,794.1758422851562
1350,807.069580078125,791.3552856445312,798.2051391601562,805.054931640625
1351,803.040283203125,793.7728881835938,796.5933837890625,795.3846435546875
1352,802.2344360351562,799.4139404296875,797.8021850585938,794.1758422851562
1353,803.4432373046875,800.6226806640625,798.6080322265625,800.6226806640625
1354,799.010986328125,794.1758422851562,797.3992919921875,794.1758422851562
1355,800.6226806640625,790.1465454101562,796.1904907226562,792.1611938476562
1356,800.6226806640625,794.981689453125,797.8021850585938,790.1465454101562
1357,791.7582397460938,799.4139404296875,797.3992919921875,786.923095703125
1358,783.6996459960938,792.1611938476562,796.5933837890625,786.5201416015625
1359,787.3259887695312,792.1611938476562,798.2051391601562,792.5640869140625
1360,791.7582397460938,792.5640869140625,798.2051391601562,794.981689453125
1361,790.952392578125,790.1465454101562,799.010986328125,796.1904907226562
1362,786.923095703125,788.1318969726562,796.1904907226562,799.8168334960938
1363,785.3113403320312,787.7289428710938,794.981689453125,790.5494384765625
1364,783.2966918945312,788.1318969726562,793.3699340820312,784.1025390625
1365,783.6996459960938,788.1318969726562,792.1611938476562,784.908447265625
1366,790.952392578125,788.937744140625,797.8021850585938,790.1465454101562
1367,787.7289428710938,788.937744140625,796.5933837890625,794.1758422851562
1368,780.0732421875,792.1611938476562,794.981689453125,792.5640869140625
1369,782.893798828125,796.5933837890625,796.5933837890625,797.8021850585938
1370,787.3259887695312,793.7728881835938,794.1758422851562,801.4285888671875
1371,784.908447265625,788.1318969726562,795.3846435546875,801.025634765625
1372,788.5347900390625,789.7435913085938,800.2197875976562,797.3992919921875
1373,791.3552856445312,791.3552856445312,801.8314819335938,794.5787353515625
1374,792.1611938476562,792.5640869140625,796.996337890625,799.8168334960938
1375,792.1611938476562,791.3552856445312,793.3699340820312,791.7582397460938
1376,791.7582397460938,791.7582397460938,792.1611938476562,787.3259887695312
1377,788.5347900390625,793.7728881835938,792.5640869140625,788.1318969726562
1378,784.908447265625,789.3406372070312,793.3699340820312,783.2966918945312
1379,782.087890625,786.923095703125,791.7582397460938,783.2966918945312
1380,786.923095703125,786.923095703125,790.5494384765625,789.7435913085938
1381,787.3259887695312,788.1318969726562,792.5640869140625,794.5787353515625
1382,786.5201416015625,786.5201416015625,794.1758422851562,792.5640869140625
1383,789.3406372070312,783.2966918945312,791.3552856445312,783.6996459960938
1384,784.5054931640625,784.908447265625,790.5494384765625,785.7142944335938
1385,778.8644409179688,780.4761962890625,787.3259887695312,792.1611938476562
1386,780.0732421875,781.2820434570312,786.923095703125,790.1465454101562
1387,781.2820434570312,782.087890625,790.1465454101562,781.2820434570312
1388,779.2673950195312,782.087890625,788.937744140625,776.8497924804688
1389,784.1025390625,784.1025390625,790.1465454101562,780.879150390625
1390,796.5933837890625,791.7582397460938,792.5640869140625,791.7582397460938
1391,805.054931640625,792.5640869140625,794.981689453125,797.8021850585938
1392,799.8168334960938,788.937744140625,796.1904907226562,797.3992919921875
1393,799.4139404296875,792.1611938476562,797.8021850585938,798.2051391601562
1394,801.8314819335938,794.981689453125,796.1904907226562,795.7875366210938
1395,804.2490844726562,798.6080322265625,797.3992919921875,794.1758422851562
1396,802.6373901367188,796.996337890625,801.4285888671875,794.1758422851562
1397,799.4139404296875,791.7582397460938,800.2197875976562,791.3552856445312
1398,795.7875366210938,791.7582397460938,796.996337890625,785.3113403320312
1399,792.1611938476562,794.1758422851562,797.3992919921875,780.879150390625
1400,792.967041015625,793.7728881835938,798.6080322265625,781.2820434570312
1401,791.7582397460938,793.7728881835938,799.010986328125,786.5201416015625
1402,792.1611938476562,793.3699340820312,795.7875366210938,786.1171875
1403,792.967041015625,786.5201416015625,792.967041015625,788.5347900390625
1404,791.7582397460938,785.3113403320312,792.967041015625,793.3699340820312
1405,790.1465454101562,791.7582397460938,794.1758422851562,786.923095703125
1406,792.967041015625,794.981689453125,795.3846435546875,782.893798828125
1407,789.7435913085938,793.7728881835938,790.5494384765625,788.5347900390625
1408,791.7582397460938,793.7728881835938,789.3406372070312,791.3552856445312
1409,801.025634765625,797.8021850585938,797.8021850585938,788.937744140625
1410,801.4285888671875,796.996337890625,801.8314819335938,787.3259887695312
1411,799.010986328125,793.7728881835938,799.010986328125,791.3552856445312
1412,794.1758422851562,791.7582397460938,798.2051391601562,798.6080322265625
1413,787.7289428710938,792.1611938476562,801.4285888671875,798.6080322265625
1414,787.7289428710938,790.1465454101562,800.6226806640625,799.010986328125
1415,794.1758422851562,788.937744140625,799.8168334960938,803.4432373046875
1416,797.8021850585938,792.1611938476562,799.4139404296875,803.040283203125
1417,799.010986328125,794.1758422851562,798.6080322265625,801.4285888671875
1418,794.981689453125,791.3552856445312,801.025634765625,799.4139404296875
1419,786.923095703125,786.923095703125,792.967041015625,795.3846435546875
1420,782.893798828125,787.3259887695312,792.5640869140625,791.7582397460938
1421,785.3113403320312,789.3406372070312,796.5933837890625,790.952392578125
1422,788.937744140625,783.2966918945312,796.5933837890625,790.5494384765625
1423,786.923095703125,784.908447265625,803.8461303710938,791.7582397460938
1424,787.3259887695312,793.7728881835938,805.054931640625,790.5494384765625
1425,786.923095703125,794.981689453125,799.8168334960938,787.3259887695312
1426,787.7289428710938,793.3699340820312,794.981689453125,785.7142944335938
1427,792.5640869140625,793.7728881835938,796.996337890625,790.5494384765625
1428,789.7435913085938,795.3846435546875,799.010986328125,794.1758422851562
1429,785.3113403320312,796.5933837890625,796.1904907226562,788.5347900390625
1430,786.1171875,797.3992919921875,797.8021850585938,784.908447265625
1431,791.3552856445312,794.1758422851562,795.7875366210938,795.7875366210938
1432,796.1904907226562,783.6996459960938,794.5787353515625,802.6373901367188
1433,794.1758422851562,778.05859375,797.8021850585938,799.8168334960938
1434,795.3846435546875,787.3259887695312,800.6226806640625,804.2490844726562
1435,788.5347900390625,793.3699340820312,794.1758422851562,794.981689453125
1436,778.4615478515625,792.5640869140625,786.1171875,778.05859375
1437,784.1025390625,793.7728881835938,786.923095703125,780.879150390625
1438,786.5201416015625,792.5640869140625,787.3259887695312,782.4908447265625
1439,781.6849975585938,788.937744140625,790.5494384765625,776.8497924804688
1440,785.7142944335938,794.981689453125,792.5640869140625,778.8644409179688
1441,788.1318969726562,788.5347900390625,792.967041015625,785.3113403320312
1442,783.6996459960938,783.6996459960938,788.937744140625,794.1758422851562
1443,785.7142944335938,786.923095703125,790.1465454101562,798.2051391601562
1444,786.5201416015625,785.3113403320312,789.7435913085938,787.3259887695312
1445,781.6849975585938,790.1465454101562,785.3113403320312,779.2673950195312
1446,782.4908447265625,798.2051391601562,791.7582397460938,785.7142944335938
1447,790.952392578125,803.4432373046875,796.996337890625,791.3552856445312
1448,790.952392578125,801.4285888671875,795.3846435546875,786.1171875
1449,787.3259887695312,797.8021850585938,789.7435913085938,787.7289428710938
1450,784.908447265625,796.996337890625,789.3406372070312,787.7289428710938
1451,785.3113403320312,793.3699340820312,789.3406372070312,788.1318969726562
1452,789.3406372070312,792.5640869140625,788.1318969726562,786.1171875
1453,786.5201416015625,790.5494384765625,790.952392578125,782.4908447265625
1454,783.6996459960938,787.3259887695312,791.3552856445312,785.3113403320312
1455,788.1318969726562,791.3552856445312,791.7582397460938,788.5347900390625
1456,792.1611938476562,793.7728881835938,791.3552856445312,786.5201416015625
1457,790.5494384765625,788.5347900390625,788.5347900390625,786.5201416015625
1458,793.3699340820312,787.3259887695312,789.3406372070312,795.7875366210938
1459,789.3406372070312,790.952392578125,790.952392578125,788.5347900390625
1460,786.5201416015625,796.996337890625,786.5201416015625,786.1171875
1461,791.3552856445312,798.6080322265625,791.3552856445312,792.5640869140625
1462,792.967041015625,795.3846435546875,794.5787353515625,785.3113403320312
1463,796.996337890625,796.996337890625,793.3699340820312,785.3113403320312
1464,792.5640869140625,800.6226806640625,797.3992919921875,782.087890625
1465,787.7289428710938,800.6226806640625,801.8314819335938,782.087890625
1466,789.7435913085938,796.5933837890625,799.010986328125,789.3406372070312
1467,788.1318969726562,792.5640869140625,796.996337890625,786.923095703125
1468,787.3259887695312,793.3699340820312,799.010986328125,786.5201416015625
1469,785.7142944335938,796.5933837890625,802.6373901367188,783.2966918945312
1470,781.6849975585938,796.5933837890625,801.4285888671875,776.0439453125
1471,789.3406372070312,793.3699340820312,799.4139404296875,781.6849975585938
1472,796.1904907226562,789.3406372070312,802.2344360351562,785.3113403320312
1473,795.3846435546875,786.923095703125,800.2197875976562,788.1318969726562
1474,791.3552856445312,790.5494384765625,796.1904907226562,791.3552856445312
1475,788.5347900390625,792.1611938476562,796.5933837890625,786.1171875
1476,792.1611938476562,790.5494384765625,796.996337890625,786.923095703125
1477,792.5640869140625,787.7289428710938,798.2051391601562,788.5347900390625
1478,790.1465454101562,787.3259887695312,800.2197875976562,784.1025390625
1479,791.7582397460938,790.1465454101562,794.1758422851562,777.2527465820312
1480,794.981689453125,790.5494384765625,792.1611938476562,778.8644409179688
1481,792.967041015625,792.5640869140625,794.981689453125,787.3259887695312
1482,786.923095703125,792.5640869140625,792.967041015625,788.1318969726562
1483,787.7289428710938,790.5494384765625,796.5933837890625,786.5201416015625
1484,793.3699340820312,790.952392578125,796.1904907226562,784.908447265625
1485,790.952392578125,790.5494384765625,790.5494384765625,782.893798828125
1486,790.5494384765625,787.3259887695312,791.3552856445312,785.7142944335938
1487,790.5494384765625,790.5494384765625,790.952392578125,785.3113403320312
1488,785.7142944335938,791.3552856445312,788.1318969726562,782.893798828125
1489,785.3113403320312,786.5201416015625,785.3113403320312,783.6996459960938
1490,785.7142944335938,785.3113403320312,786.923095703125,782.087890625
1491,791.3552856445312,786.1171875,789.7435913085938,786.1171875
1492,799.4139404296875,790.5494384765625,790.952392578125,798.6080322265625
1493,798.6080322265625,795.3846435546875,794.1758422851562,800.6226806640625
1494,794.1758422851562,795.3846435546875,791.3552856445312,786.923095703125
1495,796.5933837890625,790.5494384765625,794.1758422851562,786.1171875
1496,796.1904907226562,789.7435913085938,799.8168334960938,788.5347900390625
1497,795.3846435546875,796.5933837890625,795.7875366210938,784.1025390625
1498,798.6080322265625,799.010986328125,795.3846435546875,787.3259887695312
1499,793.7728881835938,793.3699340820312,794.981689453125,786.923095703125
1500,786.5201416015625,786.1171875,796.1904907226562,786.923095703125
1501,786.5201416015625,783.2966918945312,796.5933837890625,788.1318969726562
1502,791.3552856445312,780.4761962890625,797.3992919921875,786.5201416015625
1503,793.3699340820312,782.4908447265625,799.4139404296875,788.937744140625
1504,792.1611938476562,782.4908447265625,794.981689453125,799.4139404296875
1505,790.5494384765625,788.1318969726562,794.981689453125,798.6080322265625
1506,791.7582397460938,792.967041015625,797.3992919921875,792.967041015625
1507,796.1904907226562,790.1465454101562,798.2051391601562,802.2344360351562
1508,797.3992919921875,792.5640869140625,799.4139404296875,807.4725341796875
1509,798.2051391601562,794.5787353515625,799.4139404296875,799.010986328125
1510,795.7875366210938,789.7435913085938,796.996337890625,790.952392578125
1511,790.952392578125,787.7289428710938,796.996337890625,791.3552856445312
1512,787.7289428710938,787.7289428710938,800.2197875976562,790.952392578125
1513,790.952392578125,785.7142944335938,801.025634765625,791.3552856445312
1514,793.7728881835938,784.908447265625,798.2051391601562,793.3699340820312
1515,790.5494384765625,784.1025390625,797.3992919921875,792.5640869140625
1516,788.1318969726562,784.908447265625,796.996337890625,794.981689453125
1517,793.3699340820312,787.7289428710938,796.996337890625,799.010986328125
1518,795.7875366210938,788.937744140625,796.996337890625,801.4285888671875
1519,792.5640869140625,786.1171875,792.967041015625,801.8314819335938
1520,795.3846435546875,786.923095703125,786.1171875,792.1611938476562
1521,796.5933837890625,789.3406372070312,790.1465454101562,786.1171875
1522,794.981689453125,788.5347900390625,795.7875366210938,790.952392578125
1523,795.3846435546875,784.5054931640625,794.5787353515625,794.1758422851562
1524,797.8021850585938,782.087890625,791.7582397460938,798.2051391601562
1525,798.6080322265625,788.1318969726562,794.981689453125,799.010986328125
1526,797.3992919921875,791.7582397460938,799.010986328125,799.8168334960938
1527,797.8021850585938,792.1611938476562,796.5933837890625,804.6520385742188
1528,797.3992919921875,792.5640869140625,798.2051391601562,805.4578857421875
1529,795.3846435546875,792.967041015625,797.3992919921875,802.6373901367188
1530,800.2197875976562,789.3406372070312,797.3992919921875,802.6373901367188
1531,800.2197875976562,788.1318969726562,804.6520385742188,807.069580078125
1532,793.3699340820312,788.937744140625,798.2051391601562,796.1904907226562
1533,794.981689453125,783.6996459960938,796.996337890625,787.7289428710938
1534,793.7728881835938,792.1611938476562,800.6226806640625,790.952392578125
1535,787.7289428710938,796.996337890625,795.7875366210938,790.5494384765625
1536,784.5054931640625,792.1611938476562,795.3846435546875,786.923095703125
1537,785.7142944335938,793.7728881835938,794.1758422851562,786.1171875
1538,790.952392578125,797.8021850585938,794.1758422851562,790.1465454101562
1539,798.2051391601562,796.5933837890625,799.4139404296875,786.923095703125
1540,802.2344360351562,795.7875366210938,800.6226806640625,787.3259887695312
1541,796.996337890625,800.2197875976562,801.8314819335938,789.3406372070312
1542,796.5933837890625,799.010986328125,802.2344360351562,792.5640869140625
1543,797.8021850585938,795.7875366210938,803.8461303710938,797.3992919921875
1544,795.7875366210938,795.3846435546875,803.040283203125,792.5640869140625
1545,800.6226806640625,795.7875366210938,799.010986328125,792.967041015625
1546,798.2051391601562,796.5933837890625,798.6080322265625,795.7875366210938
1547,792.1611938476562,798.2051391601562,794.1758422851562,794.5787353515625
1548,792.5640869140625,794.981689453125,798.2051391601562,792.1611938476562
1549,799.010986328125,791.7582397460938,799.010986328125,795.7875366210938
1550,799.010986328125,788.937744140625,798.6080322265625,798.6080322265625
1551,792.1611938476562,786.923095703125,803.8461303710938,795.3846435546875
1552,789.3406372070312,782.087890625,801.8314819335938,794.1758422851562
1553,790.5494384765625,780.4761962890625,800.6226806640625,790.1465454101562
1554,797.3992919921875,787.7289428710938,801.8314819335938,797.8021850585938
1555,790.5494384765625,788.5347900390625,798.6080322265625,794.5787353515625
1556,778.8644409179688,783.6996459960938,792.5640869140625,781.6849975585938
1557,777.6557006835938,783.2966918945312,792.5640869140625,785.3113403320312
1558,777.2527465820312,786.1171875,793.7728881835938,787.7289428710938
1559,783.6996459960938,786.5201416015625,791.3552856445312,781.2820434570312
1560,791.7582397460938,786.923095703125,793.3699340820312,779.6703491210938
1561,792.1611938476562,788.937744140625,793.3699340820312,780.879150390625
1562,786.5201416015625,786.5201416015625,788.5347900390625,782.4908447265625
1563,786.923095703125,785.7142944335938,787.3259887695312,783.6996459960938
1564,789.3406372070312,786.1171875,788.937744140625,778.05859375
1565,793.7728881835938,785.7142944335938,788.937744140625,774.029296875
1566,798.2051391601562,788.1318969726562,788.937744140625,779.6703491210938
1567,796.1904907226562,789.3406372070312,791.7582397460938,787.3259887695312
1568,799.010986328125,786.923095703125,794.1758422851562,787.3259887695312
1569,796.1904907226562,786.5201416015625,791.3552856445312,791.3552856445312
1570,795.7875366210938,787.3259887695312,793.3699340820312,793.3699340820312
1571,796.1904907226562,786.923095703125,795.3846435546875,785.3113403320312
1572,788.937744140625,790.1465454101562,793.7728881835938,784.5054931640625
1573,791.3552856445312,792.5640869140625,796.996337890625,789.3406372070312
1574,790.952392578125,792.5640869140625,800.6226806640625,788.1318969726562
1575,788.5347900390625,792.967041015625,801.8314819335938,790.5494384765625
1576,790.952392578125,791.3552856445312,804.6520385742188,792.967041015625
1577,787.3259887695312,791.3552856445312,801.4285888671875,792.5640869140625
1578,784.908447265625,791.3552856445312,799.010986328125,792.967041015625
1579,781.6849975585938,785.7142944335938,799.010986328125,783.6996459960938
1580,783.6996459960938,785.7142944335938,796.1904907226562,785.3113403320312
1581,784.1025390625,785.7142944335938,795.3846435546875,788.1318969726562
1582,788.5347900390625,784.5054931640625,799.010986328125,785.3113403320312
1583,789.7435913085938,787.3259887695312,801.025634765625,790.1465454101562
1584,791.7582397460938,791.3552856445312,800.2197875976562,794.1758422851562
