timestamp,RAW_TP9,RAW_AF7,RAW_AF8,RAW_TP10
1,821.1721801757812,765.970703125,824.3956298828125,830.4395751953125
2,812.3076782226562,761.1355590820312,826.8131713867188,822.7838745117188
3,814.7252807617188,762.3442993164062,824.7985229492188,826.8131713867188
4,826.00732421875,762.3442993164062,821.5750732421875,836.886474609375
5,834.06591796875,762.7472534179688,819.1575317382812,843.7362670898438
6,832.8571166992188,769.1941528320312,817.1428833007812,839.7069702148438
7,824.7985229492188,771.6116943359375,812.3076782226562,831.2454223632812
8,821.5750732421875,772.4176025390625,808.6813354492188,817.1428833007812
9,821.1721801757812,772.8204956054688,808.6813354492188,813.91943359375
10,820.7692260742188,774.029296875,807.87548828125,816.3369750976562
11,819.5604248046875,780.0732421875,804.6520385742188,811.098876953125
12,817.1428833007812,779.6703491210938,805.054931640625,803.4432373046875
13,816.3369750976562,775.6410522460938,804.2490844726562,808.2783813476562
14,814.7252807617188,779.6703491210938,801.8314819335938,813.91943359375
15,810.6959838867188,779.6703491210938,806.6666870117188,812.3076782226562
16,804.2490844726562,776.8497924804688,807.069580078125,807.87548828125
17,802.2344360351562,777.2527465820312,804.2490844726562,806.6666870117188
18,809.89013671875,777.6557006835938,809.084228515625,816.3369750976562
19,809.4871826171875,780.879150390625,813.5164794921875,813.113525390625
20,805.4578857421875,784.1025390625,817.5457763671875,805.054931640625
21,801.8314819335938,777.2527465820312,814.3223266601562,806.2637329101562
22,795.7875366210938,772.8204956054688,812.3076782226562,809.4871826171875
23,796.1904907226562,779.6703491210938,818.3516235351562,810.6959838867188
24,800.6226806640625,779.6703491210938,815.93408203125,804.6520385742188
25,805.054931640625,777.6557006835938,809.4871826171875,810.2930297851562
26,807.87548828125,775.2380981445312,809.89013671875,814.7252807617188
27,800.6226806640625,770.0,806.2637329101562,801.4285888671875
28,802.2344360351562,776.4468994140625,803.4432373046875,795.3846435546875
29,803.040283203125,778.8644409179688,803.8461303710938,800.6226806640625
30,801.4285888671875,778.05859375,800.6226806640625,804.6520385742188
31,808.2783813476562,782.4908447265625,802.6373901367188,805.8607788085938
32,801.025634765625,778.8644409179688,797.3992919921875,801.025634765625
33,796.5933837890625,777.6557006835938,794.981689453125,792.5640869140625
34,800.6226806640625,780.4761962890625,796.996337890625,785.7142944335938
35,799.8168334960938,782.087890625,794.981689453125,783.6996459960938
36,802.6373901367188,784.1025390625,790.5494384765625,788.937744140625
37,806.6666870117188,791.3552856445312,794.1758422851562,794.5787353515625
38,797.3992919921875,796.5933837890625,799.010986328125,793.7728881835938
39,793.7728881835938,795.3846435546875,796.996337890625,791.3552856445312
40,798.6080322265625,791.3552856445312,800.2197875976562,792.5640869140625
41,793.3699340820312,790.952392578125,803.4432373046875,799.4139404296875
42,786.1171875,795.7875366210938,801.4285888671875,797.3992919921875
43,781.6849975585938,795.7875366210938,794.1758422851562,785.7142944335938
44,781.6849975585938,789.3406372070312,792.5640869140625,786.5201416015625
45,786.1171875,787.3259887695312,792.967041015625,791.3552856445312
46,796.1904907226562,786.1171875,785.7142944335938,793.7728881835938
47,795.7875366210938,787.3259887695312,789.7435913085938,802.2344360351562
48,778.8644409179688,788.1318969726562,796.996337890625,795.7875366210938
49,781.2820434570312,781.6849975585938,796.996337890625,784.5054931640625
50,786.1171875,780.0732421875,796.996337890625,792.1611938476562
51,781.2820434570312,777.2527465820312,797.8021850585938,803.040283203125
52,790.952392578125,769.5970458984375,803.8461303710938,801.8314819335938
53,803.4432373046875,771.6116943359375,801.8314819335938,805.8607788085938
54,799.4139404296875,778.05859375,803.4432373046875,807.069580078125
55,795.7875366210938,781.6849975585938,801.8314819335938,802.6373901367188
56,803.040283203125,788.5347900390625,798.2051391601562,807.069580078125
57,801.025634765625,783.6996459960938,802.6373901367188,806.2637329101562
58,796.5933837890625,772.0146484375,802.2344360351562,802.6373901367188
59,796.996337890625,781.6849975585938,798.2051391601562,801.025634765625
60,796.1904907226562,784.5054931640625,798.6080322265625,796.996337890625
61,792.5640869140625,786.5201416015625,793.3699340820312,792.967041015625
62,786.1171875,792.1611938476562,789.3406372070312,789.7435913085938
63,783.6996459960938,784.908447265625,791.7582397460938,791.7582397460938
64,783.6996459960938,786.5201416015625,796.1904907226562,793.7728881835938
65,781.6849975585938,792.1611938476562,795.3846435546875,788.937744140625
66,784.908447265625,792.5640869140625,792.967041015625,788.5347900390625
67,786.1171875,788.1318969726562,794.981689453125,792.5640869140625
68,786.5201416015625,785.3113403320312,796.1904907226562,798.2051391601562
69,783.6996459960938,780.879150390625,794.981689453125,794.5787353515625
70,782.893798828125,777.6557006835938,792.1611938476562,789.7435913085938
71,788.937744140625,778.8644409179688,795.3846435546875,794.1758422851562
72,784.1025390625,778.8644409179688,795.7875366210938,793.7728881835938
73,780.0732421875,779.6703491210938,794.5787353515625,793.7728881835938
74,779.2673950195312,780.879150390625,794.5787353515625,796.996337890625
75,781.6849975585938,782.893798828125,791.3552856445312,799.8168334960938
76,786.923095703125,782.893798828125,791.7582397460938,799.4139404296875
77,794.1758422851562,782.087890625,789.3406372070312,803.4432373046875
78,794.1758422851562,782.893798828125,790.1465454101562,796.1904907226562
79,792.967041015625,781.6849975585938,795.3846435546875,787.7289428710938
80,792.5640869140625,784.1025390625,794.1758422851562,789.3406372070312
81,792.1611938476562,790.5494384765625,792.1611938476562,782.4908447265625
82,804.6520385742188,793.3699340820312,793.7728881835938,782.087890625
83,801.8314819335938,796.5933837890625,796.1904907226562,784.1025390625
84,789.7435913085938,794.5787353515625,794.981689453125,776.8497924804688
85,794.981689453125,790.5494384765625,790.952392578125,771.2088012695312
86,795.7875366210938,792.1611938476562,788.5347900390625,778.8644409179688
87,792.1611938476562,794.5787353515625,792.1611938476562,783.6996459960938
88,782.087890625,791.3552856445312,793.3699340820312,780.0732421875
89,777.6557006835938,789.7435913085938,789.3406372070312,777.2527465820312
90,778.05859375,795.3846435546875,789.7435913085938,778.8644409179688
91,780.879150390625,797.3992919921875,792.1611938476562,790.952392578125
92,785.3113403320312,799.010986328125,794.981689453125,794.1758422851562
93,782.893798828125,795.3846435546875,794.981689453125,784.5054931640625
94,776.8497924804688,788.937744140625,790.5494384765625,783.6996459960938
95,779.2673950195312,788.1318969726562,790.5494384765625,782.4908447265625
96,780.0732421875,788.937744140625,791.7582397460938,782.087890625
97,784.1025390625,794.5787353515625,793.7728881835938,786.1171875
98,787.3259887695312,793.3699340820312,793.3699340820312,783.6996459960938
99,786.5201416015625,789.3406372070312,793.7728881835938,781.2820434570312
100,789.3406372070312,793.7728881835938,794.1758422851562,783.6996459960938
101,791.3552856445312,793.3699340820312,791.3552856445312,784.908447265625
102,790.1465454101562,784.908447265625,792.5640869140625,785.3113403320312
103,784.908447265625,779.2673950195312,789.7435913085938,781.6849975585938
104,785.3113403320312,781.6849975585938,789.7435913085938,775.6410522460938
105,783.6996459960938,790.5494384765625,792.1611938476562,772.4176025390625
106,784.1025390625,795.3846435546875,794.5787353515625,785.3113403320312
107,791.7582397460938,794.981689453125,801.4285888671875,794.1758422851562
108,794.1758422851562,790.1465454101562,804.6520385742188,790.1465454101562
109,790.5494384765625,790.5494384765625,803.8461303710938,788.5347900390625
110,788.1318969726562,796.1904907226562,791.7582397460938,788.1318969726562
111,790.952392578125,794.5787353515625,787.3259887695312,790.1465454101562
112,795.3846435546875,791.3552856445312,793.7728881835938,796.996337890625
113,790.1465454101562,793.3699340820312,793.7728881835938,792.1611938476562
114,785.7142944335938,796.1904907226562,795.3846435546875,783.2966918945312
115,788.5347900390625,796.996337890625,795.7875366210938,780.4761962890625
116,792.967041015625,796.996337890625,793.7728881835938,776.4468994140625
117,798.6080322265625,793.3699340820312,791.7582397460938,780.4761962890625
118,796.1904907226562,793.7728881835938,787.3259887695312,792.5640869140625
119,788.5347900390625,793.7728881835938,787.7289428710938,792.5640869140625
120,785.3113403320312,792.5640869140625,790.952392578125,788.1318969726562
121,788.1318969726562,790.1465454101562,790.952392578125,792.1611938476562
122,797.3992919921875,790.952392578125,793.7728881835938,795.7875366210938
123,807.069580078125,798.6080322265625,795.7875366210938,799.010986328125
124,802.2344360351562,792.1611938476562,796.5933837890625,799.010986328125
125,796.996337890625,787.7289428710938,797.8021850585938,802.6373901367188
126,795.7875366210938,792.1611938476562,793.3699340820312,794.1758422851562
127,795.3846435546875,791.3552856445312,786.5201416015625,786.1171875
128,799.010986328125,791.7582397460938,785.7142944335938,788.937744140625
129,794.5787353515625,789.3406372070312,785.3113403320312,793.7728881835938
130,787.3259887695312,793.3699340820312,790.952392578125,794.981689453125
131,783.2966918945312,791.3552856445312,796.5933837890625,787.7289428710938
132,788.1318969726562,787.7289428710938,798.6080322265625,791.3552856445312
133,792.1611938476562,791.3552856445312,801.025634765625,792.1611938476562
134,792.5640869140625,786.923095703125,799.8168334960938,795.3846435546875
135,797.8021850585938,783.6996459960938,799.4139404296875,803.040283203125
136,796.5933837890625,783.2966918945312,798.2051391601562,801.4285888671875
137,785.7142944335938,783.2966918945312,793.7728881835938,790.5494384765625
138,786.5201416015625,788.1318969726562,796.996337890625,786.1171875
139,792.1611938476562,793.3699340820312,794.981689453125,786.5201416015625
140,792.1611938476562,791.7582397460938,794.1758422851562,786.923095703125
141,790.1465454101562,788.5347900390625,795.3846435546875,791.7582397460938
142,785.3113403320312,783.6996459960938,789.3406372070312,787.7289428710938
143,788.5347900390625,782.4908447265625,787.3259887695312,780.4761962890625
144,794.1758422851562,787.3259887695312,790.952392578125,777.2527465820312
145,796.5933837890625,792.967041015625,795.3846435546875,779.6703491210938
146,792.967041015625,799.010986328125,795.7875366210938,782.893798828125
147,790.5494384765625,792.967041015625,794.5787353515625,785.3113403320312
148,796.5933837890625,790.1465454101562,795.7875366210938,793.7728881835938
149,798.2051391601562,792.5640869140625,798.6080322265625,797.8021850585938
150,801.025634765625,787.7289428710938,799.8168334960938,797.3992919921875
151,799.4139404296875,787.7289428710938,801.025634765625,794.5787353515625
152,794.981689453125,790.1465454101562,799.010986328125,799.8168334960938
153,793.7728881835938,789.3406372070312,794.5787353515625,799.010986328125
154,794.5787353515625,786.5201416015625,789.3406372070312,784.908447265625
155,793.7728881835938,784.908447265625,788.5347900390625,785.7142944335938
156,787.3259887695312,786.1171875,789.3406372070312,781.2820434570312
157,786.5201416015625,788.1318969726562,789.7435913085938,776.8497924804688
158,792.5640869140625,789.7435913085938,790.5494384765625,779.6703491210938
159,796.996337890625,794.5787353515625,793.3699340820312,782.087890625
160,796.1904907226562,794.5787353515625,795.7875366210938,786.5201416015625
161,793.3699340820312,792.967041015625,797.3992919921875,788.1318969726562
162,788.937744140625,789.7435913085938,796.1904907226562,784.5054931640625
163,790.5494384765625,783.2966918945312,792.1611938476562,783.2966918945312
164,789.7435913085938,786.923095703125,792.967041015625,785.7142944335938
165,783.2966918945312,786.923095703125,792.5640869140625,788.1318969726562
166,781.6849975585938,779.6703491210938,789.3406372070312,785.3113403320312
167,783.6996459960938,781.2820434570312,790.1465454101562,780.0732421875
168,787.3259887695312,782.893798828125,787.3259887695312,778.05859375
169,790.952392578125,779.6703491210938,784.1025390625,778.4615478515625
170,790.5494384765625,782.087890625,787.3259887695312,782.087890625
171,789.7435913085938,789.3406372070312,788.1318969726562,780.0732421875
172,786.923095703125,789.3406372070312,786.923095703125,778.8644409179688
173,788.5347900390625,789.3406372070312,788.5347900390625,783.2966918945312
174,793.7728881835938,792.967041015625,785.7142944335938,779.6703491210938
175,790.5494384765625,790.1465454101562,786.923095703125,782.4908447265625
176,785.3113403320312,787.3259887695312,792.967041015625,790.952392578125
177,792.5640869140625,790.1465454101562,795.7875366210938,786.5201416015625
178,805.054931640625,793.3699340820312,795.7875366210938,786.923095703125
179,798.6080322265625,795.3846435546875,796.1904907226562,789.3406372070312
180,792.967041015625,797.3992919921875,796.5933837890625,793.3699340820312
181,794.981689453125,795.3846435546875,795.3846435546875,799.010986328125
182,791.3552856445312,792.967041015625,797.3992919921875,794.5787353515625
183,792.967041015625,793.7728881835938,799.4139404296875,790.952392578125
184,796.996337890625,786.1171875,800.6226806640625,790.1465454101562
185,794.981689453125,786.5201416015625,799.8168334960938,788.1318969726562
186,790.5494384765625,793.7728881835938,802.2344360351562,790.5494384765625
187,782.4908447265625,791.3552856445312,801.8314819335938,795.7875366210938
188,781.2820434570312,786.5201416015625,795.7875366210938,791.7582397460938
189,788.1318969726562,787.3259887695312,799.010986328125,790.1465454101562
190,795.7875366210938,791.3552856445312,801.8314819335938,801.4285888671875
191,795.3846435546875,790.952392578125,803.4432373046875,805.8607788085938
192,788.5347900390625,789.3406372070312,801.8314819335938,796.1904907226562
193,788.1318969726562,791.3552856445312,795.7875366210938,795.3846435546875
194,790.1465454101562,787.7289428710938,788.937744140625,797.3992919921875
195,794.5787353515625,786.5201416015625,793.3699340820312,799.010986328125
196,796.1904907226562,792.5640869140625,795.7875366210938,797.3992919921875
197,796.1904907226562,791.7582397460938,794.5787353515625,796.996337890625
198,801.4285888671875,792.5640869140625,801.4285888671875,805.8607788085938
199,805.054931640625,794.981689453125,801.8314819335938,806.2637329101562
200,801.8314819335938,793.3699340820312,800.6226806640625,795.7875366210938
201,795.7875366210938,792.967041015625,802.2344360351562,791.7582397460938
202,794.981689453125,794.981689453125,799.010986328125,796.996337890625
203,796.996337890625,796.1904907226562,797.8021850585938,803.4432373046875
204,805.8607788085938,793.3699340820312,798.6080322265625,801.025634765625
205,802.2344360351562,789.7435913085938,793.7728881835938,791.7582397460938
206,792.5640869140625,794.5787353515625,790.5494384765625,786.5201416015625
207,795.3846435546875,796.5933837890625,794.1758422851562,785.3113403320312
208,790.952392578125,794.1758422851562,794.1758422851562,779.2673950195312
209,790.5494384765625,793.3699340820312,789.3406372070312,779.2673950195312
210,796.996337890625,794.1758422851562,786.923095703125,780.0732421875
211,798.2051391601562,796.1904907226562,785.3113403320312,780.4761962890625
212,794.1758422851562,796.1904907226562,786.5201416015625,785.7142944335938
213,791.3552856445312,788.5347900390625,788.937744140625,790.5494384765625
214,792.1611938476562,784.5054931640625,790.5494384765625,790.952392578125
215,787.3259887695312,781.6849975585938,788.937744140625,785.3113403320312
216,783.6996459960938,782.4908447265625,792.1611938476562,788.937744140625
217,789.3406372070312,786.1171875,800.2197875976562,797.3992919921875
218,787.7289428710938,786.5201416015625,792.5640869140625,797.3992919921875
219,788.5347900390625,791.3552856445312,790.1465454101562,795.3846435546875
220,796.5933837890625,790.1465454101562,797.3992919921875,791.3552856445312
221,789.3406372070312,781.2820434570312,794.981689453125,791.7582397460938
222,778.8644409179688,787.7289428710938,791.7582397460938,798.6080322265625
223,781.6849975585938,794.981689453125,792.967041015625,794.981689453125
224,788.5347900390625,793.3699340820312,793.3699340820312,788.1318969726562
225,790.1465454101562,790.1465454101562,795.7875366210938,789.3406372070312
226,789.7435913085938,792.1611938476562,794.981689453125,787.7289428710938
227,788.937744140625,796.996337890625,795.7875366210938,785.7142944335938
228,788.1318969726562,792.5640869140625,796.996337890625,779.2673950195312
229,788.1318969726562,789.3406372070312,797.3992919921875,780.879150390625
230,794.1758422851562,795.7875366210938,802.6373901367188,784.5054931640625
231,793.7728881835938,801.025634765625,796.5933837890625,780.0732421875
232,781.6849975585938,799.010986328125,789.7435913085938,782.893798828125
233,777.6557006835938,796.1904907226562,791.3552856445312,784.1025390625
234,786.5201416015625,798.6080322265625,792.1611938476562,781.6849975585938
235,786.5201416015625,794.981689453125,797.3992919921875,785.7142944335938
236,782.087890625,788.5347900390625,794.1758422851562,787.3259887695312
237,785.3113403320312,792.967041015625,786.923095703125,789.3406372070312
238,791.7582397460938,797.8021850585938,790.5494384765625,786.1171875
239,794.1758422851562,799.010986328125,798.2051391601562,788.5347900390625
240,799.010986328125,802.2344360351562,799.8168334960938,797.8021850585938
241,801.025634765625,802.6373901367188,792.5640869140625,792.5640869140625
242,790.1465454101562,799.010986328125,790.1465454101562,788.937744140625
243,784.1025390625,797.8021850585938,790.952392578125,790.5494384765625
244,788.1318969726562,798.2051391601562,788.5347900390625,794.5787353515625
245,791.3552856445312,794.981689453125,788.937744140625,796.996337890625
246,797.3992919921875,798.6080322265625,788.937744140625,798.6080322265625
247,796.996337890625,805.4578857421875,791.3552856445312,802.6373901367188
248,791.3552856445312,796.5933837890625,791.3552856445312,802.6373901367188
249,793.7728881835938,791.3552856445312,787.3259887695312,801.025634765625
250,797.8021850585938,796.5933837890625,790.1465454101562,796.996337890625
251,793.3699340820312,796.1904907226562,792.1611938476562,792.967041015625
252,781.6849975585938,791.3552856445312,788.5347900390625,790.952392578125
253,775.2380981445312,790.5494384765625,783.6996459960938,783.2966918945312
254,772.4176025390625,787.3259887695312,784.908447265625,781.2820434570312
255,779.6703491210938,785.3113403320312,792.1611938476562,789.7435913085938
256,788.1318969726562,784.908447265625,791.7582397460938,786.5201416015625
257,786.923095703125,782.4908447265625,784.1025390625,776.4468994140625
258,781.2820434570312,784.908447265625,783.2966918945312,771.6116943359375
259,778.4615478515625,783.2966918945312,787.3259887695312,773.2234497070312
260,786.5201416015625,785.3113403320312,788.937744140625,784.1025390625
261,788.937744140625,786.5201416015625,789.7435913085938,783.6996459960938
262,788.5347900390625,783.2966918945312,786.923095703125,777.6557006835938
263,789.3406372070312,782.4908447265625,785.3113403320312,780.4761962890625
264,786.5201416015625,780.879150390625,784.5054931640625,783.6996459960938
265,782.087890625,780.4761962890625,779.2673950195312,782.087890625
266,777.6557006835938,780.4761962890625,778.4615478515625,784.1025390625
267,778.8644409179688,780.4761962890625,778.4615478515625,784.5054931640625
268,783.6996459960938,784.1025390625,778.8644409179688,780.4761962890625
269,781.2820434570312,786.1171875,779.2673950195312,783.2966918945312
270,782.4908447265625,788.5347900390625,778.4615478515625,783.2966918945312
271,786.923095703125,790.1465454101562,776.8497924804688,786.923095703125
272,788.1318969726562,790.5494384765625,780.0732421875,788.5347900390625
273,783.6996459960938,788.5347900390625,783.6996459960938,781.6849975585938
274,781.6849975585938,787.3259887695312,781.6849975585938,782.4908447265625
275,791.3552856445312,795.3846435546875,784.5054931640625,790.1465454101562
276,795.7875366210938,795.7875366210938,786.923095703125,791.3552856445312
277,792.967041015625,787.3259887695312,790.952392578125,794.5787353515625
278,795.7875366210938,788.1318969726562,794.5787353515625,797.3992919921875
279,793.3699340820312,792.967041015625,790.1465454101562,790.952392578125
280,788.1318969726562,790.5494384765625,784.908447265625,783.2966918945312
281,792.967041015625,788.5347900390625,788.937744140625,786.1171875
282,796.996337890625,785.3113403320312,793.3699340820312,788.937744140625
283,787.3259887695312,786.923095703125,794.5787353515625,786.1171875
284,780.0732421875,788.5347900390625,793.7728881835938,780.879150390625
285,782.4908447265625,787.7289428710938,792.1611938476562,785.3113403320312
286,789.3406372070312,791.3552856445312,795.3846435546875,799.010986328125
287,787.7289428710938,794.1758422851562,796.1904907226562,794.5787353515625
288,792.1611938476562,797.8021850585938,795.3846435546875,792.967041015625
289,792.1611938476562,799.010986328125,796.996337890625,791.7582397460938
290,791.3552856445312,794.5787353515625,796.996337890625,788.937744140625
291,796.996337890625,794.5787353515625,796.996337890625,796.996337890625
292,791.3552856445312,794.1758422851562,796.1904907226562,799.4139404296875
293,792.967041015625,797.8021850585938,793.7728881835938,795.7875366210938
294,796.996337890625,802.2344360351562,795.3846435546875,793.3699340820312
295,793.7728881835938,801.8314819335938,798.6080322265625,796.5933837890625
296,793.3699340820312,803.040283203125,798.2051391601562,796.1904907226562
297,794.5787353515625,799.8168334960938,792.1611938476562,790.952392578125
298,792.1611938476562,788.937744140625,790.5494384765625,792.967041015625
299,794.5787353515625,790.5494384765625,794.1758422851562,794.1758422851562
300,794.1758422851562,800.6226806640625,799.010986328125,792.5640869140625
301,787.7289428710938,799.8168334960938,801.8314819335938,792.1611938476562
302,789.3406372070312,796.5933837890625,800.6226806640625,794.981689453125
303,788.5347900390625,795.3846435546875,799.010986328125,796.5933837890625
304,782.893798828125,796.1904907226562,799.8168334960938,791.3552856445312
305,781.6849975585938,796.5933837890625,799.010986328125,785.3113403320312
306,784.908447265625,796.1904907226562,794.1758422851562,788.1318969726562
307,791.7582397460938,796.1904907226562,792.967041015625,789.7435913085938
308,795.7875366210938,796.5933837890625,793.7728881835938,788.5347900390625
309,798.6080322265625,795.3846435546875,796.1904907226562,795.7875366210938
310,799.8168334960938,790.952392578125,797.8021850585938,794.981689453125
311,794.981689453125,786.1171875,798.6080322265625,784.5054931640625
312,793.3699340820312,787.7289428710938,794.5787353515625,782.893798828125
313,792.5640869140625,788.5347900390625,788.937744140625,780.0732421875
314,790.1465454101562,791.3552856445312,784.908447265625,772.8204956054688
315,792.967041015625,793.7728881835938,787.7289428710938,783.6996459960938
316,790.952392578125,793.7728881835938,796.1904907226562,789.3406372070312
317,790.952392578125,799.010986328125,792.1611938476562,786.5201416015625
318,798.6080322265625,802.6373901367188,788.5347900390625,788.1318969726562
319,792.1611938476562,800.2197875976562,789.7435913085938,780.879150390625
320,784.1025390625,794.5787353515625,788.5347900390625,777.6557006835938
321,788.937744140625,790.952392578125,787.3259887695312,783.6996459960938
322,794.5787353515625,798.2051391601562,785.7142944335938,791.3552856445312
323,790.952392578125,799.010986328125,785.3113403320312,788.5347900390625
324,792.1611938476562,794.5787353515625,790.1465454101562,785.7142944335938
325,792.5640869140625,798.6080322265625,792.5640869140625,782.4908447265625
326,790.5494384765625,794.981689453125,788.1318969726562,783.6996459960938
327,791.7582397460938,789.3406372070312,786.923095703125,785.7142944335938
328,785.3113403320312,792.1611938476562,788.1318969726562,786.1171875
329,788.5347900390625,794.5787353515625,792.5640869140625,786.5201416015625
330,790.952392578125,794.1758422851562,792.967041015625,786.923095703125
331,781.2820434570312,793.7728881835938,786.1171875,781.2820434570312
332,778.8644409179688,789.7435913085938,788.1318969726562,783.6996459960938
333,781.2820434570312,785.3113403320312,791.7582397460938,788.937744140625
334,783.2966918945312,785.7142944335938,788.5347900390625,782.893798828125
335,785.7142944335938,783.2966918945312,790.5494384765625,777.6557006835938
336,788.1318969726562,783.6996459960938,792.5640869140625,780.4761962890625
337,790.952392578125,789.7435913085938,789.7435913085938,781.2820434570312
338,790.5494384765625,790.952392578125,789.3406372070312,778.4615478515625
339,789.7435913085938,790.5494384765625,791.7582397460938,784.1025390625
340,780.4761962890625,787.7289428710938,783.6996459960938,782.087890625
341,775.2380981445312,789.7435913085938,778.8644409179688,779.2673950195312
342,789.7435913085938,797.8021850585938,783.6996459960938,777.6557006835938
343,801.4285888671875,803.040283203125,786.923095703125,782.087890625
344,790.952392578125,796.996337890625,788.5347900390625,787.3259887695312
345,784.1025390625,794.1758422851562,788.5347900390625,791.7582397460938
346,790.952392578125,801.4285888671875,788.5347900390625,793.3699340820312
347,794.5787353515625,802.2344360351562,790.1465454101562,789.3406372070312
348,799.4139404296875,795.7875366210938,795.3846435546875,791.7582397460938
349,801.8314819335938,794.5787353515625,794.5787353515625,794.5787353515625
350,787.7289428710938,792.967041015625,790.952392578125,790.5494384765625
351,788.937744140625,787.3259887695312,792.5640869140625,789.7435913085938
352,803.4432373046875,790.5494384765625,793.3699340820312,796.996337890625
353,800.2197875976562,789.3406372070312,793.7728881835938,796.5933837890625
354,791.7582397460938,787.3259887695312,789.3406372070312,788.5347900390625
355,792.1611938476562,789.3406372070312,782.893798828125,789.3406372070312
356,793.7728881835938,791.3552856445312,784.908447265625,793.7728881835938
357,788.1318969726562,796.996337890625,788.5347900390625,792.967041015625
358,791.3552856445312,794.981689453125,788.1318969726562,790.952392578125
359,795.7875366210938,792.5640869140625,789.3406372070312,787.3259887695312
360,796.1904907226562,794.981689453125,790.1465454101562,790.952392578125
361,792.1611938476562,795.7875366210938,791.7582397460938,788.5347900390625
362,789.7435913085938,792.1611938476562,791.7582397460938,786.923095703125
363,790.5494384765625,790.952392578125,795.3846435546875,791.3552856445312
364,787.7289428710938,790.5494384765625,798.6080322265625,787.3259887695312
365,785.3113403320312,790.1465454101562,793.7728881835938,787.3259887695312
366,785.7142944335938,786.923095703125,790.1465454101562,790.5494384765625
367,787.7289428710938,785.3113403320312,790.5494384765625,793.7728881835938
368,796.1904907226562,789.3406372070312,788.5347900390625,796.996337890625
369,796.996337890625,794.1758422851562,788.937744140625,796.996337890625
370,789.7435913085938,792.967041015625,792.967041015625,798.6080322265625
371,793.3699340820312,791.3552856445312,793.7728881835938,804.2490844726562
372,789.7435913085938,797.3992919921875,794.1758422851562,801.4285888671875
373,786.1171875,794.5787353515625,789.3406372070312,784.5054931640625
374,796.996337890625,794.1758422851562,786.1171875,788.1318969726562
375,796.5933837890625,794.5787353515625,784.908447265625,793.3699340820312
376,785.3113403320312,790.1465454101562,786.1171875,787.7289428710938
377,781.2820434570312,792.967041015625,790.5494384765625,788.5347900390625
378,777.6557006835938,794.981689453125,791.7582397460938,788.1318969726562
379,782.087890625,792.1611938476562,791.7582397460938,787.3259887695312
380,791.3552856445312,790.952392578125,796.1904907226562,786.1171875
381,794.981689453125,791.3552856445312,800.6226806640625,776.0439453125
382,795.3846435546875,792.1611938476562,801.8314819335938,779.2673950195312
383,795.3846435546875,792.1611938476562,800.6226806640625,794.5787353515625
384,799.010986328125,790.952392578125,803.040283203125,799.010986328125
385,792.5640869140625,786.923095703125,806.2637329101562,794.1758422851562
386,789.3406372070312,785.3113403320312,804.6520385742188,789.3406372070312
387,790.952392578125,792.5640869140625,802.6373901367188,787.7289428710938
388,783.2966918945312,792.1611938476562,798.6080322265625,784.5054931640625
389,782.4908447265625,784.1025390625,798.2051391601562,781.6849975585938
390,791.3552856445312,784.5054931640625,797.8021850585938,785.3113403320312
391,787.7289428710938,786.923095703125,794.5787353515625,785.3113403320312
392,786.923095703125,786.1171875,790.5494384765625,781.2820434570312
393,795.3846435546875,788.1318969726562,791.7582397460938,781.6849975585938
394,794.1758422851562,789.3406372070312,790.5494384765625,788.5347900390625
395,790.952392578125,786.923095703125,789.7435913085938,784.908447265625
396,788.937744140625,787.7289428710938,793.7728881835938,782.087890625
397,785.3113403320312,788.5347900390625,795.3846435546875,784.5054931640625
398,787.7289428710938,787.7289428710938,794.1758422851562,783.6996459960938
399,794.981689453125,786.1171875,791.7582397460938,790.1465454101562
400,794.1758422851562,782.4908447265625,792.5640869140625,788.1318969726562
401,788.5347900390625,782.087890625,791.7582397460938,780.0732421875
402,788.5347900390625,786.1171875,788.5347900390625,777.2527465820312
403,784.908447265625,791.7582397460938,785.3113403320312,781.6849975585938
404,785.7142944335938,794.981689453125,788.1318969726562,790.5494384765625
405,794.1758422851562,795.7875366210938,794.1758422851562,796.1904907226562
406,795.3846435546875,790.1465454101562,794.5787353515625,790.5494384765625
407,794.1758422851562,787.3259887695312,793.7728881835938,779.2673950195312
408,797.3992919921875,796.1904907226562,790.5494384765625,783.6996459960938
409,799.4139404296875,792.1611938476562,788.1318969726562,790.1465454101562
410,790.952392578125,789.7435913085938,793.3699340820312,784.908447265625
411,782.4908447265625,792.5640869140625,796.996337890625,779.2673950195312
412,786.923095703125,788.5347900390625,796.1904907226562,780.4761962890625
413,790.1465454101562,788.5347900390625,796.996337890625,794.981689453125
414,794.1758422851562,792.1611938476562,796.5933837890625,803.4432373046875
415,798.2051391601562,793.3699340820312,799.4139404296875,795.3846435546875
416,789.7435913085938,792.967041015625,799.4139404296875,784.908447265625
417,785.7142944335938,790.1465454101562,796.5933837890625,782.087890625
418,786.5201416015625,786.1171875,794.981689453125,788.937744140625
419,786.5201416015625,788.5347900390625,790.952392578125,792.1611938476562
420,786.923095703125,791.3552856445312,790.952392578125,796.1904907226562
421,785.7142944335938,788.937744140625,792.967041015625,801.8314819335938
422,786.1171875,787.7289428710938,794.981689453125,793.7728881835938
423,785.7142944335938,784.1025390625,796.5933837890625,790.1465454101562
424,780.879150390625,780.4761962890625,793.7728881835938,792.5640869140625
425,786.1171875,787.7289428710938,797.8021850585938,801.8314819335938
426,791.7582397460938,788.937744140625,799.010986328125,805.4578857421875
427,788.1318969726562,784.5054931640625,790.952392578125,793.3699340820312
428,784.1025390625,787.7289428710938,786.1171875,789.3406372070312
429,787.3259887695312,783.2966918945312,786.1171875,794.981689453125
430,792.5640869140625,778.4615478515625,785.7142944335938,792.1611938476562
431,790.1465454101562,785.7142944335938,788.1318969726562,789.7435913085938
432,793.7728881835938,790.5494384765625,792.967041015625,796.996337890625
433,796.1904907226562,792.1611938476562,792.5640869140625,789.7435913085938
434,787.7289428710938,793.7728881835938,790.5494384765625,779.6703491210938
435,789.3406372070312,797.3992919921875,793.3699340820312,780.4761962890625
436,798.2051391601562,797.8021850585938,800.2197875976562,789.7435913085938
437,796.1904907226562,793.3699340820312,794.5787353515625,791.3552856445312
438,791.3552856445312,790.952392578125,791.7582397460938,790.1465454101562
439,799.8168334960938,792.1611938476562,799.010986328125,794.981689453125
440,798.6080322265625,788.1318969726562,793.7728881835938,793.7728881835938
441,794.1758422851562,782.893798828125,789.3406372070312,795.3846435546875
442,797.8021850585938,787.3259887695312,790.5494384765625,789.7435913085938
443,799.8168334960938,787.3259887695312,790.1465454101562,784.5054931640625
444,799.4139404296875,786.1171875,792.1611938476562,794.5787353515625
445,803.040283203125,792.5640869140625,793.7728881835938,798.2051391601562
446,803.040283203125,789.3406372070312,791.3552856445312,792.1611938476562
447,798.2051391601562,792.5640869140625,790.952392578125,787.3259887695312
448,795.7875366210938,796.5933837890625,794.5787353515625,784.5054931640625
449,789.3406372070312,789.3406372070312,788.937744140625,788.937744140625
450,786.923095703125,792.1611938476562,784.5054931640625,783.6996459960938
451,792.967041015625,792.967041015625,786.5201416015625,780.879150390625
452,792.5640869140625,791.7582397460938,786.5201416015625,786.923095703125
453,790.5494384765625,791.7582397460938,788.1318969726562,784.5054931640625
454,796.1904907226562,790.1465454101562,789.3406372070312,790.5494384765625
455,792.1611938476562,790.952392578125,789.7435913085938,790.952392578125
456,794.1758422851562,794.981689453125,784.1025390625,790.1465454101562
457,794.1758422851562,791.3552856445312,781.6849975585938,790.5494384765625
458,788.937744140625,787.7289428710938,784.5054931640625,783.2966918945312
459,792.1611938476562,789.3406372070312,789.3406372070312,782.4908447265625
460,796.996337890625,786.5201416015625,788.5347900390625,781.6849975585938
461,798.2051391601562,787.7289428710938,790.952392578125,783.2966918945312
462,797.8021850585938,786.5201416015625,793.3699340820312,790.1465454101562
463,802.6373901367188,786.5201416015625,789.7435913085938,793.3699340820312
464,800.2197875976562,788.937744140625,792.967041015625,791.3552856445312
465,795.3846435546875,788.1318969726562,793.3699340820312,784.908447265625
466,795.7875366210938,790.1465454101562,789.3406372070312,788.5347900390625
467,794.5787353515625,787.7289428710938,788.1318969726562,794.981689453125
468,789.3406372070312,788.5347900390625,792.1611938476562,799.010986328125
469,787.7289428710938,789.7435913085938,797.3992919921875,797.8021850585938
470,790.1465454101562,785.7142944335938,797.3992919921875,789.3406372070312
471,790.952392578125,789.7435913085938,800.2197875976562,796.996337890625
472,794.981689453125,795.3846435546875,801.4285888671875,809.4871826171875
473,797.8021850585938,792.1611938476562,799.8168334960938,808.6813354492188
474,794.1758422851562,787.7289428710938,799.4139404296875,799.010986328125
475,784.5054931640625,784.908447265625,792.1611938476562,792.967041015625
476,784.1025390625,782.087890625,792.967041015625,790.952392578125
477,792.967041015625,783.6996459960938,796.5933837890625,793.7728881835938
478,793.7728881835938,783.2966918945312,794.1758422851562,799.4139404296875
479,782.893798828125,782.893798828125,796.996337890625,792.1611938476562
480,778.05859375,785.3113403320312,792.967041015625,785.7142944335938
481,789.7435913085938,783.6996459960938,788.937744140625,781.2820434570312
482,791.7582397460938,784.908447265625,792.967041015625,774.8351440429688
483,781.2820434570312,786.5201416015625,792.1611938476562,774.4322509765625
484,776.8497924804688,788.5347900390625,791.7582397460938,772.8204956054688
485,780.0732421875,790.1465454101562,792.5640869140625,778.05859375
486,786.1171875,788.937744140625,794.1758422851562,789.7435913085938
487,786.5201416015625,788.1318969726562,797.8021850585938,788.1318969726562
488,786.1171875,792.1611938476562,794.1758422851562,784.1025390625
489,794.981689453125,790.1465454101562,793.7728881835938,790.952392578125
490,794.981689453125,792.1611938476562,796.1904907226562,793.3699340820312
491,789.7435913085938,793.3699340820312,793.7728881835938,786.1171875
492,790.5494384765625,789.7435913085938,792.967041015625,782.087890625
493,790.1465454101562,787.7289428710938,794.5787353515625,784.5054931640625
494,793.3699340820312,792.1611938476562,793.7728881835938,789.3406372070312
495,794.1758422851562,798.2051391601562,794.981689453125,794.981689453125
496,789.3406372070312,790.952392578125,792.5640869140625,802.2344360351562
497,789.7435913085938,785.7142944335938,791.3552856445312,806.2637329101562
498,792.1611938476562,790.952392578125,792.5640869140625,802.6373901367188
499,787.7289428710938,790.952392578125,792.1611938476562,797.3992919921875
500,786.1171875,792.1611938476562,795.7875366210938,792.967041015625
501,787.7289428710938,793.3699340820312,791.7582397460938,790.952392578125
502,786.5201416015625,783.6996459960938,791.3552856445312,798.2051391601562
503,783.6996459960938,785.3113403320312,793.3699340820312,800.2197875976562
504,780.4761962890625,790.952392578125,791.3552856445312,788.1318969726562
505,784.5054931640625,793.3699340820312,788.5347900390625,784.908447265625
506,782.4908447265625,789.3406372070312,790.952392578125,785.3113403320312
507,786.5201416015625,788.1318969726562,790.5494384765625,780.0732421875
508,790.5494384765625,793.3699340820312,791.7582397460938,782.4908447265625
509,782.893798828125,789.3406372070312,790.952392578125,792.1611938476562
510,780.4761962890625,785.7142944335938,784.5054931640625,793.7728881835938
511,784.1025390625,786.5201416015625,786.923095703125,786.1171875
512,783.6996459960938,786.5201416015625,788.937744140625,776.4468994140625
513,780.4761962890625,781.6849975585938,787.7289428710938,777.6557006835938
514,783.2966918945312,787.3259887695312,786.923095703125,789.7435913085938
515,783.6996459960938,790.952392578125,787.3259887695312,787.3259887695312
516,783.6996459960938,784.1025390625,788.1318969726562,781.6849975585938
517,789.7435913085938,779.6703491210938,784.5054931640625,784.908447265625
518,794.981689453125,782.087890625,790.5494384765625,779.2673950195312
519,788.937744140625,785.3113403320312,794.1758422851562,776.8497924804688
520,785.7142944335938,788.1318969726562,791.7582397460938,778.4615478515625
521,800.6226806640625,790.1465454101562,796.996337890625,788.5347900390625
522,801.025634765625,784.1025390625,797.8021850585938,794.5787353515625
523,788.1318969726562,780.4761962890625,790.952392578125,788.5347900390625
524,793.7728881835938,784.5054931640625,787.7289428710938,792.967041015625
525,796.1904907226562,783.2966918945312,793.7728881835938,800.6226806640625
526,789.7435913085938,788.1318969726562,796.996337890625,799.8168334960938
527,789.3406372070312,794.1758422851562,794.5787353515625,798.2051391601562
528,790.1465454101562,792.967041015625,787.7289428710938,801.025634765625
529,792.1611938476562,790.5494384765625,785.7142944335938,799.8168334960938
530,799.010986328125,796.996337890625,792.967041015625,798.6080322265625
531,805.8607788085938,803.8461303710938,792.1611938476562,805.4578857421875
532,800.6226806640625,791.3552856445312,787.7289428710938,802.2344360351562
533,794.1758422851562,782.893798828125,785.7142944335938,788.5347900390625
534,796.996337890625,790.1465454101562,788.937744140625,785.3113403320312
535,789.3406372070312,791.7582397460938,790.952392578125,788.937744140625
536,782.087890625,791.3552856445312,791.7582397460938,795.7875366210938
537,789.7435913085938,789.7435913085938,794.981689453125,796.5933837890625
538,793.7728881835938,785.3113403320312,793.7728881835938,790.5494384765625
539,793.7728881835938,789.7435913085938,788.5347900390625,782.087890625
540,790.5494384765625,796.5933837890625,789.3406372070312,776.4468994140625
541,787.3259887695312,794.5787353515625,795.3846435546875,782.4908447265625
542,784.5054931640625,785.7142944335938,790.1465454101562,782.893798828125
543,790.952392578125,784.1025390625,781.2820434570312,782.087890625
544,797.3992919921875,788.5347900390625,787.3259887695312,792.1611938476562
545,789.7435913085938,794.5787353515625,787.3259887695312,793.3699340820312
546,788.937744140625,797.8021850585938,783.2966918945312,784.1025390625
547,798.6080322265625,793.3699340820312,788.1318969726562,790.5494384765625
548,803.4432373046875,792.967041015625,794.5787353515625,799.8168334960938
549,794.981689453125,796.1904907226562,790.5494384765625,794.1758422851562
550,788.937744140625,794.1758422851562,785.7142944335938,787.3259887695312
551,793.7728881835938,796.5933837890625,789.3406372070312,790.1465454101562
552,791.7582397460938,797.3992919921875,790.1465454101562,792.967041015625
553,796.1904907226562,794.981689453125,792.5640869140625,798.2051391601562
554,797.3992919921875,792.5640869140625,786.923095703125,801.4285888671875
555,791.7582397460938,790.1465454101562,782.4908447265625,790.5494384765625
556,793.7728881835938,788.1318969726562,786.923095703125,789.7435913085938
557,792.5640869140625,792.1611938476562,790.5494384765625,790.952392578125
558,794.5787353515625,794.981689453125,794.981689453125,790.1465454101562
559,797.3992919921875,795.7875366210938,793.3699340820312,799.8168334960938
560,788.5347900390625,798.2051391601562,792.5640869140625,802.2344360351562
561,784.908447265625,799.4139404296875,795.3846435546875,788.937744140625
562,793.3699340820312,799.010986328125,792.967041015625,790.952392578125
563,793.7728881835938,802.6373901367188,793.7728881835938,795.7875366210938
564,792.5640869140625,796.996337890625,794.1758422851562,791.7582397460938
565,793.3699340820312,793.3699340820312,791.7582397460938,791.3552856445312
566,784.1025390625,792.967041015625,792.1611938476562,780.0732421875
567,783.2966918945312,790.5494384765625,793.7728881835938,775.6410522460938
568,790.5494384765625,791.3552856445312,794.1758422851562,781.6849975585938
569,793.3699340820312,787.7289428710938,791.7582397460938,780.879150390625
570,789.3406372070312,786.1171875,789.7435913085938,778.4615478515625
571,780.879150390625,784.908447265625,790.1465454101562,776.4468994140625
572,779.6703491210938,787.3259887695312,792.5640869140625,772.0146484375
573,788.937744140625,792.5640869140625,797.3992919921875,769.5970458984375
574,792.967041015625,794.5787353515625,796.1904907226562,777.2527465820312
575,796.5933837890625,791.7582397460938,797.8021850585938,789.3406372070312
576,794.1758422851562,786.1171875,800.6226806640625,788.937744140625
577,789.3406372070312,792.1611938476562,800.2197875976562,789.7435913085938
578,790.5494384765625,796.5933837890625,795.3846435546875,792.1611938476562
579,790.1465454101562,798.6080322265625,793.7728881835938,789.3406372070312
580,790.1465454101562,796.5933837890625,794.5787353515625,786.923095703125
581,790.1465454101562,789.3406372070312,791.7582397460938,780.0732421875
582,792.967041015625,794.1758422851562,801.025634765625,786.923095703125
583,792.1611938476562,799.4139404296875,801.4285888671875,791.3552856445312
584,789.3406372070312,796.996337890625,793.3699340820312,789.7435913085938
585,796.1904907226562,795.7875366210938,794.1758422851562,793.3699340820312
586,797.3992919921875,794.981689453125,792.967041015625,790.1465454101562
587,788.5347900390625,796.5933837890625,786.5201416015625,784.5054931640625
588,786.1171875,796.5933837890625,786.1171875,784.5054931640625
589,792.5640869140625,794.5787353515625,786.1171875,786.923095703125
590,796.996337890625,794.981689453125,786.5201416015625,787.7289428710938
591,792.1611938476562,796.996337890625,790.952392578125,788.937744140625
592,786.5201416015625,796.1904907226562,791.7582397460938,786.923095703125
593,792.5640869140625,794.5787353515625,789.3406372070312,787.7289428710938
594,795.7875366210938,786.923095703125,790.952392578125,786.923095703125
595,795.3846435546875,790.1465454101562,793.3699340820312,788.5347900390625
596,793.3699340820312,795.7875366210938,794.1758422851562,792.5640869140625
597,787.3259887695312,794.981689453125,793.3699340820312,784.1025390625
598,784.908447265625,802.2344360351562,794.5787353515625,792.5640869140625
599,789.7435913085938,800.2197875976562,796.5933837890625,803.4432373046875
600,784.908447265625,795.3846435546875,792.967041015625,795.7875366210938
601,784.1025390625,796.1904907226562,793.7728881835938,796.1904907226562
602,792.5640869140625,796.1904907226562,799.8168334960938,797.3992919921875
603,790.5494384765625,799.8168334960938,797.8021850585938,791.3552856445312
604,790.1465454101562,799.010986328125,793.7728881835938,788.937744140625
605,794.1758422851562,795.3846435546875,794.5787353515625,795.7875366210938
606,794.5787353515625,796.996337890625,797.8021850585938,804.2490844726562
607,793.3699340820312,804.6520385742188,796.5933837890625,799.8168334960938
608,803.040283203125,809.084228515625,795.7875366210938,799.4139404296875
609,805.054931640625,803.040283203125,804.6520385742188,808.6813354492188
610,792.5640869140625,795.7875366210938,809.084228515625,796.996337890625
611,784.1025390625,795.3846435546875,806.2637329101562,782.4908447265625
612,782.087890625,799.010986328125,801.8314819335938,780.4761962890625
613,793.3699340820312,796.996337890625,797.3992919921875,786.5201416015625
614,802.6373901367188,790.952392578125,797.8021850585938,788.937744140625
615,787.3259887695312,790.5494384765625,800.2197875976562,782.087890625
616,775.2380981445312,791.7582397460938,791.7582397460938,780.0732421875
617,776.0439453125,786.5201416015625,788.5347900390625,776.8497924804688
618,779.2673950195312,789.7435913085938,794.5787353515625,777.6557006835938
619,790.952392578125,793.3699340820312,795.3846435546875,786.1171875
620,795.7875366210938,790.952392578125,795.3846435546875,786.1171875
621,786.1171875,790.952392578125,793.7728881835938,783.6996459960938
622,781.2820434570312,791.3552856445312,792.1611938476562,779.6703491210938
623,788.5347900390625,793.3699340820312,794.981689453125,777.6557006835938
624,789.7435913085938,789.3406372070312,795.7875366210938,776.0439453125
625,786.5201416015625,782.4908447265625,792.1611938476562,773.2234497070312
626,792.967041015625,786.5201416015625,792.5640869140625,779.2673950195312
627,790.1465454101562,789.7435913085938,794.5787353515625,782.4908447265625
628,781.2820434570312,784.908447265625,791.3552856445312,780.4761962890625
629,782.893798828125,782.087890625,794.5787353515625,784.5054931640625
630,788.937744140625,781.6849975585938,798.2051391601562,788.5347900390625
631,793.7728881835938,786.5201416015625,797.8021850585938,782.4908447265625
632,790.1465454101562,788.5347900390625,796.996337890625,780.879150390625
633,780.4761962890625,784.1025390625,797.3992919921875,785.3113403320312
634,787.7289428710938,787.7289428710938,798.2051391601562,786.5201416015625
635,790.952392578125,786.923095703125,796.996337890625,783.6996459960938
636,788.5347900390625,784.1025390625,799.010986328125,783.6996459960938
637,783.6996459960938,788.5347900390625,799.4139404296875,783.6996459960938
638,786.923095703125,791.3552856445312,799.4139404296875,790.952392578125
639,787.7289428710938,788.937744140625,799.010986328125,797.8021850585938
640,791.3552856445312,784.908447265625,796.1904907226562,786.923095703125
641,792.967041015625,782.087890625,794.5787353515625,772.8204956054688
642,788.1318969726562,777.6557006835938,794.1758422851562,770.8058471679688
643,782.893798828125,782.087890625,794.5787353515625,779.6703491210938
644,782.4908447265625,787.3259887695312,795.3846435546875,790.1465454101562
645,787.7289428710938,784.1025390625,792.967041015625,790.5494384765625
646,785.7142944335938,783.2966918945312,794.5787353515625,784.5054931640625
647,782.893798828125,789.7435913085938,794.981689453125,784.1025390625
648,783.2966918945312,794.981689453125,791.3552856445312,789.7435913085938
649,789.7435913085938,794.1758422851562,792.1611938476562,786.1171875
650,795.3846435546875,791.7582397460938,793.7728881835938,785.3113403320312
651,792.5640869140625,788.937744140625,792.5640869140625,788.937744140625
652,790.1465454101562,787.3259887695312,792.5640869140625,783.6996459960938
653,792.967041015625,788.5347900390625,795.7875366210938,782.893798828125
654,794.981689453125,786.923095703125,796.1904907226562,782.087890625
655,795.7875366210938,788.5347900390625,797.8021850585938,788.5347900390625
656,799.010986328125,788.1318969726562,795.3846435546875,797.3992919921875
657,799.4139404296875,783.6996459960938,790.1465454101562,791.3552856445312
658,794.981689453125,785.7142944335938,794.1758422851562,786.1171875
659,792.967041015625,788.937744140625,792.5640869140625,788.937744140625
660,793.3699340820312,786.5201416015625,796.996337890625,787.7289428710938
661,798.2051391601562,785.3113403320312,803.4432373046875,791.3552856445312
662,811.098876953125,785.3113403320312,803.4432373046875,798.2051391601562
663,807.4725341796875,791.3552856445312,805.4578857421875,794.981689453125
664,797.3992919921875,793.7728881835938,800.6226806640625,793.7728881835938
665,795.3846435546875,786.923095703125,798.2051391601562,788.5347900390625
666,791.3552856445312,786.923095703125,803.040283203125,786.923095703125
667,796.5933837890625,789.3406372070312,805.4578857421875,795.3846435546875
668,793.7728881835938,789.3406372070312,806.6666870117188,793.7728881835938
669,791.3552856445312,794.5787353515625,805.054931640625,790.1465454101562
670,797.8021850585938,799.8168334960938,803.4432373046875,801.8314819335938
671,798.6080322265625,797.8021850585938,803.4432373046875,805.4578857421875
672,795.7875366210938,795.3846435546875,800.6226806640625,794.1758422851562
673,798.6080322265625,792.967041015625,800.6226806640625,795.3846435546875
674,793.7728881835938,793.7728881835938,800.6226806640625,792.5640869140625
675,789.3406372070312,794.1758422851562,799.8168334960938,790.1465454101562
676,792.967041015625,792.5640869140625,797.8021850585938,791.3552856445312
677,798.6080322265625,796.1904907226562,799.010986328125,790.1465454101562
678,797.3992919921875,796.5933837890625,801.4285888671875,788.5347900390625
679,788.5347900390625,792.5640869140625,796.996337890625,784.1025390625
680,788.5347900390625,795.3846435546875,792.5640869140625,782.893798828125
681,790.5494384765625,796.1904907226562,790.952392578125,788.937744140625
682,791.3552856445312,795.7875366210938,793.3699340820312,804.2490844726562
683,792.5640869140625,794.5787353515625,796.996337890625,805.8607788085938
684,788.937744140625,794.1758422851562,792.5640869140625,787.3259887695312
685,789.3406372070312,793.3699340820312,792.967041015625,782.4908447265625
686,793.3699340820312,792.1611938476562,794.981689453125,785.3113403320312
687,796.1904907226562,786.1171875,791.3552856445312,786.923095703125
688,798.6080322265625,782.893798828125,790.952392578125,794.1758422851562
689,791.7582397460938,788.1318969726562,795.7875366210938,790.1465454101562
690,786.5201416015625,792.5640869140625,793.3699340820312,784.908447265625
691,790.5494384765625,790.5494384765625,788.5347900390625,788.1318969726562
692,791.3552856445312,786.1171875,788.1318969726562,787.3259887695312
693,786.923095703125,783.6996459960938,789.3406372070312,789.3406372070312
694,786.1171875,787.3259887695312,796.996337890625,794.5787353515625
695,789.3406372070312,787.7289428710938,798.2051391601562,794.1758422851562
696,795.3846435546875,785.7142944335938,790.5494384765625,791.3552856445312
697,789.3406372070312,786.5201416015625,788.5347900390625,793.3699340820312
698,784.5054931640625,787.3259887695312,787.3259887695312,789.3406372070312
699,783.2966918945312,790.952392578125,791.3552856445312,782.087890625
700,777.2527465820312,790.5494384765625,794.981689453125,782.087890625
701,775.6410522460938,788.937744140625,792.967041015625,784.5054931640625
702,776.8497924804688,786.5201416015625,791.3552856445312,781.2820434570312
703,782.4908447265625,788.5347900390625,790.5494384765625,780.4761962890625
704,786.5201416015625,793.3699340820312,792.5640869140625,782.4908447265625
705,789.7435913085938,793.7728881835938,792.967041015625,788.5347900390625
706,782.087890625,790.5494384765625,794.5787353515625,790.1465454101562
707,776.4468994140625,791.7582397460938,799.010986328125,786.5201416015625
708,779.6703491210938,796.1904907226562,799.4139404296875,791.3552856445312
709,779.6703491210938,799.010986328125,793.7728881835938,780.879150390625
710,782.087890625,791.7582397460938,792.5640869140625,773.6264038085938
711,786.1171875,784.908447265625,793.7728881835938,776.4468994140625
712,791.7582397460938,785.7142944335938,794.1758422851562,782.4908447265625
713,797.8021850585938,784.5054931640625,794.981689453125,786.5201416015625
714,803.040283203125,789.7435913085938,795.7875366210938,790.952392578125
715,805.8607788085938,795.3846435546875,800.6226806640625,789.7435913085938
716,809.084228515625,792.5640869140625,800.6226806640625,784.908447265625
717,810.2930297851562,793.7728881835938,794.981689453125,790.952392578125
718,805.8607788085938,796.1904907226562,790.952392578125,793.3699340820312
719,799.010986328125,792.967041015625,793.7728881835938,793.7728881835938
720,794.5787353515625,791.7582397460938,798.2051391601562,797.8021850585938
721,795.3846435546875,791.3552856445312,797.8021850585938,806.2637329101562
722,798.6080322265625,787.3259887695312,799.010986328125,803.040283203125
723,802.6373901367188,788.937744140625,796.996337890625,796.996337890625
724,793.7728881835938,788.1318969726562,792.1611938476562,792.5640869140625
725,789.3406372070312,784.908447265625,789.7435913085938,785.3113403320312
726,788.937744140625,781.6849975585938,790.952392578125,782.4908447265625
727,788.5347900390625,783.6996459960938,792.5640869140625,780.0732421875
728,791.7582397460938,789.7435913085938,790.952392578125,786.1171875
729,791.3552856445312,796.5933837890625,790.5494384765625,789.3406372070312
730,792.5640869140625,800.2197875976562,792.967041015625,785.3113403320312
731,799.010986328125,801.4285888671875,792.1611938476562,786.1171875
732,802.6373901367188,800.6226806640625,799.4139404296875,790.5494384765625
733,798.2051391601562,796.996337890625,805.054931640625,789.3406372070312
734,799.4139404296875,795.7875366210938,803.8461303710938,788.5347900390625
735,791.3552856445312,791.7582397460938,803.4432373046875,786.5201416015625
736,792.967041015625,786.923095703125,801.8314819335938,786.5201416015625
737,797.8021850585938,788.5347900390625,797.3992919921875,790.1465454101562
738,789.7435913085938,789.3406372070312,795.3846435546875,786.5201416015625
739,792.1611938476562,791.7582397460938,797.8021850585938,787.7289428710938
740,791.7582397460938,789.7435913085938,797.8021850585938,797.8021850585938
741,795.7875366210938,789.3406372070312,804.2490844726562,803.8461303710938
742,799.4139404296875,792.1611938476562,803.4432373046875,802.6373901367188
743,799.4139404296875,794.1758422851562,790.952392578125,795.7875366210938
744,796.996337890625,796.996337890625,789.3406372070312,785.3113403320312
745,791.3552856445312,796.5933837890625,796.1904907226562,790.5494384765625
746,788.1318969726562,792.5640869140625,795.3846435546875,796.996337890625
747,788.1318969726562,793.7728881835938,793.3699340820312,790.952392578125
748,790.5494384765625,797.8021850585938,796.996337890625,790.1465454101562
749,783.2966918945312,794.5787353515625,794.981689453125,781.6849975585938
750,782.4908447265625,793.3699340820312,794.1758422851562,784.1025390625
751,786.5201416015625,794.1758422851562,796.5933837890625,791.3552856445312
752,782.4908447265625,791.3552856445312,797.8021850585938,779.2673950195312
753,783.2966918945312,793.7728881835938,797.8021850585938,776.8497924804688
754,790.5494384765625,793.3699340820312,797.8021850585938,783.2966918945312
755,792.5640869140625,792.967041015625,799.4139404296875,782.4908447265625
756,789.3406372070312,792.1611938476562,801.025634765625,779.6703491210938
757,792.1611938476562,787.7289428710938,801.025634765625,786.1171875
758,790.952392578125,789.3406372070312,798.6080322265625,780.4761962890625
759,786.1171875,789.3406372070312,800.2197875976562,784.5054931640625
760,787.3259887695312,788.937744140625,799.8168334960938,793.3699340820312
761,789.3406372070312,786.923095703125,799.8168334960938,785.7142944335938
762,787.7289428710938,784.908447265625,801.8314819335938,784.1025390625
763,796.996337890625,790.5494384765625,801.8314819335938,789.7435913085938
764,791.7582397460938,790.1465454101562,801.8314819335938,792.1611938476562
765,778.05859375,785.7142944335938,798.6080322265625,789.7435913085938
766,786.5201416015625,786.1171875,796.1904907226562,794.5787353515625
767,793.3699340820312,787.7289428710938,800.2197875976562,796.996337890625
768,789.3406372070312,790.5494384765625,802.2344360351562,791.3552856445312
769,795.3846435546875,781.2820434570312,800.6226806640625,792.5640869140625
770,792.1611938476562,786.5201416015625,796.1904907226562,782.087890625
771,785.3113403320312,788.1318969726562,793.7728881835938,773.2234497070312
772,782.893798828125,791.3552856445312,792.967041015625,777.6557006835938
773,782.4908447265625,785.3113403320312,792.967041015625,784.908447265625
774,784.908447265625,787.3259887695312,790.5494384765625,793.7728881835938
775,789.3406372070312,796.996337890625,791.7582397460938,794.981689453125
776,794.981689453125,789.3406372070312,790.952392578125,786.1171875
777,788.937744140625,787.7289428710938,792.1611938476562,782.4908447265625
778,787.3259887695312,790.952392578125,791.3552856445312,788.1318969726562
779,790.1465454101562,788.937744140625,792.967041015625,793.3699340820312
780,795.3846435546875,790.5494384765625,799.4139404296875,796.1904907226562
781,799.8168334960938,790.952392578125,800.2197875976562,801.4285888671875
782,791.3552856445312,791.7582397460938,802.2344360351562,803.4432373046875
783,792.5640869140625,790.952392578125,802.6373901367188,794.981689453125
784,793.3699340820312,786.5201416015625,800.2197875976562,792.1611938476562
785,789.3406372070312,784.908447265625,799.4139404296875,797.3992919921875
786,786.5201416015625,786.1171875,798.6080322265625,792.1611938476562
787,782.087890625,786.5201416015625,795.7875366210938,788.1318969726562
788,786.1171875,786.1171875,798.2051391601562,797.8021850585938
789,794.5787353515625,788.1318969726562,801.4285888671875,796.1904907226562
790,796.996337890625,790.952392578125,801.025634765625,794.981689453125
791,787.3259887695312,782.087890625,800.2197875976562,799.010986328125
792,784.908447265625,778.8644409179688,796.1904907226562,800.6226806640625
793,792.967041015625,788.5347900390625,792.967041015625,794.5787353515625
794,794.981689453125,795.7875366210938,791.3552856445312,785.7142944335938
795,795.3846435546875,797.3992919921875,794.981689453125,785.7142944335938
796,794.5787353515625,795.3846435546875,799.8168334960938,796.996337890625
797,796.5933837890625,795.7875366210938,795.7875366210938,799.8168334960938
798,794.1758422851562,793.3699340820312,797.8021850585938,790.952392578125
799,785.7142944335938,785.3113403320312,798.2051391601562,791.3552856445312
800,778.05859375,782.087890625,793.3699340820312,791.7582397460938
801,785.7142944335938,785.3113403320312,791.7582397460938,794.5787353515625
802,788.1318969726562,789.3406372070312,790.952392578125,796.996337890625
803,780.0732421875,788.1318969726562,791.3552856445312,794.981689453125
804,784.1025390625,785.3113403320312,793.3699340820312,796.996337890625
805,786.5201416015625,787.3259887695312,791.3552856445312,797.8021850585938
806,786.923095703125,788.1318969726562,790.5494384765625,794.981689453125
807,790.952392578125,790.5494384765625,794.981689453125,799.8168334960938
808,788.1318969726562,790.1465454101562,794.1758422851562,794.981689453125
809,785.7142944335938,786.5201416015625,793.3699340820312,790.1465454101562
810,787.3259887695312,790.1465454101562,794.1758422851562,787.3259887695312
811,799.4139404296875,796.1904907226562,801.025634765625,786.923095703125
812,807.069580078125,797.3992919921875,801.025634765625,796.1904907226562
813,796.1904907226562,796.996337890625,798.2051391601562,792.5640869140625
814,800.6226806640625,799.4139404296875,800.6226806640625,789.7435913085938
815,801.025634765625,801.4285888671875,804.2490844726562,788.5347900390625
816,794.1758422851562,796.996337890625,803.8461303710938,787.7289428710938
817,797.3992919921875,796.5933837890625,804.2490844726562,787.3259887695312
818,788.5347900390625,796.996337890625,807.4725341796875,786.5201416015625
819,788.1318969726562,794.1758422851562,806.6666870117188,792.1611938476562
820,793.3699340820312,790.952392578125,806.2637329101562,786.1171875
821,792.967041015625,788.937744140625,803.8461303710938,783.2966918945312
822,792.967041015625,790.5494384765625,798.2051391601562,788.937744140625
823,790.952392578125,792.1611938476562,796.996337890625,782.893798828125
824,786.923095703125,792.5640869140625,793.3699340820312,782.087890625
825,787.3259887695312,791.7582397460938,791.7582397460938,781.6849975585938
826,791.7582397460938,791.3552856445312,796.5933837890625,776.8497924804688
827,790.5494384765625,792.1611938476562,801.4285888671875,782.087890625
828,789.3406372070312,793.3699340820312,800.6226806640625,788.5347900390625
829,789.7435913085938,795.3846435546875,799.4139404296875,788.937744140625
830,790.952392578125,799.010986328125,797.8021850585938,792.1611938476562
831,796.1904907226562,799.4139404296875,794.981689453125,799.010986328125
832,792.1611938476562,795.3846435546875,796.5933837890625,794.5787353515625
833,787.7289428710938,792.5640869140625,797.3992919921875,790.5494384765625
834,792.5640869140625,792.967041015625,800.6226806640625,792.5640869140625
835,799.010986328125,788.937744140625,798.2051391601562,790.952392578125
836,791.3552856445312,788.1318969726562,794.981689453125,784.908447265625
837,778.4615478515625,790.952392578125,794.1758422851562,781.2820434570312
838,780.4761962890625,789.7435913085938,794.981689453125,786.923095703125
839,787.7289428710938,796.1904907226562,802.6373901367188,795.7875366210938
840,799.010986328125,799.8168334960938,805.4578857421875,788.937744140625
841,795.7875366210938,799.010986328125,801.8314819335938,784.1025390625
842,782.087890625,799.8168334960938,798.6080322265625,788.937744140625
843,772.8204956054688,792.5640869140625,797.3992919921875,777.2527465820312
844,757.106201171875,781.2820434570312,785.7142944335938,760.3296508789062
845,755.091552734375,781.6849975585938,789.3406372070312,763.1502075195312
846,755.091552734375,789.3406372070312,799.4139404296875,761.5384521484375
847,748.6447143554688,794.1758422851562,802.2344360351562,755.091552734375
848,740.5860595703125,789.7435913085938,807.4725341796875,748.6447143554688
849,729.7069702148438,792.1611938476562,803.4432373046875,734.5421142578125
850,734.5421142578125,799.8168334960938,812.7106323242188,736.5567626953125
851,727.6923217773438,796.5933837890625,819.96337890625,739.7802124023438
852,709.96337890625,799.010986328125,810.2930297851562,727.6923217773438
853,700.6959838867188,801.4285888671875,809.084228515625,711.1721801757812
854,691.025634765625,809.084228515625,822.3809814453125,691.4285888671875
855,678.5347900390625,810.6959838867188,834.06591796875,676.5201416015625
856,674.908447265625,803.040283203125,836.08056640625,673.6996459960938
857,669.2673950195312,799.8168334960938,837.6923217773438,667.6557006835938
858,654.7619018554688,801.025634765625,835.2747192382812,653.1502075195312
859,643.076904296875,801.025634765625,832.4542236328125,647.106201171875
860,648.7179565429688,806.2637329101562,834.4688720703125,651.94140625
861,639.8534545898438,805.4578857421875,835.6776733398438,637.032958984375
862,626.959716796875,794.5787353515625,834.8717651367188,626.959716796875
863,635.018310546875,796.1904907226562,834.4688720703125,636.6300659179688
864,650.3296508789062,798.2051391601562,835.2747192382812,644.2857055664062
865,670.4761962890625,796.996337890625,836.08056640625,661.2088012695312
866,673.6996459960938,801.4285888671875,839.3040161132812,676.5201416015625
867,668.8644409179688,797.3992919921875,838.4981689453125,682.967041015625
868,666.4468994140625,792.967041015625,834.4688720703125,687.3992919921875
869,684.981689453125,799.010986328125,831.6483764648438,705.93408203125
870,700.2930297851562,804.6520385742188,830.4395751953125,709.96337890625
871,707.5457763671875,805.8607788085938,829.6337280273438,708.7545776367188
872,718.4249267578125,806.2637329101562,826.8131713867188,724.8717651367188
873,722.8571166992188,803.040283203125,823.99267578125,732.5274658203125
874,740.1831665039062,797.8021850585938,816.7399291992188,745.8241577148438
875,757.5091552734375,799.010986328125,812.3076782226562,765.970703125
876,766.7765502929688,794.981689453125,811.90478515625,778.8644409179688
877,774.029296875,794.5787353515625,811.098876953125,783.6996459960938
878,780.4761962890625,796.1904907226562,807.4725341796875,786.1171875
879,784.1025390625,790.952392578125,803.8461303710938,794.981689453125
880,794.981689453125,787.3259887695312,804.2490844726562,807.069580078125
881,808.2783813476562,789.7435913085938,806.2637329101562,819.96337890625
882,809.4871826171875,791.7582397460938,800.6226806640625,822.7838745117188
883,819.96337890625,787.7289428710938,795.3846435546875,822.7838745117188
884,821.5750732421875,788.1318969726562,792.5640869140625,819.5604248046875
885,811.098876953125,788.937744140625,785.3113403320312,817.5457763671875
886,817.5457763671875,781.6849975585938,783.6996459960938,818.3516235351562
887,830.4395751953125,782.893798828125,781.6849975585938,819.1575317382812
888,835.2747192382812,783.6996459960938,783.2966918945312,827.2161254882812
889,834.8717651367188,783.6996459960938,783.6996459960938,824.3956298828125
890,836.886474609375,788.937744140625,776.8497924804688,825.2014770507812
891,841.7216186523438,792.1611938476562,773.6264038085938,831.6483764648438
892,844.1392211914062,791.3552856445312,772.8204956054688,834.06591796875
893,839.7069702148438,789.3406372070312,774.8351440429688,836.08056640625
894,844.5421142578125,789.7435913085938,774.8351440429688,842.12451171875
895,847.3626098632812,787.7289428710938,775.6410522460938,839.3040161132812
896,845.3479614257812,786.923095703125,776.4468994140625,834.06591796875
897,846.959716796875,785.3113403320312,776.0439453125,840.10986328125
898,844.945068359375,784.1025390625,777.2527465820312,843.7362670898438
899,842.930419921875,778.05859375,778.05859375,843.7362670898438
900,844.945068359375,776.8497924804688,777.2527465820312,846.5567626953125
901,838.901123046875,782.4908447265625,776.8497924804688,846.959716796875
902,842.5274658203125,784.5054931640625,780.0732421875,844.945068359375
903,852.1978149414062,787.7289428710938,779.6703491210938,840.915771484375
904,839.7069702148438,788.5347900390625,774.029296875,838.4981689453125
905,830.8424682617188,791.7582397460938,776.0439453125,836.4835205078125
906,830.8424682617188,791.3552856445312,774.029296875,834.06591796875
907,827.2161254882812,785.3113403320312,770.4029541015625,830.4395751953125
908,826.00732421875,786.1171875,774.4322509765625,831.2454223632812
909,825.6043701171875,789.3406372070312,775.6410522460938,821.1721801757812
910,831.6483764648438,792.1611938476562,778.4615478515625,815.5311279296875
911,834.4688720703125,791.7582397460938,779.2673950195312,820.7692260742188
912,830.8424682617188,789.3406372070312,774.029296875,815.1282348632812
913,830.8424682617188,791.3552856445312,772.4176025390625,811.5018310546875
914,828.4249267578125,793.7728881835938,770.8058471679688,809.89013671875
915,830.8424682617188,793.3699340820312,771.2088012695312,815.1282348632812
916,836.08056640625,791.7582397460938,774.029296875,824.7985229492188
917,834.06591796875,790.952392578125,777.2527465820312,823.99267578125
918,830.4395751953125,788.937744140625,775.6410522460938,819.96337890625
919,824.7985229492188,788.1318969726562,774.4322509765625,813.5164794921875
920,821.97802734375,789.3406372070312,779.2673950195312,809.89013671875
921,822.3809814453125,792.5640869140625,777.6557006835938,815.93408203125
922,832.05126953125,792.5640869140625,775.2380981445312,825.6043701171875
923,837.2893676757812,788.5347900390625,782.087890625,831.2454223632812
924,827.2161254882812,788.937744140625,787.3259887695312,823.1868286132812
925,821.5750732421875,790.5494384765625,786.923095703125,815.1282348632812
926,817.94873046875,792.1611938476562,790.952392578125,816.3369750976562
927,816.3369750976562,791.7582397460938,790.5494384765625,819.5604248046875
928,819.96337890625,791.3552856445312,789.7435913085938,823.1868286132812
929,822.3809814453125,793.7728881835938,793.7728881835938,816.7399291992188
930,819.96337890625,797.3992919921875,792.5640869140625,813.113525390625
931,820.7692260742188,796.996337890625,793.3699340820312,814.3223266601562
932,819.5604248046875,791.3552856445312,793.7728881835938,809.4871826171875
933,815.1282348632812,792.1611938476562,790.5494384765625,806.6666870117188
934,811.5018310546875,792.1611938476562,792.1611938476562,809.4871826171875
935,807.069580078125,788.937744140625,790.952392578125,810.6959838867188
936,809.084228515625,792.1611938476562,792.967041015625,807.069580078125
937,810.2930297851562,796.1904907226562,794.5787353515625,806.2637329101562
938,808.2783813476562,793.7728881835938,792.967041015625,804.6520385742188
939,810.2930297851562,794.5787353515625,791.3552856445312,799.4139404296875
940,803.4432373046875,797.3992919921875,788.937744140625,790.1465454101562
941,794.981689453125,789.7435913085938,783.6996459960938,787.3259887695312
942,801.4285888671875,792.967041015625,784.908447265625,794.5787353515625
943,806.2637329101562,798.6080322265625,788.1318969726562,805.8607788085938
944,805.4578857421875,797.8021850585938,787.7289428710938,802.2344360351562
945,805.4578857421875,795.7875366210938,786.923095703125,789.3406372070312
946,803.8461303710938,792.5640869140625,786.5201416015625,791.3552856445312
947,808.2783813476562,792.1611938476562,784.908447265625,796.996337890625
948,815.5311279296875,797.8021850585938,785.3113403320312,799.8168334960938
949,817.94873046875,796.5933837890625,792.1611938476562,804.6520385742188
950,817.1428833007812,798.6080322265625,792.5640869140625,806.2637329101562
951,813.91943359375,796.996337890625,790.5494384765625,803.8461303710938
952,807.87548828125,789.3406372070312,788.5347900390625,803.040283203125
953,811.90478515625,794.1758422851562,788.937744140625,808.2783813476562
954,812.3076782226562,799.010986328125,796.5933837890625,815.5311279296875
955,807.069580078125,798.6080322265625,800.2197875976562,815.1282348632812
956,806.6666870117188,796.1904907226562,799.8168334960938,811.098876953125
957,809.4871826171875,799.010986328125,803.040283203125,818.7545776367188
958,807.4725341796875,795.3846435546875,797.8021850585938,816.7399291992188
959,807.069580078125,792.967041015625,794.1758422851562,798.6080322265625
960,812.3076782226562,794.5787353515625,799.010986328125,798.6080322265625
961,810.6959838867188,797.3992919921875,802.6373901367188,805.054931640625
962,811.5018310546875,802.2344360351562,804.2490844726562,810.6959838867188
963,805.8607788085938,799.4139404296875,803.040283203125,807.069580078125
964,795.7875366210938,794.5787353515625,803.040283203125,796.996337890625
965,799.8168334960938,792.1611938476562,803.8461303710938,805.8607788085938
966,799.4139404296875,787.7289428710938,801.8314819335938,805.8607788085938
967,794.981689453125,788.1318969726562,800.6226806640625,793.3699340820312
968,799.4139404296875,789.3406372070312,799.4139404296875,794.5787353515625
969,802.6373901367188,788.1318969726562,793.7728881835938,793.7728881835938
970,801.025634765625,789.3406372070312,792.1611938476562,782.893798828125
971,799.4139404296875,788.5347900390625,796.1904907226562,790.1465454101562
972,799.4139404296875,788.937744140625,797.3992919921875,794.981689453125
973,802.2344360351562,787.3259887695312,802.2344360351562,790.5494384765625
974,802.6373901367188,784.908447265625,801.025634765625,788.5347900390625
975,801.025634765625,787.7289428710938,795.3846435546875,788.5347900390625
976,796.1904907226562,787.3259887695312,794.1758422851562,787.7289428710938
977,790.1465454101562,788.5347900390625,794.1758422851562,797.8021850585938
978,791.7582397460938,789.7435913085938,796.5933837890625,799.8168334960938
979,796.996337890625,788.5347900390625,793.7728881835938,792.5640869140625
980,801.8314819335938,789.7435913085938,794.981689453125,801.8314819335938
981,799.4139404296875,784.1025390625,794.1758422851562,801.025634765625
982,798.6080322265625,785.3113403320312,792.5640869140625,795.7875366210938
983,801.025634765625,787.3259887695312,794.1758422851562,796.5933837890625
984,799.8168334960938,785.3113403320312,794.981689453125,797.3992919921875
985,794.981689453125,784.5054931640625,795.3846435546875,798.6080322265625
986,796.1904907226562,784.908447265625,790.5494384765625,794.5787353515625
987,798.2051391601562,786.923095703125,786.923095703125,798.6080322265625
988,795.7875366210938,788.5347900390625,790.5494384765625,801.8314819335938
989,793.3699340820312,785.3113403320312,792.1611938476562,793.7728881835938
990,794.1758422851562,784.5054931640625,796.996337890625,793.3699340820312
991,797.3992919921875,792.5640869140625,799.8168334960938,791.7582397460938
992,790.952392578125,792.1611938476562,792.5640869140625,791.3552856445312
993,792.967041015625,788.1318969726562,787.3259887695312,798.6080322265625
994,796.996337890625,792.5640869140625,788.1318969726562,792.1611938476562
995,795.3846435546875,790.1465454101562,792.5640869140625,788.937744140625
996,801.4285888671875,791.7582397460938,798.2051391601562,792.967041015625
997,806.6666870117188,797.3992919921875,803.8461303710938,791.3552856445312
998,805.4578857421875,793.3699340820312,800.2197875976562,794.981689453125
999,805.8607788085938,789.7435913085938,798.6080322265625,794.981689453125
1000,800.2197875976562,786.923095703125,796.5933837890625,793.3699340820312
1001,798.6080322265625,789.7435913085938,794.981689453125,786.5201416015625
1002,799.8168334960938,795.3846435546875,795.3846435546875,785.3113403320312
1003,797.8021850585938,791.7582397460938,794.5787353515625,794.1758422851562
1004,807.069580078125,790.1465454101562,793.7728881835938,792.1611938476562
1005,807.87548828125,793.3699340820312,794.5787353515625,792.1611938476562
1006,798.6080322265625,791.3552856445312,794.1758422851562,796.1904907226562
1007,793.7728881835938,791.3552856445312,789.7435913085938,805.4578857421875
1008,794.1758422851562,795.3846435546875,790.952392578125,807.87548828125
1009,802.6373901367188,797.3992919921875,794.981689453125,801.025634765625
1010,803.040283203125,798.6080322265625,796.1904907226562,798.6080322265625
1011,796.5933837890625,794.1758422851562,791.7582397460938,796.996337890625
1012,792.5640869140625,797.3992919921875,790.952392578125,791.7582397460938
1013,786.5201416015625,802.2344360351562,791.3552856445312,788.1318969726562
1014,790.952392578125,799.8168334960938,790.1465454101562,792.967041015625
1015,799.010986328125,794.981689453125,790.5494384765625,795.7875366210938
1016,794.5787353515625,793.7728881835938,787.7289428710938,794.981689453125
1017,784.5054931640625,795.7875366210938,784.1025390625,794.5787353515625
1018,784.908447265625,790.5494384765625,783.2966918945312,792.967041015625
1019,792.967041015625,789.3406372070312,787.7289428710938,788.937744140625
1020,792.967041015625,792.1611938476562,786.5201416015625,785.7142944335938
1021,790.5494384765625,793.7728881835938,782.087890625,779.6703491210938
1022,791.3552856445312,799.010986328125,784.908447265625,782.087890625
1023,794.981689453125,798.2051391601562,788.5347900390625,794.1758422851562
1024,796.996337890625,794.1758422851562,791.3552856445312,799.4139404296875
1025,805.054931640625,794.1758422851562,793.3699340820312,795.3846435546875
1026,808.6813354492188,798.2051391601562,790.952392578125,793.7728881835938
1027,801.8314819335938,799.8168334960938,791.3552856445312,794.1758422851562
1028,794.1758422851562,795.7875366210938,791.3552856445312,796.5933837890625
1029,791.3552856445312,799.010986328125,794.981689453125,803.040283203125
1030,799.4139404296875,797.8021850585938,801.025634765625,807.87548828125
1031,805.4578857421875,795.7875366210938,793.7728881835938,802.2344360351562
1032,801.025634765625,791.3552856445312,790.5494384765625,796.996337890625
1033,789.3406372070312,791.3552856445312,793.3699340820312,795.7875366210938
1034,786.5201416015625,795.3846435546875,794.1758422851562,798.6080322265625
1035,795.3846435546875,798.2051391601562,793.7728881835938,805.8607788085938
1036,789.3406372070312,796.5933837890625,793.3699340820312,795.3846435546875
1037,785.3113403320312,791.3552856445312,793.7728881835938,787.3259887695312
1038,794.981689453125,791.7582397460938,795.3846435546875,795.3846435546875
1039,795.3846435546875,790.952392578125,797.8021850585938,797.8021850585938
1040,792.1611938476562,786.1171875,797.3992919921875,794.5787353515625
1041,795.3846435546875,790.5494384765625,797.3992919921875,785.3113403320312
1042,792.1611938476562,796.1904907226562,799.4139404296875,778.05859375
1043,781.6849975585938,790.1465454101562,797.3992919921875,780.4761962890625
1044,783.2966918945312,784.908447265625,794.981689453125,782.087890625
1045,786.923095703125,790.1465454101562,796.5933837890625,781.2820434570312
1046,785.7142944335938,794.5787353515625,796.1904907226562,783.6996459960938
1047,789.3406372070312,797.3992919921875,797.3992919921875,785.7142944335938
1048,794.5787353515625,799.8168334960938,803.040283203125,781.6849975585938
1049,795.7875366210938,794.5787353515625,805.054931640625,787.3259887695312
1050,794.5787353515625,792.1611938476562,805.4578857421875,794.981689453125
1051,791.3552856445312,797.3992919921875,806.6666870117188,788.5347900390625
1052,789.3406372070312,795.3846435546875,803.040283203125,790.952392578125
1053,790.1465454101562,791.3552856445312,798.2051391601562,797.3992919921875
1054,793.3699340820312,787.7289428710938,798.2051391601562,792.5640869140625
1055,796.1904907226562,784.908447265625,796.1904907226562,787.7289428710938
1056,796.5933837890625,790.1465454101562,792.1611938476562,791.3552856445312
1057,794.1758422851562,790.952392578125,797.3992919921875,799.010986328125
1058,789.7435913085938,787.7289428710938,799.8168334960938,790.5494384765625
1059,788.5347900390625,790.952392578125,801.025634765625,784.1025390625
1060,791.3552856445312,790.952392578125,801.025634765625,787.7289428710938
1061,794.5787353515625,792.1611938476562,799.4139404296875,795.7875366210938
1062,791.7582397460938,792.1611938476562,794.1758422851562,792.1611938476562
1063,788.937744140625,788.937744140625,793.7728881835938,787.7289428710938
1064,782.4908447265625,789.3406372070312,794.981689453125,790.5494384765625
1065,776.0439453125,788.1318969726562,789.7435913085938,786.923095703125
1066,781.6849975585938,789.7435913085938,788.5347900390625,786.5201416015625
1067,781.6849975585938,788.5347900390625,786.923095703125,789.3406372070312
1068,781.2820434570312,783.2966918945312,786.923095703125,789.3406372070312
1069,780.4761962890625,780.879150390625,784.5054931640625,775.2380981445312
1070,778.05859375,776.0439453125,784.5054931640625,776.0439453125
1071,785.7142944335938,778.05859375,786.923095703125,788.1318969726562
1072,786.5201416015625,788.5347900390625,790.5494384765625,792.5640869140625
1073,784.5054931640625,790.1465454101562,790.952392578125,790.952392578125
1074,790.1465454101562,787.3259887695312,790.952392578125,782.893798828125
1075,794.981689453125,787.7289428710938,792.1611938476562,773.2234497070312
1076,796.1904907226562,791.7582397460938,793.3699340820312,784.908447265625
1077,792.5640869140625,792.1611938476562,798.6080322265625,794.981689453125
1078,792.1611938476562,790.5494384765625,796.996337890625,782.087890625
1079,786.923095703125,788.5347900390625,796.5933837890625,776.8497924804688
1080,780.4761962890625,787.7289428710938,796.5933837890625,775.6410522460938
1081,784.1025390625,782.087890625,797.3992919921875,781.6849975585938
1082,793.3699340820312,780.0732421875,797.3992919921875,782.4908447265625
1083,802.2344360351562,784.5054931640625,794.5787353515625,779.6703491210938
1084,794.5787353515625,788.5347900390625,795.3846435546875,788.5347900390625
1085,787.7289428710938,796.996337890625,796.5933837890625,790.5494384765625
1086,792.967041015625,799.8168334960938,795.7875366210938,792.967041015625
1087,795.3846435546875,795.3846435546875,797.3992919921875,792.967041015625
1088,793.7728881835938,796.996337890625,799.010986328125,786.5201416015625
1089,789.3406372070312,795.7875366210938,796.996337890625,786.923095703125
1090,782.087890625,789.7435913085938,792.1611938476562,784.5054931640625
1091,782.893798828125,790.952392578125,793.3699340820312,788.1318969726562
1092,794.981689453125,796.1904907226562,797.8021850585938,796.1904907226562
1093,798.6080322265625,797.8021850585938,799.010986328125,792.967041015625
1094,801.8314819335938,796.1904907226562,793.7728881835938,784.5054931640625
1095,796.996337890625,789.3406372070312,788.1318969726562,782.893798828125
1096,791.3552856445312,780.879150390625,790.952392578125,800.2197875976562
1097,794.1758422851562,786.5201416015625,793.7728881835938,796.996337890625
1098,788.1318969726562,793.3699340820312,790.5494384765625,783.6996459960938
1099,787.3259887695312,791.7582397460938,788.937744140625,784.1025390625
1100,786.923095703125,791.7582397460938,789.7435913085938,783.6996459960938
1101,786.5201416015625,793.7728881835938,787.3259887695312,780.879150390625
1102,791.3552856445312,794.5787353515625,787.7289428710938,782.087890625
1103,790.952392578125,796.996337890625,790.1465454101562,789.7435913085938
1104,784.908447265625,794.981689453125,793.3699340820312,788.1318969726562
1105,792.1611938476562,795.3846435546875,792.5640869140625,782.893798828125
1106,803.040283203125,797.3992919921875,790.952392578125,781.2820434570312
1107,796.1904907226562,792.967041015625,791.7582397460938,786.1171875
1108,788.5347900390625,793.3699340820312,792.967041015625,795.3846435546875
1109,790.1465454101562,792.5640869140625,796.1904907226562,789.3406372070312
1110,794.981689453125,790.1465454101562,799.010986328125,789.3406372070312
1111,788.937744140625,788.937744140625,792.1611938476562,792.1611938476562
1112,794.981689453125,785.3113403320312,794.1758422851562,795.3846435546875
1113,802.2344360351562,792.1611938476562,800.2197875976562,794.981689453125
1114,791.7582397460938,799.010986328125,795.3846435546875,790.952392578125
1115,790.5494384765625,796.5933837890625,791.3552856445312,791.7582397460938
1116,803.8461303710938,790.952392578125,791.7582397460938,785.7142944335938
1117,801.8314819335938,784.908447265625,788.937744140625,783.2966918945312
1118,791.3552856445312,784.908447265625,788.1318969726562,788.1318969726562
1119,791.7582397460938,785.3113403320312,788.937744140625,801.4285888671875
1120,790.952392578125,784.908447265625,786.1171875,790.5494384765625
1121,786.923095703125,784.1025390625,784.1025390625,778.8644409179688
1122,793.7728881835938,781.2820434570312,786.5201416015625,785.7142944335938
1123,796.1904907226562,779.2673950195312,790.1465454101562,786.923095703125
1124,798.6080322265625,779.6703491210938,793.7728881835938,790.952392578125
1125,805.8607788085938,784.1025390625,794.981689453125,789.7435913085938
1126,800.6226806640625,789.3406372070312,795.3846435546875,787.7289428710938
1127,796.996337890625,787.7289428710938,796.5933837890625,790.952392578125
1128,792.5640869140625,788.5347900390625,797.3992919921875,794.1758422851562
1129,792.967041015625,787.7289428710938,799.010986328125,793.3699340820312
1130,791.7582397460938,786.5201416015625,798.6080322265625,788.5347900390625
1131,784.908447265625,786.923095703125,798.2051391601562,786.923095703125
1132,787.3259887695312,790.1465454101562,793.3699340820312,786.1171875
1133,790.952392578125,789.7435913085938,787.7289428710938,784.5054931640625
1134,791.3552856445312,784.908447265625,790.5494384765625,794.5787353515625
1135,790.5494384765625,782.4908447265625,789.3406372070312,793.3699340820312
1136,797.3992919921875,783.6996459960938,788.937744140625,786.923095703125
1137,804.2490844726562,782.893798828125,790.952392578125,792.5640869140625
1138,798.2051391601562,779.6703491210938,785.7142944335938,795.7875366210938
1139,792.967041015625,786.1171875,791.7582397460938,799.010986328125
1140,795.3846435546875,795.7875366210938,799.010986328125,797.8021850585938
1141,792.1611938476562,793.3699340820312,792.1611938476562,796.1904907226562
1142,795.3846435546875,786.5201416015625,789.3406372070312,796.996337890625
1143,795.3846435546875,786.923095703125,792.967041015625,790.5494384765625
1144,787.7289428710938,786.923095703125,791.3552856445312,788.1318969726562
1145,781.6849975585938,789.7435913085938,785.3113403320312,787.3259887695312
1146,782.087890625,788.1318969726562,788.5347900390625,783.2966918945312
1147,781.6849975585938,784.908447265625,787.3259887695312,786.1171875
1148,783.6996459960938,784.5054931640625,786.923095703125,786.5201416015625
1149,790.1465454101562,783.6996459960938,792.1611938476562,780.4761962890625
1150,785.3113403320312,786.1171875,795.7875366210938,784.5054931640625
1151,778.8644409179688,791.3552856445312,797.8021850585938,786.5201416015625
1152,775.6410522460938,790.1465454101562,792.5640869140625,776.4468994140625
1153,775.6410522460938,783.2966918945312,790.5494384765625,777.6557006835938
1154,781.2820434570312,790.952392578125,794.981689453125,783.6996459960938
1155,786.1171875,798.6080322265625,793.3699340820312,785.3113403320312
1156,790.952392578125,796.1904907226562,790.5494384765625,782.087890625
1157,794.981689453125,794.981689453125,792.5640869140625,785.7142944335938
1158,797.8021850585938,789.7435913085938,793.7728881835938,798.2051391601562
1159,806.6666870117188,782.4908447265625,800.2197875976562,804.2490844726562
1160,807.069580078125,777.6557006835938,802.6373901367188,797.8021850585938
1161,801.025634765625,780.879150390625,792.1611938476562,790.5494384765625
1162,789.3406372070312,787.7289428710938,790.1465454101562,787.7289428710938
1163,787.7289428710938,789.7435913085938,792.967041015625,786.5201416015625
1164,791.7582397460938,792.1611938476562,795.7875366210938,783.6996459960938
1165,786.923095703125,791.3552856445312,800.2197875976562,780.4761962890625
1166,784.5054931640625,788.937744140625,799.8168334960938,781.6849975585938
1167,785.3113403320312,789.3406372070312,793.7728881835938,775.6410522460938
1168,795.3846435546875,790.1465454101562,794.5787353515625,779.2673950195312
1169,794.5787353515625,788.1318969726562,800.2197875976562,788.5347900390625
1170,783.2966918945312,789.7435913085938,795.7875366210938,778.05859375
1171,776.8497924804688,790.5494384765625,791.3552856445312,767.9853515625
1172,778.4615478515625,786.5201416015625,792.1611938476562,779.2673950195312
1173,787.7289428710938,787.3259887695312,792.967041015625,784.908447265625
1174,787.3259887695312,786.1171875,795.3846435546875,780.0732421875
1175,787.7289428710938,786.1171875,791.3552856445312,781.2820434570312
1176,792.967041015625,789.7435913085938,786.5201416015625,785.3113403320312
1177,787.7289428710938,786.5201416015625,788.1318969726562,788.937744140625
1178,788.1318969726562,787.7289428710938,793.3699340820312,795.7875366210938
1179,788.937744140625,793.7728881835938,793.3699340820312,798.6080322265625
1180,783.2966918945312,789.7435913085938,790.952392578125,798.6080322265625
1181,778.8644409179688,789.3406372070312,788.937744140625,807.4725341796875
1182,780.4761962890625,787.7289428710938,788.937744140625,799.010986328125
1183,786.5201416015625,784.1025390625,788.937744140625,787.3259887695312
1184,788.1318969726562,785.3113403320312,790.1465454101562,783.2966918945312
1185,788.937744140625,788.5347900390625,790.1465454101562,780.879150390625
1186,790.952392578125,791.3552856445312,791.7582397460938,785.7142944335938
1187,792.5640869140625,788.1318969726562,795.3846435546875,790.952392578125
1188,791.3552856445312,791.7582397460938,795.7875366210938,791.7582397460938
1189,790.952392578125,795.7875366210938,796.5933837890625,793.3699340820312
1190,793.7728881835938,786.923095703125,792.5640869140625,791.3552856445312
1191,791.7582397460938,784.1025390625,790.952392578125,788.5347900390625
1192,788.5347900390625,787.3259887695312,787.3259887695312,793.3699340820312
1193,788.1318969726562,782.893798828125,790.1465454101562,792.967041015625
1194,788.1318969726562,785.7142944335938,792.1611938476562,786.5201416015625
1195,789.7435913085938,788.937744140625,793.3699340820312,786.923095703125
1196,788.937744140625,790.1465454101562,794.981689453125,786.1171875
1197,792.5640869140625,795.7875366210938,793.7728881835938,790.5494384765625
1198,798.6080322265625,799.010986328125,793.3699340820312,794.1758422851562
1199,799.4139404296875,798.2051391601562,795.3846435546875,788.5347900390625
1200,796.5933837890625,796.5933837890625,796.996337890625,792.967041015625
1201,796.1904907226562,800.2197875976562,797.3992919921875,792.5640869140625
1202,791.3552856445312,796.5933837890625,799.8168334960938,781.6849975585938
1203,792.967041015625,790.952392578125,796.5933837890625,784.1025390625
1204,795.7875366210938,792.967041015625,795.7875366210938,790.5494384765625
1205,792.967041015625,798.2051391601562,798.2051391601562,788.937744140625
1206,796.1904907226562,803.8461303710938,796.996337890625,788.5347900390625
1207,790.1465454101562,797.8021850585938,799.010986328125,788.937744140625
1208,788.5347900390625,787.7289428710938,798.2051391601562,785.7142944335938
1209,793.3699340820312,786.5201416015625,796.5933837890625,782.087890625
1210,784.908447265625,792.967041015625,798.6080322265625,780.879150390625
1211,777.6557006835938,796.996337890625,796.5933837890625,779.6703491210938
1212,776.4468994140625,799.8168334960938,794.5787353515625,785.7142944335938
1213,778.4615478515625,792.5640869140625,794.1758422851562,785.3113403320312
1214,784.1025390625,786.5201416015625,794.981689453125,779.6703491210938
1215,784.908447265625,789.3406372070312,795.7875366210938,775.6410522460938
1216,775.2380981445312,785.7142944335938,791.7582397460938,774.029296875
1217,775.6410522460938,784.1025390625,791.3552856445312,776.4468994140625
1218,783.2966918945312,790.5494384765625,791.7582397460938,780.879150390625
1219,783.6996459960938,789.7435913085938,791.7582397460938,784.5054931640625
1220,788.1318969726562,784.1025390625,794.1758422851562,779.2673950195312
1221,786.923095703125,787.7289428710938,788.1318969726562,772.8204956054688
1222,778.05859375,787.3259887695312,782.087890625,772.8204956054688
1223,774.8351440429688,787.3259887695312,786.923095703125,780.4761962890625
1224,779.6703491210938,789.7435913085938,789.3406372070312,788.1318969726562
1225,790.5494384765625,792.5640869140625,788.937744140625,787.3259887695312
1226,799.4139404296875,795.3846435546875,787.7289428710938,788.1318969726562
1227,794.981689453125,794.1758422851562,790.5494384765625,793.3699340820312
1228,792.1611938476562,796.996337890625,792.5640869140625,792.967041015625
1229,799.8168334960938,799.8168334960938,793.7728881835938,792.1611938476562
1230,794.5787353515625,794.5787353515625,789.7435913085938,791.3552856445312
1231,791.3552856445312,789.3406372070312,789.7435913085938,792.967041015625
1232,792.967041015625,794.981689453125,793.3699340820312,799.4139404296875
1233,786.1171875,797.8021850585938,792.1611938476562,800.2197875976562
1234,781.2820434570312,792.1611938476562,793.3699340820312,795.7875366210938
1235,792.967041015625,789.3406372070312,792.1611938476562,797.3992919921875
1236,796.5933837890625,784.1025390625,792.967041015625,796.5933837890625
1237,778.8644409179688,783.6996459960938,802.2344360351562,784.908447265625
1238,776.0439453125,785.3113403320312,800.6226806640625,786.1171875
1239,785.3113403320312,781.2820434570312,798.6080322265625,792.967041015625
1240,792.1611938476562,786.1171875,797.3992919921875,790.1465454101562
1241,799.8168334960938,797.8021850585938,794.981689453125,785.7142944335938
1242,790.5494384765625,801.8314819335938,791.7582397460938,782.4908447265625
1243,781.6849975585938,796.996337890625,792.5640869140625,785.7142944335938
1244,785.7142944335938,793.3699340820312,792.1611938476562,776.8497924804688
1245,788.1318969726562,794.5787353515625,788.5347900390625,776.8497924804688
1246,796.996337890625,792.1611938476562,790.1465454101562,785.7142944335938
1247,801.025634765625,792.5640869140625,794.1758422851562,787.3259887695312
1248,792.5640869140625,794.5787353515625,795.3846435546875,788.5347900390625
1249,794.5787353515625,794.981689453125,793.3699340820312,797.3992919921875
1250,796.996337890625,796.1904907226562,795.3846435546875,800.2197875976562
1251,800.6226806640625,793.3699340820312,796.5933837890625,791.7582397460938
1252,801.025634765625,794.1758422851562,792.967041015625,794.5787353515625
1253,791.3552856445312,795.3846435546875,798.2051391601562,795.3846435546875
1254,785.7142944335938,790.5494384765625,797.8021850585938,793.7728881835938
1255,783.6996459960938,784.5054931640625,790.952392578125,792.1611938476562
1256,790.952392578125,780.4761962890625,794.1758422851562,796.1904907226562
1257,795.3846435546875,792.967041015625,794.981689453125,794.5787353515625
1258,792.5640869140625,804.6520385742188,796.996337890625,787.3259887695312
1259,790.952392578125,801.8314819335938,797.3992919921875,790.1465454101562
1260,790.5494384765625,797.8021850585938,793.3699340820312,793.7728881835938
1261,792.967041015625,795.3846435546875,796.5933837890625,800.2197875976562
1262,790.952392578125,792.1611938476562,799.8168334960938,799.4139404296875
1263,791.3552856445312,791.3552856445312,797.3992919921875,791.7582397460938
1264,793.7728881835938,794.1758422851562,795.3846435546875,789.7435913085938
1265,793.7728881835938,790.1465454101562,794.981689453125,794.1758422851562
1266,794.981689453125,793.7728881835938,796.5933837890625,791.3552856445312
1267,799.4139404296875,799.010986328125,799.4139404296875,799.010986328125
1268,796.996337890625,792.1611938476562,803.040283203125,799.010986328125
1269,793.7728881835938,789.3406372070312,801.025634765625,783.2966918945312
1270,796.996337890625,793.7728881835938,799.8168334960938,783.6996459960938
1271,808.6813354492188,794.5787353515625,797.3992919921875,787.7289428710938
1272,805.8607788085938,797.3992919921875,790.1465454101562,798.6080322265625
1273,792.967041015625,794.981689453125,791.7582397460938,803.4432373046875
1274,789.7435913085938,793.3699340820312,792.967041015625,796.996337890625
1275,793.3699340820312,795.7875366210938,788.5347900390625,801.025634765625
1276,794.1758422851562,794.981689453125,788.937744140625,807.069580078125
1277,790.1465454101562,793.7728881835938,789.3406372070312,803.8461303710938
1278,793.3699340820312,796.5933837890625,788.937744140625,796.996337890625
1279,792.967041015625,793.3699340820312,787.3259887695312,793.7728881835938
1280,795.7875366210938,793.3699340820312,788.1318969726562,792.967041015625
1281,799.8168334960938,787.3259887695312,786.5201416015625,797.3992919921875
1282,797.3992919921875,785.7142944335938,784.908447265625,800.2197875976562
1283,791.3552856445312,788.937744140625,785.3113403320312,793.7728881835938
1284,790.952392578125,784.5054931640625,792.967041015625,790.1465454101562
1285,784.908447265625,782.4908447265625,794.1758422851562,786.5201416015625
1286,783.2966918945312,781.2820434570312,789.3406372070312,786.923095703125
1287,787.3259887695312,784.908447265625,788.1318969726562,791.3552856445312
1288,781.6849975585938,785.7142944335938,787.3259887695312,789.3406372070312
1289,781.2820434570312,783.6996459960938,785.3113403320312,785.3113403320312
1290,788.1318969726562,783.2966918945312,782.087890625,782.087890625
1291,789.3406372070312,786.1171875,782.4908447265625,785.7142944335938
1292,790.952392578125,791.7582397460938,783.6996459960938,788.5347900390625
1293,796.5933837890625,791.7582397460938,785.3113403320312,792.5640869140625
1294,799.010986328125,789.7435913085938,787.7289428710938,787.7289428710938
1295,804.2490844726562,793.3699340820312,786.5201416015625,788.937744140625
1296,801.8314819335938,793.3699340820312,788.937744140625,799.4139404296875
1297,792.1611938476562,787.7289428710938,790.952392578125,798.2051391601562
1298,782.893798828125,784.5054931640625,789.3406372070312,789.7435913085938
1299,780.4761962890625,786.5201416015625,790.952392578125,794.1758422851562
1300,791.7582397460938,790.952392578125,794.5787353515625,802.6373901367188
1301,790.5494384765625,790.5494384765625,795.7875366210938,790.952392578125
1302,786.5201416015625,786.923095703125,793.7728881835938,787.3259887695312
1303,788.5347900390625,788.1318969726562,792.967041015625,790.5494384765625
1304,786.923095703125,788.1318969726562,791.7582397460938,786.923095703125
1305,783.6996459960938,784.5054931640625,791.3552856445312,780.0732421875
1306,787.7289428710938,785.7142944335938,792.5640869140625,786.5201416015625
1307,786.923095703125,790.5494384765625,792.5640869140625,788.937744140625
1308,782.893798828125,788.5347900390625,793.3699340820312,790.1465454101562
1309,783.6996459960938,784.5054931640625,794.1758422851562,786.923095703125
1310,782.4908447265625,784.5054931640625,793.7728881835938,775.2380981445312
1311,784.1025390625,784.1025390625,792.5640869140625,782.893798828125
1312,784.5054931640625,781.6849975585938,790.952392578125,785.7142944335938
1313,787.3259887695312,780.879150390625,786.923095703125,783.6996459960938
1314,786.923095703125,778.4615478515625,786.923095703125,782.893798828125
1315,780.4761962890625,782.087890625,790.1465454101562,778.4615478515625
1316,788.1318969726562,788.937744140625,790.1465454101562,780.4761962890625
1317,793.3699340820312,788.5347900390625,792.967041015625,782.087890625
1318,784.1025390625,790.952392578125,797.8021850585938,786.923095703125
1319,783.6996459960938,787.7289428710938,798.6080322265625,796.1904907226562
1320,779.6703491210938,784.908447265625,796.5933837890625,790.952392578125
1321,778.8644409179688,785.7142944335938,797.3992919921875,784.5054931640625
1322,791.3552856445312,789.3406372070312,796.996337890625,796.5933837890625
1323,794.5787353515625,786.5201416015625,795.3846435546875,800.6226806640625
1324,794.1758422851562,780.879150390625,800.2197875976562,791.7582397460938
1325,788.937744140625,788.5347900390625,804.2490844726562,792.5640869140625
1326,784.5054931640625,794.1758422851562,800.6226806640625,793.3699340820312
1327,788.1318969726562,794.981689453125,800.6226806640625,794.5787353515625
1328,793.3699340820312,796.1904907226562,801.025634765625,794.5787353515625
1329,794.981689453125,793.7728881835938,797.8021850585938,791.3552856445312
1330,799.8168334960938,793.7728881835938,800.6226806640625,797.3992919921875
1331,803.8461303710938,792.967041015625,803.040283203125,799.8168334960938
1332,802.2344360351562,792.5640869140625,792.5640869140625,793.7728881835938
1333,804.2490844726562,797.3992919921875,789.3406372070312,790.5494384765625
1334,795.7875366210938,794.981689453125,789.3406372070312,782.087890625
1335,788.1318969726562,791.7582397460938,785.3113403320312,775.2380981445312
1336,793.3699340820312,791.3552856445312,786.923095703125,779.6703491210938
1337,789.3406372070312,792.967041015625,787.7289428710938,781.6849975585938
1338,794.981689453125,792.967041015625,790.5494384765625,785.7142944335938
1339,802.6373901367188,790.1465454101562,794.1758422851562,788.5347900390625
1340,795.7875366210938,784.908447265625,791.7582397460938,788.5347900390625
1341,790.1465454101562,790.5494384765625,790.1465454101562,793.3699340820312
1342,797.3992919921875,796.996337890625,798.2051391601562,803.040283203125
1343,799.8168334960938,793.7728881835938,800.2197875976562,799.010986328125
1344,793.3699340820312,794.1758422851562,799.4139404296875,794.981689453125
1345,790.1465454101562,794.5787353515625,798.6080322265625,796.1904907226562
1346,788.937744140625,793.7728881835938,797.8021850585938,789.7435913085938
1347,792.5640869140625,793.7728881835938,800.2197875976562,785.3113403320312
1348,792.967041015625,790.952392578125,803.040283203125,785.7142944335938
1349,791.7582397460938,788.937744140625,801.8314819335938,793.3699340820312
1350,785.7142944335938,794.981689453125,801.8314819335938,792.5640869140625
1351,779.6703491210938,794.5787353515625,798.2051391601562,777.6557006835938
1352,780.0732421875,788.5347900390625,793.3699340820312,778.8644409179688
1353,787.3259887695312,785.3113403320312,793.7728881835938,793.7728881835938
1354,788.5347900390625,786.923095703125,795.3846435546875,793.7728881835938
1355,782.893798828125,790.952392578125,794.981689453125,788.937744140625
1356,786.1171875,788.937744140625,796.5933837890625,792.967041015625
1357,787.7289428710938,784.908447265625,796.5933837890625,792.1611938476562
1358,792.1611938476562,783.6996459960938,792.5640869140625,786.5201416015625
1359,781.6849975585938,784.908447265625,790.952392578125,778.05859375
1360,778.4615478515625,786.923095703125,792.5640869140625,777.6557006835938
1361,788.5347900390625,787.7289428710938,795.7875366210938,790.5494384765625
1362,788.5347900390625,791.7582397460938,792.5640869140625,790.952392578125
1363,788.5347900390625,794.1758422851562,792.1611938476562,786.1171875
1364,792.5640869140625,793.3699340820312,794.1758422851562,790.1465454101562
1365,794.5787353515625,792.5640869140625,794.981689453125,788.5347900390625
1366,789.7435913085938,787.7289428710938,794.5787353515625,787.3259887695312
1367,796.1904907226562,787.7289428710938,792.5640869140625,794.1758422851562
1368,801.025634765625,789.3406372070312,792.967041015625,799.4139404296875
1369,790.1465454101562,784.908447265625,793.3699340820312,795.7875366210938
1370,784.1025390625,786.1171875,788.1318969726562,787.7289428710938
1371,789.3406372070312,790.5494384765625,786.1171875,790.1465454101562
1372,788.1318969726562,785.3113403320312,787.7289428710938,794.981689453125
1373,786.5201416015625,782.4908447265625,789.7435913085938,799.8168334960938
1374,794.1758422851562,788.937744140625,793.3699340820312,797.8021850585938
1375,788.1318969726562,791.7582397460938,792.1611938476562,787.3259887695312
1376,776.0439453125,788.1318969726562,788.1318969726562,779.2673950195312
1377,780.4761962890625,790.952392578125,787.3259887695312,783.6996459960938
1378,786.923095703125,793.7728881835938,787.7289428710938,786.923095703125
1379,788.5347900390625,789.7435913085938,787.3259887695312,781.6849975585938
1380,790.5494384765625,791.7582397460938,789.7435913085938,783.6996459960938
1381,792.5640869140625,798.2051391601562,792.967041015625,782.4908447265625
1382,792.5640869140625,796.1904907226562,790.5494384765625,776.4468994140625
1383,799.010986328125,792.5640869140625,790.952392578125,786.1171875
1384,800.2197875976562,791.7582397460938,790.1465454101562,791.7582397460938
1385,784.1025390625,792.5640869140625,790.5494384765625,782.4908447265625
1386,779.6703491210938,794.981689453125,795.3846435546875,775.6410522460938
1387,786.1171875,788.5347900390625,798.2051391601562,778.05859375
1388,786.1171875,784.908447265625,795.3846435546875,779.6703491210938
1389,786.1171875,790.5494384765625,793.7728881835938,781.2820434570312
1390,783.6996459960938,782.893798828125,792.967041015625,781.6849975585938
1391,776.8497924804688,777.6557006835938,789.3406372070312,777.6557006835938
1392,781.6849975585938,787.3259887695312,787.7289428710938,781.6849975585938
1393,784.5054931640625,788.5347900390625,789.3406372070312,782.4908447265625
1394,789.7435913085938,790.1465454101562,791.3552856445312,786.1171875
1395,794.1758422851562,792.967041015625,790.5494384765625,794.5787353515625
1396,792.5640869140625,784.908447265625,789.7435913085938,794.981689453125
1397,786.1171875,787.7289428710938,784.5054931640625,788.1318969726562
1398,785.7142944335938,794.981689453125,786.1171875,784.5054931640625
1399,788.937744140625,789.3406372070312,792.967041015625,785.7142944335938
1400,788.1318969726562,788.5347900390625,794.981689453125,783.6996459960938
1401,786.5201416015625,792.5640869140625,796.5933837890625,788.937744140625
1402,783.6996459960938,792.967041015625,803.4432373046875,793.7728881835938
1403,787.7289428710938,792.5640869140625,803.8461303710938,789.3406372070312
1404,791.3552856445312,789.7435913085938,803.040283203125,792.5640869140625
1405,793.7728881835938,789.3406372070312,802.6373901367188,793.7728881835938
1406,789.3406372070312,789.7435913085938,798.2051391601562,788.5347900390625
1407,790.952392578125,788.937744140625,798.6080322265625,795.7875366210938
1408,794.1758422851562,788.5347900390625,796.1904907226562,795.7875366210938
1409,790.952392578125,788.937744140625,789.3406372070312,787.7289428710938
1410,798.6080322265625,791.3552856445312,788.937744140625,787.7289428710938
1411,804.6520385742188,788.1318969726562,793.7728881835938,785.3113403320312
1412,796.1904907226562,784.908447265625,796.5933837890625,784.5054931640625
1413,794.5787353515625,786.923095703125,795.7875366210938,786.5201416015625
1414,801.8314819335938,790.1465454101562,792.1611938476562,794.1758422851562
1415,799.010986328125,787.3259887695312,794.981689453125,795.7875366210938
1416,793.3699340820312,783.2966918945312,799.4139404296875,796.996337890625
1417,794.1758422851562,787.3259887695312,803.8461303710938,799.010986328125
1418,795.7875366210938,793.3699340820312,801.4285888671875,801.8314819335938
1419,801.025634765625,791.7582397460938,799.8168334960938,809.084228515625
1420,801.4285888671875,791.3552856445312,805.054931640625,799.8168334960938
1421,794.1758422851562,786.923095703125,801.4285888671875,789.7435913085938
1422,790.952392578125,781.6849975585938,796.1904907226562,784.5054931640625
1423,789.7435913085938,786.923095703125,796.1904907226562,788.1318969726562
1424,787.3259887695312,790.5494384765625,797.3992919921875,792.1611938476562
1425,789.3406372070312,787.7289428710938,801.8314819335938,787.3259887695312
1426,788.1318969726562,787.7289428710938,800.6226806640625,784.5054931640625
1427,787.3259887695312,788.937744140625,795.7875366210938,780.0732421875
1428,786.5201416015625,791.3552856445312,800.2197875976562,785.7142944335938
1429,798.6080322265625,791.3552856445312,801.8314819335938,788.1318969726562
1430,799.8168334960938,787.3259887695312,795.3846435546875,785.3113403320312
1431,786.5201416015625,786.1171875,793.7728881835938,788.5347900390625
1432,784.908447265625,786.923095703125,793.7728881835938,786.1171875
1433,784.1025390625,785.7142944335938,787.3259887695312,782.4908447265625
1434,786.1171875,779.2673950195312,786.5201416015625,786.923095703125
1435,793.7728881835938,788.937744140625,790.1465454101562,792.1611938476562
1436,791.3552856445312,796.1904907226562,787.7289428710938,790.952392578125
1437,788.937744140625,790.5494384765625,784.5054931640625,792.5640869140625
1438,794.5787353515625,786.5201416015625,783.6996459960938,789.7435913085938
1439,798.6080322265625,788.1318969726562,784.1025390625,787.7289428710938
1440,799.8168334960938,788.937744140625,786.923095703125,791.7582397460938
1441,802.2344360351562,788.937744140625,792.5640869140625,793.3699340820312
1442,802.2344360351562,789.7435913085938,795.7875366210938,793.3699340820312
1443,795.7875366210938,788.937744140625,795.3846435546875,789.7435913085938
1444,786.923095703125,786.1171875,797.8021850585938,788.1318969726562
1445,784.908447265625,782.4908447265625,795.7875366210938,794.5787353515625
1446,787.3259887695312,780.879150390625,792.1611938476562,796.996337890625
1447,788.5347900390625,781.2820434570312,795.7875366210938,796.1904907226562
1448,784.1025390625,777.2527465820312,795.7875366210938,796.996337890625
1449,778.4615478515625,779.2673950195312,792.1611938476562,786.1171875
1450,778.8644409179688,783.2966918945312,792.5640869140625,782.4908447265625
1451,783.6996459960938,780.4761962890625,794.5787353515625,792.5640869140625
1452,787.3259887695312,785.7142944335938,790.5494384765625,792.1611938476562
1453,786.5201416015625,788.937744140625,789.3406372070312,785.3113403320312
1454,796.1904907226562,786.923095703125,796.5933837890625,786.5201416015625
1455,800.2197875976562,793.7728881835938,801.025634765625,788.5347900390625
1456,794.981689453125,799.010986328125,800.6226806640625,790.952392578125
1457,788.937744140625,792.967041015625,796.996337890625,794.1758422851562
1458,789.3406372070312,787.7289428710938,790.952392578125,791.3552856445312
1459,791.3552856445312,787.7289428710938,788.1318969726562,789.3406372070312
1460,794.1758422851562,787.3259887695312,789.3406372070312,787.7289428710938
1461,801.8314819335938,786.1171875,788.5347900390625,789.3406372070312
1462,799.4139404296875,788.5347900390625,790.5494384765625,787.7289428710938
1463,791.7582397460938,793.3699340820312,794.5787353515625,784.5054931640625
1464,788.5347900390625,789.7435913085938,795.7875366210938,786.923095703125
1465,787.7289428710938,784.908447265625,792.5640869140625,785.7142944335938
1466,787.7289428710938,790.952392578125,796.1904907226562,785.3113403320312
1467,788.1318969726562,794.1758422851562,799.8168334960938,787.3259887695312
1468,792.967041015625,792.967041015625,799.010986328125,790.952392578125
1469,790.952392578125,788.5347900390625,801.4285888671875,794.5787353515625
1470,788.5347900390625,789.3406372070312,803.040283203125,787.7289428710938
1471,788.937744140625,790.952392578125,802.6373901367188,788.5347900390625
1472,788.5347900390625,785.7142944335938,799.010986328125,796.1904907226562
1473,782.4908447265625,782.087890625,797.3992919921875,790.952392578125
1474,782.893798828125,782.087890625,796.996337890625,790.952392578125
1475,795.3846435546875,786.923095703125,794.981689453125,797.3992919921875
1476,796.1904907226562,786.1171875,792.5640869140625,795.3846435546875
1477,795.7875366210938,783.6996459960938,795.7875366210938,800.6226806640625
1478,795.3846435546875,788.937744140625,799.010986328125,800.2197875976562
1479,787.7289428710938,792.5640869140625,799.010986328125,795.3846435546875
1480,788.937744140625,786.923095703125,796.996337890625,797.8021850585938
1481,790.1465454101562,784.1025390625,797.3992919921875,789.7435913085938
1482,786.5201416015625,787.3259887695312,794.5787353515625,779.2673950195312
1483,786.5201416015625,787.7289428710938,791.7582397460938,777.6557006835938
1484,785.7142944335938,792.967041015625,791.7582397460938,783.6996459960938
1485,787.7289428710938,795.7875366210938,792.1611938476562,781.6849975585938
1486,792.1611938476562,792.5640869140625,789.3406372070312,772.4176025390625
1487,792.967041015625,789.7435913085938,788.5347900390625,773.6264038085938
1488,791.7582397460938,787.3259887695312,790.1465454101562,773.6264038085938
1489,785.7142944335938,787.3259887695312,786.923095703125,771.6116943359375
1490,792.1611938476562,791.3552856445312,788.937744140625,779.6703491210938
1491,799.4139404296875,792.967041015625,792.967041015625,790.1465454101562
1492,789.3406372070312,789.7435913085938,792.5640869140625,790.1465454101562
1493,784.1025390625,792.1611938476562,795.3846435546875,787.3259887695312
1494,783.6996459960938,799.010986328125,792.5640869140625,787.3259887695312
1495,786.5201416015625,799.8168334960938,793.3699340820312,791.7582397460938
1496,791.3552856445312,796.1904907226562,801.025634765625,801.4285888671875
1497,793.7728881835938,792.5640869140625,802.6373901367188,804.2490844726562
1498,792.1611938476562,793.7728881835938,802.2344360351562,799.4139404296875
1499,787.7289428710938,794.981689453125,799.4139404296875,794.5787353515625
1500,787.3259887695312,790.952392578125,798.6080322265625,794.1758422851562
1501,793.3699340820312,789.3406372070312,799.8168334960938,800.6226806640625
1502,801.4285888671875,793.3699340820312,799.010986328125,807.87548828125
1503,803.4432373046875,796.5933837890625,801.025634765625,814.7252807617188
1504,803.4432373046875,790.5494384765625,799.8168334960938,813.5164794921875
1505,802.6373901367188,782.4908447265625,795.3846435546875,804.2490844726562
1506,798.6080322265625,783.2966918945312,794.981689453125,798.6080322265625
1507,799.010986328125,786.923095703125,792.967041015625,796.996337890625
1508,797.8021850585938,780.0732421875,791.3552856445312,799.010986328125
1509,803.040283203125,783.2966918945312,794.5787353515625,801.8314819335938
1510,801.025634765625,792.967041015625,794.1758422851562,799.8168334960938
1511,796.1904907226562,799.8168334960938,795.7875366210938,803.040283203125
1512,793.7728881835938,797.3992919921875,794.1758422851562,796.5933837890625
1513,785.7142944335938,792.1611938476562,789.7435913085938,780.4761962890625
1514,780.879150390625,795.3846435546875,789.3406372070312,778.4615478515625
1515,778.05859375,794.5787353515625,793.3699340820312,774.029296875
1516,782.087890625,792.1611938476562,794.1758422851562,770.4029541015625
1517,782.4908447265625,788.5347900390625,788.5347900390625,766.3735961914062
1518,784.5054931640625,784.908447265625,787.3259887695312,761.5384521484375
1519,778.8644409179688,788.1318969726562,787.7289428710938,763.9560546875
1520,778.4615478515625,786.5201416015625,789.3406372070312,771.6116943359375
1521,788.5347900390625,784.1025390625,790.5494384765625,778.4615478515625
1522,794.981689453125,782.4908447265625,791.7582397460938,787.3259887695312
1523,788.937744140625,786.1171875,792.5640869140625,793.3699340820312
1524,782.893798828125,792.1611938476562,792.1611938476562,786.5201416015625
1525,784.5054931640625,791.3552856445312,795.3846435546875,786.5201416015625
1526,788.1318969726562,793.7728881835938,795.7875366210938,791.3552856445312
1527,792.5640869140625,791.3552856445312,794.1758422851562,787.7289428710938
1528,794.5787353515625,789.3406372070312,791.3552856445312,781.6849975585938
1529,797.3992919921875,792.1611938476562,790.1465454101562,786.5201416015625
1530,797.3992919921875,796.996337890625,790.952392578125,788.937744140625
1531,790.1465454101562,796.5933837890625,790.952392578125,781.6849975585938
1532,797.3992919921875,790.1465454101562,792.1611938476562,782.4908447265625
1533,808.6813354492188,794.1758422851562,789.7435913085938,782.087890625
1534,801.8314819335938,799.4139404296875,792.1611938476562,782.893798828125
1535,799.4139404296875,792.5640869140625,795.3846435546875,791.7582397460938
1536,798.2051391601562,786.923095703125,792.1611938476562,792.1611938476562
1537,794.5787353515625,790.1465454101562,788.937744140625,786.923095703125
1538,795.7875366210938,798.2051391601562,787.7289428710938,785.7142944335938
1539,799.4139404296875,796.5933837890625,794.5787353515625,786.1171875
1540,798.2051391601562,797.3992919921875,796.1904907226562,788.5347900390625
1541,794.1758422851562,796.5933837890625,793.3699340820312,790.5494384765625
1542,796.1904907226562,795.7875366210938,796.996337890625,794.981689453125
1543,793.7728881835938,798.6080322265625,796.5933837890625,794.5787353515625
1544,787.3259887695312,794.1758422851562,795.3846435546875,788.1318969726562
1545,785.7142944335938,794.1758422851562,798.2051391601562,788.1318969726562
1546,786.1171875,797.3992919921875,793.7728881835938,782.087890625
1547,787.7289428710938,794.5787353515625,790.952392578125,781.6849975585938
1548,788.1318969726562,792.967041015625,793.7728881835938,784.5054931640625
1549,784.5054931640625,793.7728881835938,789.3406372070312,784.908447265625
1550,781.2820434570312,796.1904907226562,785.7142944335938,786.1171875
1551,788.5347900390625,795.3846435546875,786.1171875,779.2673950195312
1552,794.1758422851562,793.7728881835938,788.5347900390625,782.893798828125
1553,785.7142944335938,793.3699340820312,788.1318969726562,787.3259887695312
1554,787.7289428710938,798.6080322265625,788.937744140625,786.5201416015625
1555,789.3406372070312,801.4285888671875,792.5640869140625,786.923095703125
1556,784.5054931640625,798.2051391601562,795.7875366210938,787.7289428710938
1557,799.4139404296875,800.2197875976562,798.2051391601562,783.6996459960938
1558,802.2344360351562,801.8314819335938,794.5787353515625,782.4908447265625
1559,790.952392578125,799.4139404296875,792.1611938476562,787.7289428710938
1560,794.1758422851562,796.5933837890625,793.3699340820312,793.7728881835938
1561,793.7728881835938,797.3992919921875,794.5787353515625,792.1611938476562
1562,792.5640869140625,800.2197875976562,792.1611938476562,781.6849975585938
1563,794.981689453125,801.8314819335938,791.7582397460938,790.5494384765625
1564,791.7582397460938,800.2197875976562,792.967041015625,800.2197875976562
1565,782.893798828125,796.1904907226562,791.3552856445312,790.5494384765625
1566,785.3113403320312,793.7728881835938,795.3846435546875,784.5054931640625
1567,789.3406372070312,797.3992919921875,801.8314819335938,789.7435913085938
1568,778.8644409179688,794.1758422851562,800.6226806640625,787.3259887695312
1569,783.2966918945312,797.3992919921875,800.2197875976562,782.4908447265625
1570,785.7142944335938,799.8168334960938,798.2051391601562,783.6996459960938
1571,778.05859375,792.1611938476562,799.4139404296875,784.5054931640625
1572,777.2527465820312,792.5640869140625,806.2637329101562,786.923095703125
1573,779.2673950195312,796.1904907226562,803.040283203125,785.7142944335938
1574,786.5201416015625,790.5494384765625,796.1904907226562,777.6557006835938
1575,786.5201416015625,784.908447265625,794.981689453125,772.4176025390625
1576,776.0439453125,792.1611938476562,793.3699340820312,779.6703491210938
1577,775.2380981445312,802.6373901367188,795.7875366210938,780.879150390625
1578,778.8644409179688,800.6226806640625,795.3846435546875,773.6264038085938
1579,784.5054931640625,796.5933837890625,794.5787353515625,779.6703491210938
1580,786.1171875,800.2197875976562,798.2051391601562,784.5054931640625
1581,788.5347900390625,795.7875366210938,799.010986328125,784.5054931640625
1582,788.1318969726562,795.3846435546875,799.010986328125,776.0439453125
1583,784.1025390625,802.6373901367188,798.6080322265625,773.6264038085938
1584,790.952392578125,803.040283203125,798.6080322265625,782.893798828125
1585,795.3846435546875,799.010986328125,794.1758422851562,782.893798828125
1586,788.5347900390625,792.1611938476562,791.3552856445312,778.05859375
