timestamp,RAW_TP9,RAW_AF7,RAW_AF8,RAW_TP10
1,807.87548828125,791.7582397460938,795.3846435546875,794.981689453125
2,803.4432373046875,788.937744140625,790.5494384765625,799.8168334960938
3,796.996337890625,788.5347900390625,790.1465454101562,793.7728881835938
4,795.3846435546875,789.7435913085938,792.1611938476562,794.5787353515625
5,796.1904907226562,788.937744140625,793.7728881835938,801.4285888671875
6,797.8021850585938,789.7435913085938,790.5494384765625,798.2051391601562
7,793.7728881835938,791.7582397460938,790.5494384765625,790.1465454101562
8,790.5494384765625,790.952392578125,794.1758422851562,794.5787353515625
9,794.981689453125,789.3406372070312,793.7728881835938,794.5787353515625
10,797.3992919921875,794.1758422851562,794.5787353515625,792.5640869140625
11,799.4139404296875,794.5787353515625,793.3699340820312,793.3699340820312
12,797.3992919921875,792.5640869140625,790.952392578125,794.5787353515625
13,795.3846435546875,794.1758422851562,787.3259887695312,800.2197875976562
14,788.937744140625,791.3552856445312,785.3113403320312,788.1318969726562
15,781.6849975585938,786.1171875,786.1171875,776.8497924804688
16,786.5201416015625,786.5201416015625,785.3113403320312,780.879150390625
17,792.1611938476562,788.5347900390625,784.1025390625,784.5054931640625
18,793.3699340820312,784.5054931640625,778.4615478515625,781.6849975585938
19,793.7728881835938,781.2820434570312,777.6557006835938,778.05859375
20,792.5640869140625,787.7289428710938,780.4761962890625,782.4908447265625
21,790.952392578125,787.7289428710938,781.2820434570312,786.1171875
22,790.952392578125,785.7142944335938,781.6849975585938,786.5201416015625
23,792.967041015625,788.1318969726562,787.7289428710938,783.2966918945312
24,794.1758422851562,791.3552856445312,786.1171875,783.6996459960938
25,786.5201416015625,789.7435913085938,780.4761962890625,782.087890625
26,785.3113403320312,790.1465454101562,783.2966918945312,778.4615478515625
27,792.967041015625,796.5933837890625,782.893798828125,779.6703491210938
28,800.6226806640625,798.6080322265625,784.908447265625,786.5201416015625
29,803.040283203125,799.4139404296875,788.937744140625,797.3992919921875
30,794.5787353515625,798.6080322265625,786.1171875,794.1758422851562
31,792.1611938476562,791.7582397460938,782.893798828125,785.7142944335938
32,792.967041015625,793.7728881835938,784.908447265625,788.5347900390625
33,789.3406372070312,794.5787353515625,783.6996459960938,791.7582397460938
34,791.3552856445312,790.952392578125,785.7142944335938,790.1465454101562
35,789.7435913085938,791.7582397460938,791.3552856445312,791.7582397460938
36,795.7875366210938,795.3846435546875,792.5640869140625,803.040283203125
37,800.6226806640625,800.2197875976562,791.7582397460938,801.025634765625
38,800.6226806640625,801.025634765625,791.3552856445312,792.1611938476562
39,802.6373901367188,797.8021850585938,794.1758422851562,794.5787353515625
40,802.6373901367188,798.6080322265625,793.3699340820312,795.7875366210938
41,797.3992919921875,805.054931640625,792.967041015625,797.3992919921875
42,796.996337890625,805.8607788085938,797.3992919921875,798.2051391601562
43,801.4285888671875,800.2197875976562,796.996337890625,796.5933837890625
44,797.8021850585938,797.8021850585938,794.1758422851562,796.5933837890625
45,794.1758422851562,794.5787353515625,798.6080322265625,793.7728881835938
46,795.7875366210938,793.7728881835938,800.2197875976562,791.3552856445312
47,793.7728881835938,793.3699340820312,800.2197875976562,786.923095703125
48,792.1611938476562,791.3552856445312,796.1904907226562,786.5201416015625
49,794.981689453125,790.1465454101562,791.3552856445312,788.1318969726562
50,794.5787353515625,790.952392578125,792.1611938476562,785.3113403320312
51,792.967041015625,791.3552856445312,792.5640869140625,784.1025390625
52,794.1758422851562,796.5933837890625,795.3846435546875,792.1611938476562
53,794.1758422851562,797.3992919921875,793.7728881835938,789.7435913085938
54,792.5640869140625,792.1611938476562,787.7289428710938,782.893798828125
55,790.952392578125,786.5201416015625,788.937744140625,794.1758422851562
56,789.3406372070312,791.7582397460938,794.5787353515625,804.2490844726562
57,788.5347900390625,793.7728881835938,792.1611938476562,796.5933837890625
58,795.3846435546875,786.1171875,790.952392578125,796.996337890625
59,800.2197875976562,784.5054931640625,792.5640869140625,801.8314819335938
60,792.1611938476562,786.1171875,785.7142944335938,792.5640869140625
61,785.3113403320312,791.7582397460938,785.3113403320312,786.1171875
62,790.5494384765625,796.5933837890625,784.5054931640625,790.952392578125
63,796.996337890625,795.7875366210938,780.4761962890625,793.7728881835938
64,794.5787353515625,796.996337890625,782.893798828125,790.952392578125
65,798.2051391601562,792.1611938476562,782.893798828125,791.3552856445312
66,803.8461303710938,793.3699340820312,786.923095703125,794.1758422851562
67,799.8168334960938,797.3992919921875,792.967041015625,795.7875366210938
68,801.025634765625,795.3846435546875,792.967041015625,798.2051391601562
69,808.6813354492188,792.1611938476562,790.1465454101562,801.8314819335938
70,805.4578857421875,791.7582397460938,790.1465454101562,801.8314819335938
71,789.7435913085938,790.952392578125,792.5640869140625,798.2051391601562
72,788.5347900390625,792.1611938476562,790.1465454101562,797.8021850585938
73,794.1758422851562,791.7582397460938,791.3552856445312,796.996337890625
74,791.7582397460938,790.952392578125,793.7728881835938,800.6226806640625
75,790.952392578125,788.5347900390625,794.5787353515625,800.6226806640625
76,794.981689453125,788.5347900390625,794.981689453125,799.010986328125
77,799.8168334960938,795.3846435546875,802.2344360351562,801.8314819335938
78,797.8021850585938,796.5933837890625,804.6520385742188,802.2344360351562
79,794.5787353515625,786.5201416015625,797.8021850585938,801.025634765625
80,793.7728881835938,785.7142944335938,791.3552856445312,794.5787353515625
81,792.5640869140625,792.967041015625,788.937744140625,789.3406372070312
82,786.1171875,792.1611938476562,796.5933837890625,786.5201416015625
83,783.6996459960938,788.1318969726562,801.025634765625,784.908447265625
84,787.7289428710938,785.3113403320312,793.3699340820312,784.5054931640625
85,790.1465454101562,784.5054931640625,792.1611938476562,784.908447265625
86,784.908447265625,783.6996459960938,795.7875366210938,787.7289428710938
87,781.2820434570312,783.6996459960938,796.1904907226562,785.7142944335938
88,784.5054931640625,783.6996459960938,794.981689453125,784.1025390625
89,786.5201416015625,785.3113403320312,790.1465454101562,779.6703491210938
90,788.5347900390625,786.923095703125,792.967041015625,780.4761962890625
91,788.1318969726562,785.7142944335938,795.3846435546875,782.087890625
92,787.7289428710938,782.087890625,796.1904907226562,779.2673950195312
93,796.1904907226562,784.1025390625,796.5933837890625,788.1318969726562
94,797.3992919921875,789.7435913085938,799.8168334960938,792.967041015625
95,794.981689453125,787.7289428710938,801.025634765625,790.5494384765625
96,789.7435913085938,783.6996459960938,801.025634765625,788.5347900390625
97,784.1025390625,784.908447265625,804.2490844726562,791.7582397460938
98,785.7142944335938,786.923095703125,802.6373901367188,789.7435913085938
99,785.3113403320312,784.5054931640625,797.8021850585938,782.087890625
100,784.1025390625,788.937744140625,797.8021850585938,784.908447265625
101,784.908447265625,790.1465454101562,800.6226806640625,783.2966918945312
102,781.2820434570312,784.5054931640625,793.7728881835938,776.8497924804688
103,779.2673950195312,785.7142944335938,787.7289428710938,772.4176025390625
104,782.4908447265625,783.2966918945312,789.7435913085938,771.2088012695312
105,785.3113403320312,781.2820434570312,793.3699340820312,774.8351440429688
106,786.923095703125,788.937744140625,795.7875366210938,776.4468994140625
107,786.923095703125,792.967041015625,793.7728881835938,777.2527465820312
108,784.908447265625,793.7728881835938,790.952392578125,781.6849975585938
109,791.3552856445312,792.5640869140625,794.5787353515625,790.5494384765625
110,797.3992919921875,793.3699340820312,799.010986328125,794.1758422851562
111,794.1758422851562,793.3699340820312,798.6080322265625,792.1611938476562
112,793.3699340820312,789.3406372070312,799.8168334960938,792.967041015625
113,789.7435913085938,788.1318969726562,801.4285888671875,794.981689453125
114,784.5054931640625,788.5347900390625,804.6520385742188,796.5933837890625
115,790.1465454101562,791.7582397460938,804.2490844726562,795.3846435546875
116,790.952392578125,796.996337890625,802.2344360351562,790.952392578125
117,782.4908447265625,795.7875366210938,803.8461303710938,790.1465454101562
118,782.893798828125,795.3846435546875,807.87548828125,792.967041015625
119,786.1171875,799.4139404296875,809.084228515625,796.1904907226562
120,781.6849975585938,793.7728881835938,808.2783813476562,796.996337890625
121,777.6557006835938,786.923095703125,805.8607788085938,794.981689453125
122,772.8204956054688,786.5201416015625,805.054931640625,782.893798828125
123,771.6116943359375,782.4908447265625,801.8314819335938,780.879150390625
124,774.8351440429688,782.893798828125,798.6080322265625,785.7142944335938
125,769.5970458984375,780.0732421875,794.1758422851562,783.6996459960938
126,772.8204956054688,782.893798828125,788.5347900390625,784.5054931640625
127,782.087890625,789.7435913085938,790.1465454101562,786.5201416015625
128,783.2966918945312,792.1611938476562,797.3992919921875,781.2820434570312
129,781.6849975585938,793.3699340820312,794.5787353515625,779.6703491210938
130,786.5201416015625,790.952392578125,791.3552856445312,779.2673950195312
131,793.7728881835938,790.952392578125,792.1611938476562,780.879150390625
132,792.1611938476562,790.952392578125,789.3406372070312,788.937744140625
133,793.7728881835938,794.1758422851562,791.7582397460938,789.3406372070312
134,793.3699340820312,796.1904907226562,791.7582397460938,783.6996459960938
135,792.1611938476562,794.1758422851562,789.3406372070312,781.6849975585938
136,795.3846435546875,795.7875366210938,790.952392578125,788.1318969726562
137,793.7728881835938,795.7875366210938,793.3699340820312,785.3113403320312
138,791.7582397460938,794.1758422851562,796.996337890625,780.4761962890625
139,791.3552856445312,795.3846435546875,797.3992919921875,785.3113403320312
140,792.967041015625,796.996337890625,794.5787353515625,787.7289428710938
141,793.7728881835938,794.981689453125,794.5787353515625,787.3259887695312
142,793.3699340820312,791.3552856445312,796.5933837890625,790.1465454101562
143,792.1611938476562,790.5494384765625,793.7728881835938,790.952392578125
144,789.3406372070312,792.5640869140625,795.3846435546875,792.967041015625
145,788.5347900390625,792.5640869140625,801.4285888671875,793.3699340820312
146,792.1611938476562,790.5494384765625,798.6080322265625,792.967041015625
147,791.7582397460938,790.952392578125,800.2197875976562,796.996337890625
148,791.3552856445312,792.1611938476562,803.040283203125,803.040283203125
149,791.7582397460938,791.7582397460938,802.6373901367188,803.040283203125
150,796.996337890625,791.3552856445312,801.4285888671875,804.2490844726562
151,799.010986328125,787.7289428710938,801.8314819335938,801.025634765625
152,792.5640869140625,786.923095703125,805.8607788085938,792.5640869140625
153,791.3552856445312,795.3846435546875,805.4578857421875,784.908447265625
154,790.5494384765625,796.1904907226562,800.2197875976562,782.893798828125
155,797.3992919921875,793.7728881835938,799.010986328125,791.3552856445312
156,800.6226806640625,794.5787353515625,797.8021850585938,790.952392578125
157,798.2051391601562,790.952392578125,794.981689453125,785.3113403320312
158,797.3992919921875,788.1318969726562,797.8021850585938,779.6703491210938
159,794.981689453125,786.923095703125,801.8314819335938,780.0732421875
160,796.1904907226562,790.952392578125,806.6666870117188,790.952392578125
161,797.8021850585938,795.3846435546875,809.084228515625,795.7875366210938
162,791.3552856445312,792.967041015625,803.4432373046875,785.7142944335938
163,786.1171875,792.5640869140625,798.2051391601562,776.4468994140625
164,788.5347900390625,793.3699340820312,798.2051391601562,778.8644409179688
165,792.967041015625,794.5787353515625,802.2344360351562,783.2966918945312
166,794.981689453125,795.3846435546875,799.010986328125,789.3406372070312
167,794.5787353515625,793.7728881835938,798.2051391601562,791.7582397460938
168,789.3406372070312,793.3699340820312,797.3992919921875,784.908447265625
169,786.1171875,790.1465454101562,796.5933837890625,782.893798828125
170,797.3992919921875,789.3406372070312,799.4139404296875,794.1758422851562
171,802.6373901367188,788.5347900390625,797.8021850585938,796.1904907226562
172,797.3992919921875,794.981689453125,796.1904907226562,789.7435913085938
173,797.3992919921875,799.8168334960938,796.1904907226562,790.5494384765625
174,799.010986328125,796.5933837890625,796.996337890625,789.7435913085938
175,801.4285888671875,794.981689453125,793.3699340820312,786.5201416015625
176,805.8607788085938,802.2344360351562,790.952392578125,787.7289428710938
177,811.098876953125,802.6373901367188,797.8021850585938,796.1904907226562
178,803.4432373046875,795.7875366210938,799.4139404296875,805.054931640625
179,793.7728881835938,795.7875366210938,791.7582397460938,795.7875366210938
180,801.8314819335938,801.4285888671875,791.7582397460938,793.3699340820312
181,807.4725341796875,800.2197875976562,797.8021850585938,803.040283203125
182,805.4578857421875,796.996337890625,797.8021850585938,803.4432373046875
183,801.025634765625,796.996337890625,796.5933837890625,796.1904907226562
184,797.8021850585938,795.3846435546875,793.3699340820312,792.967041015625
185,796.996337890625,792.967041015625,789.3406372070312,788.937744140625
186,800.2197875976562,790.952392578125,792.1611938476562,787.3259887695312
187,801.025634765625,791.7582397460938,790.5494384765625,787.3259887695312
188,796.1904907226562,792.5640869140625,787.3259887695312,788.1318969726562
189,793.7728881835938,790.952392578125,789.7435913085938,788.1318969726562
190,793.3699340820312,790.952392578125,789.7435913085938,789.3406372070312
191,792.1611938476562,789.3406372070312,790.1465454101562,789.3406372070312
192,793.7728881835938,787.7289428710938,792.5640869140625,784.5054931640625
193,799.010986328125,788.937744140625,790.5494384765625,792.1611938476562
194,805.4578857421875,790.952392578125,793.3699340820312,808.6813354492188
195,803.8461303710938,788.5347900390625,790.952392578125,800.2197875976562
196,801.025634765625,789.3406372070312,793.7728881835938,793.3699340820312
197,798.2051391601562,795.3846435546875,793.3699340820312,796.5933837890625
198,797.3992919921875,798.2051391601562,791.3552856445312,794.981689453125
199,792.1611938476562,798.6080322265625,796.1904907226562,790.5494384765625
200,791.3552856445312,793.7728881835938,798.6080322265625,791.7582397460938
201,796.996337890625,788.937744140625,796.996337890625,794.5787353515625
202,796.5933837890625,789.3406372070312,792.1611938476562,788.5347900390625
203,789.7435913085938,789.3406372070312,790.1465454101562,782.087890625
204,792.5640869140625,793.7728881835938,788.5347900390625,783.2966918945312
205,796.996337890625,795.3846435546875,789.3406372070312,781.6849975585938
206,799.010986328125,793.7728881835938,788.5347900390625,782.087890625
207,796.996337890625,795.7875366210938,787.3259887695312,784.5054931640625
208,795.7875366210938,794.5787353515625,786.1171875,783.2966918945312
209,791.7582397460938,790.952392578125,784.1025390625,786.923095703125
210,793.7728881835938,792.5640869140625,787.7289428710938,785.7142944335938
211,796.996337890625,794.981689453125,788.1318969726562,784.1025390625
212,796.996337890625,795.7875366210938,792.5640869140625,788.5347900390625
213,799.010986328125,795.3846435546875,793.3699340820312,790.952392578125
214,799.4139404296875,795.7875366210938,790.1465454101562,791.3552856445312
215,796.1904907226562,793.7728881835938,790.5494384765625,785.3113403320312
216,801.4285888671875,790.1465454101562,790.952392578125,787.3259887695312
217,801.4285888671875,794.1758422851562,788.1318969726562,797.3992919921875
218,792.5640869140625,794.981689453125,792.1611938476562,791.7582397460938
219,787.3259887695312,790.5494384765625,790.1465454101562,785.3113403320312
220,784.5054931640625,789.3406372070312,789.3406372070312,789.7435913085938
221,785.3113403320312,788.1318969726562,790.1465454101562,797.8021850585938
222,789.3406372070312,787.7289428710938,787.7289428710938,797.3992919921875
223,791.7582397460938,791.3552856445312,785.3113403320312,794.1758422851562
224,782.893798828125,792.1611938476562,785.3113403320312,786.5201416015625
225,782.087890625,792.1611938476562,786.923095703125,784.1025390625
226,787.3259887695312,792.5640869140625,790.5494384765625,784.5054931640625
227,784.1025390625,789.7435913085938,792.1611938476562,777.6557006835938
228,786.1171875,788.1318969726562,790.1465454101562,780.879150390625
229,787.7289428710938,789.3406372070312,793.7728881835938,782.4908447265625
230,783.6996459960938,788.937744140625,792.1611938476562,778.8644409179688
231,783.6996459960938,786.1171875,790.5494384765625,779.6703491210938
232,787.7289428710938,790.1465454101562,790.952392578125,782.087890625
233,789.7435913085938,793.3699340820312,789.3406372070312,782.4908447265625
234,787.7289428710938,791.3552856445312,787.7289428710938,783.6996459960938
235,782.087890625,790.952392578125,784.908447265625,777.6557006835938
236,785.3113403320312,788.1318969726562,787.7289428710938,774.8351440429688
237,795.7875366210938,783.6996459960938,793.3699340820312,781.2820434570312
238,793.3699340820312,783.6996459960938,790.1465454101562,782.893798828125
239,788.937744140625,784.1025390625,788.937744140625,787.7289428710938
240,784.1025390625,782.893798828125,791.3552856445312,790.1465454101562
241,785.3113403320312,784.5054931640625,793.7728881835938,785.3113403320312
242,788.937744140625,788.1318969726562,790.5494384765625,786.1171875
243,784.5054931640625,790.5494384765625,790.952392578125,791.3552856445312
244,780.4761962890625,792.967041015625,794.1758422851562,789.3406372070312
245,782.893798828125,796.1904907226562,793.3699340820312,784.1025390625
246,786.1171875,796.5933837890625,795.7875366210938,783.6996459960938
247,786.1171875,789.3406372070312,797.8021850585938,783.2966918945312
248,782.893798828125,786.923095703125,796.1904907226562,782.4908447265625
249,780.4761962890625,786.923095703125,791.3552856445312,783.6996459960938
250,779.6703491210938,785.3113403320312,790.5494384765625,781.2820434570312
251,781.2820434570312,785.7142944335938,794.5787353515625,785.7142944335938
252,788.1318969726562,786.1171875,796.996337890625,787.3259887695312
253,791.3552856445312,787.7289428710938,799.4139404296875,785.3113403320312
254,794.981689453125,789.3406372070312,800.2197875976562,786.923095703125
255,791.3552856445312,787.7289428710938,794.981689453125,784.908447265625
256,786.5201416015625,792.1611938476562,796.1904907226562,778.8644409179688
257,790.952392578125,796.996337890625,796.996337890625,780.4761962890625
258,794.1758422851562,796.1904907226562,794.5787353515625,785.7142944335938
259,796.1904907226562,797.3992919921875,798.2051391601562,786.5201416015625
260,795.7875366210938,799.8168334960938,801.4285888671875,790.1465454101562
261,791.7582397460938,800.2197875976562,804.6520385742188,793.3699340820312
262,790.952392578125,791.7582397460938,807.4725341796875,797.3992919921875
263,795.7875366210938,792.5640869140625,808.6813354492188,805.054931640625
264,795.3846435546875,799.010986328125,805.054931640625,793.3699340820312
265,795.3846435546875,796.996337890625,804.2490844726562,788.5347900390625
266,803.4432373046875,801.025634765625,804.6520385742188,797.3992919921875
267,805.8607788085938,803.8461303710938,804.6520385742188,799.4139404296875
268,803.040283203125,799.010986328125,804.2490844726562,797.8021850585938
269,802.2344360351562,799.010986328125,804.6520385742188,800.2197875976562
270,799.8168334960938,801.025634765625,803.8461303710938,795.7875366210938
271,801.025634765625,794.5787353515625,803.040283203125,792.5640869140625
272,801.4285888671875,793.3699340820312,800.2197875976562,794.1758422851562
273,798.6080322265625,799.010986328125,795.7875366210938,794.1758422851562
274,801.025634765625,801.8314819335938,796.996337890625,794.1758422851562
275,798.2051391601562,800.2197875976562,798.2051391601562,790.1465454101562
276,796.1904907226562,799.8168334960938,796.996337890625,785.7142944335938
277,793.7728881835938,796.5933837890625,794.1758422851562,784.5054931640625
278,794.5787353515625,795.3846435546875,790.952392578125,788.5347900390625
279,799.010986328125,800.2197875976562,794.5787353515625,789.3406372070312
280,797.8021850585938,795.3846435546875,795.3846435546875,785.7142944335938
281,795.3846435546875,787.7289428710938,795.3846435546875,780.0732421875
282,798.6080322265625,787.7289428710938,798.2051391601562,783.2966918945312
283,800.2197875976562,785.7142944335938,794.1758422851562,786.1171875
284,794.981689453125,782.087890625,794.981689453125,786.923095703125
285,792.5640869140625,780.879150390625,797.8021850585938,792.5640869140625
286,784.908447265625,781.6849975585938,795.7875366210938,789.3406372070312
287,782.087890625,784.1025390625,793.7728881835938,786.923095703125
288,791.3552856445312,784.5054931640625,790.952392578125,788.5347900390625
289,796.996337890625,782.893798828125,790.1465454101562,792.1611938476562
290,794.5787353515625,786.923095703125,788.1318969726562,791.7582397460938
291,788.1318969726562,788.1318969726562,785.7142944335938,784.5054931640625
292,790.952392578125,788.1318969726562,792.1611938476562,785.7142944335938
293,791.3552856445312,788.1318969726562,792.1611938476562,790.5494384765625
294,786.5201416015625,784.908447265625,785.3113403320312,786.5201416015625
295,790.952392578125,784.1025390625,782.893798828125,780.4761962890625
296,795.3846435546875,788.937744140625,783.6996459960938,783.6996459960938
297,794.1758422851562,794.5787353515625,788.5347900390625,793.7728881835938
298,791.3552856445312,792.1611938476562,792.967041015625,793.7728881835938
299,792.5640869140625,790.952392578125,794.1758422851562,788.1318969726562
300,791.7582397460938,790.1465454101562,794.1758422851562,790.1465454101562
301,788.1318969726562,787.3259887695312,790.1465454101562,791.7582397460938
302,782.087890625,791.3552856445312,787.7289428710938,787.7289428710938
303,784.908447265625,791.7582397460938,785.7142944335938,790.1465454101562
304,791.7582397460938,788.937744140625,782.893798828125,795.3846435546875
305,797.3992919921875,792.1611938476562,790.5494384765625,796.5933837890625
306,794.981689453125,792.967041015625,788.5347900390625,790.1465454101562
307,787.7289428710938,793.7728881835938,786.5201416015625,787.3259887695312
308,797.3992919921875,795.3846435546875,793.3699340820312,792.967041015625
309,805.4578857421875,796.5933837890625,797.8021850585938,799.8168334960938
310,801.4285888671875,799.010986328125,798.6080322265625,799.4139404296875
311,795.7875366210938,798.2051391601562,797.8021850585938,796.996337890625
312,788.5347900390625,788.5347900390625,796.1904907226562,794.981689453125
313,785.3113403320312,786.1171875,795.3846435546875,795.3846435546875
314,788.1318969726562,788.5347900390625,797.8021850585938,794.981689453125
315,791.7582397460938,786.1171875,794.5787353515625,795.3846435546875
316,793.3699340820312,783.2966918945312,789.7435913085938,792.967041015625
317,794.1758422851562,788.937744140625,787.3259887695312,793.3699340820312
318,795.3846435546875,795.3846435546875,791.7582397460938,793.3699340820312
319,800.6226806640625,794.1758422851562,792.5640869140625,792.1611938476562
320,804.6520385742188,795.3846435546875,788.937744140625,794.981689453125
321,805.054931640625,799.4139404296875,794.1758422851562,789.7435913085938
322,806.6666870117188,796.1904907226562,792.1611938476562,789.3406372070312
323,805.4578857421875,793.3699340820312,790.5494384765625,798.6080322265625
324,804.6520385742188,794.981689453125,792.1611938476562,802.6373901367188
325,803.4432373046875,793.7728881835938,790.5494384765625,796.996337890625
326,797.3992919921875,790.1465454101562,785.7142944335938,792.1611938476562
327,796.1904907226562,790.952392578125,781.6849975585938,794.1758422851562
328,798.6080322265625,791.3552856445312,786.5201416015625,795.3846435546875
329,799.010986328125,791.7582397460938,791.3552856445312,795.7875366210938
330,799.4139404296875,792.1611938476562,791.7582397460938,801.025634765625
331,801.4285888671875,793.3699340820312,792.1611938476562,805.054931640625
332,799.4139404296875,792.1611938476562,792.1611938476562,801.4285888671875
333,798.6080322265625,792.5640869140625,795.7875366210938,798.2051391601562
334,805.054931640625,795.3846435546875,798.6080322265625,799.8168334960938
335,805.4578857421875,791.3552856445312,799.8168334960938,801.8314819335938
336,799.4139404296875,792.5640869140625,798.6080322265625,803.040283203125
337,792.5640869140625,796.5933837890625,797.3992919921875,794.1758422851562
338,788.5347900390625,790.952392578125,799.8168334960938,789.7435913085938
339,792.1611938476562,786.923095703125,798.6080322265625,795.3846435546875
340,796.5933837890625,786.923095703125,794.5787353515625,794.5787353515625
341,794.1758422851562,788.937744140625,788.937744140625,792.967041015625
342,786.1171875,788.937744140625,786.1171875,788.5347900390625
343,783.6996459960938,786.1171875,787.3259887695312,782.893798828125
344,786.923095703125,784.1025390625,786.923095703125,784.5054931640625
345,792.1611938476562,780.0732421875,788.1318969726562,788.1318969726562
346,792.967041015625,774.4322509765625,789.7435913085938,788.1318969726562
347,790.5494384765625,778.4615478515625,791.3552856445312,790.1465454101562
348,790.952392578125,782.4908447265625,794.5787353515625,787.7289428710938
349,792.5640869140625,784.5054931640625,794.1758422851562,787.7289428710938
350,796.5933837890625,789.7435913085938,795.7875366210938,792.967041015625
351,792.967041015625,785.3113403320312,792.967041015625,789.3406372070312
352,788.937744140625,778.05859375,792.1611938476562,787.7289428710938
353,790.1465454101562,781.2820434570312,797.3992919921875,789.7435913085938
354,789.3406372070312,783.2966918945312,796.996337890625,791.7582397460938
355,792.967041015625,784.5054931640625,797.8021850585938,795.7875366210938
356,791.3552856445312,783.2966918945312,798.6080322265625,788.5347900390625
357,790.1465454101562,783.6996459960938,796.5933837890625,786.5201416015625
358,790.952392578125,785.3113403320312,794.1758422851562,794.981689453125
359,791.7582397460938,785.7142944335938,791.3552856445312,791.3552856445312
360,799.010986328125,785.3113403320312,793.3699340820312,787.7289428710938
361,800.2197875976562,781.2820434570312,796.5933837890625,793.3699340820312
362,790.5494384765625,784.5054931640625,795.3846435546875,794.981689453125
363,782.087890625,788.1318969726562,793.3699340820312,789.3406372070312
364,787.3259887695312,788.5347900390625,795.3846435546875,780.4761962890625
365,794.1758422851562,786.1171875,792.5640869140625,778.4615478515625
366,795.7875366210938,786.5201416015625,791.3552856445312,786.1171875
367,788.5347900390625,788.5347900390625,790.5494384765625,782.087890625
368,784.5054931640625,781.6849975585938,788.5347900390625,778.05859375
369,787.7289428710938,780.4761962890625,788.5347900390625,786.5201416015625
370,789.7435913085938,783.2966918945312,788.5347900390625,790.1465454101562
371,788.5347900390625,787.3259887695312,790.952392578125,787.3259887695312
372,787.3259887695312,788.937744140625,791.7582397460938,787.3259887695312
373,784.908447265625,788.1318969726562,788.5347900390625,791.7582397460938
374,781.6849975585938,793.3699340820312,787.3259887695312,796.1904907226562
375,778.4615478515625,795.7875366210938,792.1611938476562,793.3699340820312
376,785.7142944335938,796.996337890625,794.981689453125,797.8021850585938
377,788.937744140625,802.2344360351562,795.7875366210938,801.8314819335938
378,788.1318969726562,803.040283203125,797.3992919921875,798.6080322265625
379,791.3552856445312,798.2051391601562,798.6080322265625,797.3992919921875
380,792.967041015625,798.2051391601562,791.3552856445312,796.1904907226562
381,790.1465454101562,798.2051391601562,786.923095703125,792.1611938476562
382,789.3406372070312,793.3699340820312,786.923095703125,790.1465454101562
383,793.3699340820312,792.1611938476562,786.5201416015625,787.3259887695312
384,798.2051391601562,792.967041015625,788.1318969726562,784.908447265625
385,801.025634765625,792.5640869140625,785.7142944335938,787.3259887695312
386,792.967041015625,788.937744140625,783.2966918945312,790.1465454101562
387,786.5201416015625,786.5201416015625,785.3113403320312,788.5347900390625
388,790.952392578125,786.5201416015625,788.5347900390625,788.5347900390625
389,791.7582397460938,788.1318969726562,794.1758422851562,795.3846435546875
390,790.952392578125,788.1318969726562,797.8021850585938,796.996337890625
391,790.952392578125,788.937744140625,795.3846435546875,798.6080322265625
392,791.3552856445312,790.5494384765625,794.1758422851562,801.4285888671875
393,789.3406372070312,790.5494384765625,793.3699340820312,800.6226806640625
394,787.7289428710938,794.1758422851562,795.3846435546875,801.4285888671875
395,794.1758422851562,795.3846435546875,805.054931640625,803.040283203125
396,799.4139404296875,789.7435913085938,808.6813354492188,804.2490844726562
397,799.010986328125,787.7289428710938,803.4432373046875,805.8607788085938
398,794.981689453125,786.5201416015625,804.6520385742188,801.4285888671875
399,791.3552856445312,784.1025390625,805.8607788085938,794.981689453125
400,789.7435913085938,788.1318969726562,806.2637329101562,794.1758422851562
401,792.1611938476562,787.3259887695312,802.2344360351562,787.7289428710938
402,793.7728881835938,783.2966918945312,794.5787353515625,788.1318969726562
403,788.1318969726562,788.1318969726562,794.981689453125,785.3113403320312
404,788.1318969726562,788.937744140625,797.3992919921875,782.893798828125
405,790.952392578125,790.1465454101562,796.1904907226562,789.7435913085938
406,793.3699340820312,793.3699340820312,796.1904907226562,787.3259887695312
407,797.8021850585938,793.3699340820312,794.981689453125,782.4908447265625
408,795.7875366210938,790.952392578125,792.5640869140625,778.05859375
409,791.7582397460938,789.7435913085938,788.5347900390625,777.6557006835938
410,791.7582397460938,797.3992919921875,787.3259887695312,776.4468994140625
411,799.8168334960938,797.3992919921875,790.1465454101562,775.2380981445312
412,804.2490844726562,794.5787353515625,792.1611938476562,779.6703491210938
413,795.3846435546875,795.3846435546875,790.952392578125,780.0732421875
414,793.3699340820312,793.7728881835938,792.1611938476562,784.5054931640625
415,798.2051391601562,791.3552856445312,794.1758422851562,792.5640869140625
416,801.8314819335938,790.952392578125,792.967041015625,799.4139404296875
417,803.8461303710938,788.937744140625,795.3846435546875,801.8314819335938
418,801.025634765625,790.5494384765625,799.8168334960938,798.6080322265625
419,793.3699340820312,792.967041015625,798.6080322265625,797.3992919921875
420,792.5640869140625,789.3406372070312,797.8021850585938,805.4578857421875
421,796.1904907226562,785.3113403320312,801.4285888671875,797.3992919921875
422,790.1465454101562,788.937744140625,799.8168334960938,786.1171875
423,781.6849975585938,788.1318969726562,797.3992919921875,783.6996459960938
424,777.6557006835938,786.5201416015625,799.4139404296875,782.087890625
425,778.4615478515625,785.7142944335938,798.2051391601562,780.879150390625
426,783.2966918945312,784.1025390625,796.1904907226562,776.8497924804688
427,786.923095703125,783.2966918945312,792.967041015625,776.0439453125
428,785.3113403320312,785.7142944335938,792.5640869140625,776.0439453125
429,781.6849975585938,788.5347900390625,798.6080322265625,774.8351440429688
430,788.937744140625,790.1465454101562,799.010986328125,780.4761962890625
431,794.981689453125,791.3552856445312,798.2051391601562,782.893798828125
432,790.5494384765625,789.3406372070312,796.1904907226562,779.2673950195312
433,789.7435913085938,787.7289428710938,793.3699340820312,780.0732421875
434,786.5201416015625,788.937744140625,788.937744140625,778.05859375
435,780.4761962890625,790.1465454101562,786.5201416015625,776.4468994140625
436,784.908447265625,794.5787353515625,790.1465454101562,780.879150390625
437,788.1318969726562,792.5640869140625,792.1611938476562,783.6996459960938
438,792.5640869140625,790.1465454101562,794.5787353515625,785.7142944335938
439,786.1171875,794.5787353515625,793.3699340820312,785.7142944335938
440,778.05859375,795.3846435546875,790.5494384765625,785.7142944335938
441,784.1025390625,792.967041015625,792.5640869140625,781.6849975585938
442,787.7289428710938,788.1318969726562,794.5787353515625,783.6996459960938
443,789.7435913085938,784.5054931640625,796.1904907226562,790.952392578125
444,784.5054931640625,780.879150390625,796.5933837890625,783.2966918945312
445,780.4761962890625,778.05859375,798.6080322265625,773.6264038085938
446,785.7142944335938,782.087890625,801.8314819335938,778.4615478515625
447,786.923095703125,785.3113403320312,802.2344360351562,792.5640869140625
448,787.7289428710938,787.7289428710938,800.2197875976562,786.1171875
449,788.5347900390625,787.7289428710938,798.2051391601562,781.6849975585938
450,786.1171875,784.5054931640625,799.010986328125,786.5201416015625
451,787.7289428710938,784.5054931640625,802.2344360351562,784.5054931640625
452,799.8168334960938,784.5054931640625,804.6520385742188,784.5054931640625
453,801.8314819335938,785.3113403320312,799.010986328125,784.1025390625
454,793.7728881835938,787.3259887695312,792.5640869140625,777.6557006835938
455,794.5787353515625,786.5201416015625,792.1611938476562,779.6703491210938
456,794.5787353515625,786.923095703125,789.7435913085938,780.879150390625
457,791.3552856445312,789.7435913085938,786.5201416015625,780.879150390625
458,794.981689453125,793.7728881835938,789.3406372070312,783.6996459960938
459,792.5640869140625,796.1904907226562,790.5494384765625,782.087890625
460,786.5201416015625,794.1758422851562,789.7435913085938,779.2673950195312
461,785.3113403320312,794.1758422851562,794.1758422851562,781.2820434570312
462,788.937744140625,792.1611938476562,796.1904907226562,788.1318969726562
463,789.3406372070312,789.3406372070312,792.967041015625,784.5054931640625
464,790.952392578125,790.952392578125,794.1758422851562,778.8644409179688
465,796.996337890625,794.1758422851562,796.1904907226562,784.5054931640625
466,792.5640869140625,795.7875366210938,796.5933837890625,790.1465454101562
467,789.7435913085938,795.3846435546875,793.7728881835938,788.937744140625
468,792.5640869140625,796.996337890625,790.952392578125,788.1318969726562
469,788.1318969726562,795.3846435546875,789.7435913085938,788.1318969726562
470,781.6849975585938,790.952392578125,790.952392578125,789.3406372070312
471,785.3113403320312,789.7435913085938,790.1465454101562,788.1318969726562
472,795.7875366210938,788.937744140625,790.1465454101562,789.3406372070312
473,795.7875366210938,787.7289428710938,785.7142944335938,786.1171875
474,794.5787353515625,790.952392578125,787.7289428710938,784.5054931640625
475,799.010986328125,795.7875366210938,795.7875366210938,786.1171875
476,798.2051391601562,796.996337890625,794.5787353515625,783.2966918945312
477,796.996337890625,795.3846435546875,794.1758422851562,786.1171875
478,799.010986328125,799.010986328125,797.8021850585938,791.7582397460938
479,794.5787353515625,795.7875366210938,794.5787353515625,788.1318969726562
480,790.5494384765625,790.5494384765625,791.7582397460938,780.879150390625
481,790.952392578125,794.1758422851562,799.010986328125,788.5347900390625
482,791.3552856445312,796.5933837890625,800.6226806640625,791.3552856445312
483,791.3552856445312,787.7289428710938,792.967041015625,780.0732421875
484,788.1318969726562,782.087890625,791.3552856445312,778.4615478515625
485,780.4761962890625,782.4908447265625,792.967041015625,776.8497924804688
486,783.6996459960938,784.1025390625,793.3699340820312,772.0146484375
487,788.5347900390625,786.1171875,795.3846435546875,778.05859375
488,785.7142944335938,784.1025390625,793.3699340820312,786.1171875
489,783.2966918945312,783.6996459960938,791.7582397460938,784.908447265625
490,781.2820434570312,787.3259887695312,795.7875366210938,784.908447265625
491,782.4908447265625,786.5201416015625,796.5933837890625,786.923095703125
492,790.5494384765625,785.7142944335938,791.7582397460938,786.5201416015625
493,800.2197875976562,783.6996459960938,793.3699340820312,792.5640869140625
494,801.8314819335938,785.7142944335938,793.7728881835938,794.5787353515625
495,796.1904907226562,780.0732421875,796.5933837890625,788.937744140625
496,795.7875366210938,778.8644409179688,798.2051391601562,790.952392578125
497,798.2051391601562,785.7142944335938,795.7875366210938,794.1758422851562
498,799.4139404296875,787.7289428710938,796.996337890625,793.7728881835938
499,801.4285888671875,792.967041015625,796.1904907226562,793.7728881835938
500,805.4578857421875,793.7728881835938,792.967041015625,795.3846435546875
501,804.2490844726562,794.5787353515625,794.1758422851562,796.5933837890625
502,805.4578857421875,795.3846435546875,794.5787353515625,796.1904907226562
503,803.040283203125,795.3846435546875,793.7728881835938,794.1758422851562
504,805.4578857421875,796.996337890625,790.1465454101562,798.2051391601562
505,808.2783813476562,791.3552856445312,791.7582397460938,800.2197875976562
506,805.8607788085938,790.1465454101562,793.7728881835938,790.5494384765625
507,810.2930297851562,793.7728881835938,791.7582397460938,785.3113403320312
508,812.3076782226562,795.3846435546875,792.967041015625,788.5347900390625
509,807.069580078125,796.1904907226562,790.5494384765625,788.5347900390625
510,804.6520385742188,792.967041015625,793.7728881835938,783.2966918945312
511,803.8461303710938,791.7582397460938,800.2197875976562,782.4908447265625
512,799.010986328125,791.7582397460938,801.8314819335938,786.1171875
513,793.7728881835938,793.3699340820312,798.2051391601562,791.7582397460938
514,796.5933837890625,793.3699340820312,799.4139404296875,798.6080322265625
515,794.981689453125,790.5494384765625,803.8461303710938,792.1611938476562
516,787.7289428710938,786.5201416015625,803.4432373046875,790.5494384765625
517,780.4761962890625,781.2820434570312,802.2344360351562,786.923095703125
518,785.3113403320312,782.4908447265625,796.5933837890625,781.6849975585938
519,792.5640869140625,784.908447265625,788.937744140625,783.2966918945312
520,789.3406372070312,784.908447265625,791.3552856445312,781.6849975585938
521,784.1025390625,782.4908447265625,792.967041015625,775.6410522460938
522,786.1171875,780.4761962890625,792.5640869140625,776.4468994140625
523,796.1904907226562,783.6996459960938,790.1465454101562,786.5201416015625
524,792.967041015625,788.1318969726562,789.7435913085938,787.7289428710938
525,786.5201416015625,788.1318969726562,792.5640869140625,782.087890625
526,786.923095703125,788.5347900390625,792.1611938476562,776.4468994140625
527,784.5054931640625,788.937744140625,795.3846435546875,777.6557006835938
528,787.7289428710938,790.5494384765625,794.981689453125,781.2820434570312
529,790.952392578125,790.952392578125,795.3846435546875,778.8644409179688
530,792.967041015625,788.937744140625,799.010986328125,788.5347900390625
531,793.3699340820312,788.5347900390625,799.8168334960938,792.967041015625
532,793.3699340820312,791.7582397460938,801.4285888671875,788.937744140625
533,792.1611938476562,792.1611938476562,797.8021850585938,784.1025390625
534,788.5347900390625,787.3259887695312,790.5494384765625,779.6703491210938
535,790.1465454101562,783.6996459960938,788.5347900390625,775.6410522460938
536,789.7435913085938,786.923095703125,788.937744140625,780.4761962890625
537,783.6996459960938,789.7435913085938,793.3699340820312,782.893798828125
538,785.7142944335938,793.3699340820312,790.5494384765625,785.7142944335938
539,791.3552856445312,794.5787353515625,791.3552856445312,784.908447265625
540,789.7435913085938,794.981689453125,792.967041015625,778.4615478515625
541,789.3406372070312,797.8021850585938,790.952392578125,779.6703491210938
542,788.937744140625,796.996337890625,789.7435913085938,782.4908447265625
543,784.5054931640625,796.996337890625,789.7435913085938,784.5054931640625
544,790.952392578125,795.3846435546875,794.1758422851562,787.7289428710938
545,795.7875366210938,796.1904907226562,796.1904907226562,791.3552856445312
546,788.5347900390625,796.5933837890625,797.3992919921875,794.1758422851562
547,789.7435913085938,792.5640869140625,797.8021850585938,791.7582397460938
548,795.7875366210938,793.3699340820312,794.981689453125,784.5054931640625
549,799.8168334960938,796.5933837890625,790.952392578125,786.5201416015625
550,800.2197875976562,794.981689453125,789.3406372070312,794.5787353515625
551,795.7875366210938,792.967041015625,791.3552856445312,791.7582397460938
552,790.5494384765625,792.1611938476562,794.981689453125,785.3113403320312
553,791.3552856445312,789.7435913085938,795.7875366210938,788.5347900390625
554,791.3552856445312,788.5347900390625,794.5787353515625,796.996337890625
555,788.1318969726562,788.5347900390625,794.1758422851562,798.2051391601562
556,787.3259887695312,791.7582397460938,794.5787353515625,787.7289428710938
557,784.908447265625,791.3552856445312,794.1758422851562,785.7142944335938
558,784.908447265625,792.1611938476562,793.7728881835938,790.5494384765625
559,790.1465454101562,792.5640869140625,796.5933837890625,787.3259887695312
560,792.967041015625,790.1465454101562,794.5787353515625,780.0732421875
561,791.7582397460938,788.1318969726562,792.967041015625,774.8351440429688
562,788.1318969726562,793.3699340820312,794.5787353515625,785.7142944335938
563,790.5494384765625,801.4285888671875,793.3699340820312,794.981689453125
564,800.6226806640625,800.2197875976562,792.5640869140625,790.952392578125
565,807.069580078125,798.2051391601562,792.5640869140625,791.3552856445312
566,808.2783813476562,797.8021850585938,789.7435913085938,797.3992919921875
567,802.2344360351562,797.3992919921875,787.3259887695312,794.1758422851562
568,799.8168334960938,796.5933837890625,788.1318969726562,794.5787353515625
569,803.8461303710938,794.981689453125,790.5494384765625,790.1465454101562
570,796.996337890625,790.5494384765625,791.3552856445312,791.3552856445312
571,789.7435913085938,787.7289428710938,797.3992919921875,794.5787353515625
572,790.952392578125,791.7582397460938,801.4285888671875,792.967041015625
573,789.3406372070312,789.3406372070312,799.010986328125,792.5640869140625
574,784.1025390625,789.3406372070312,795.3846435546875,783.2966918945312
575,786.923095703125,796.5933837890625,796.996337890625,783.2966918945312
576,788.1318969726562,790.1465454101562,797.3992919921875,782.4908447265625
577,780.879150390625,788.1318969726562,798.2051391601562,784.5054931640625
578,778.4615478515625,790.952392578125,793.7728881835938,787.7289428710938
579,776.4468994140625,788.5347900390625,788.937744140625,778.05859375
580,779.2673950195312,790.1465454101562,789.7435913085938,776.0439453125
581,786.923095703125,794.981689453125,789.7435913085938,779.6703491210938
582,783.2966918945312,792.5640869140625,789.7435913085938,786.923095703125
583,782.087890625,786.923095703125,791.7582397460938,791.3552856445312
584,786.923095703125,792.1611938476562,796.996337890625,793.3699340820312
585,788.937744140625,790.952392578125,796.1904907226562,784.5054931640625
586,791.3552856445312,787.3259887695312,798.2051391601562,784.908447265625
587,789.3406372070312,781.6849975585938,796.996337890625,785.3113403320312
588,784.5054931640625,786.5201416015625,790.952392578125,784.1025390625
589,787.7289428710938,791.7582397460938,790.952392578125,786.923095703125
590,788.5347900390625,787.3259887695312,791.7582397460938,783.6996459960938
591,786.5201416015625,785.3113403320312,794.1758422851562,784.5054931640625
592,785.7142944335938,788.1318969726562,797.3992919921875,781.2820434570312
593,790.1465454101562,792.967041015625,795.3846435546875,774.8351440429688
594,799.4139404296875,798.2051391601562,792.967041015625,783.6996459960938
595,802.2344360351562,799.4139404296875,790.5494384765625,791.3552856445312
596,794.5787353515625,796.996337890625,786.1171875,784.5054931640625
597,796.1904907226562,800.2197875976562,786.1171875,788.1318969726562
598,796.1904907226562,799.8168334960938,786.923095703125,790.5494384765625
599,793.3699340820312,795.7875366210938,784.5054931640625,785.7142944335938
600,790.952392578125,795.7875366210938,787.3259887695312,785.3113403320312
601,794.981689453125,792.967041015625,793.3699340820312,790.5494384765625
602,794.981689453125,790.5494384765625,793.7728881835938,791.7582397460938
603,790.5494384765625,792.1611938476562,789.7435913085938,784.5054931640625
604,789.7435913085938,790.5494384765625,787.3259887695312,784.5054931640625
605,788.5347900390625,790.952392578125,788.5347900390625,791.7582397460938
606,787.7289428710938,790.5494384765625,790.952392578125,794.5787353515625
607,782.4908447265625,794.981689453125,792.1611938476562,792.1611938476562
608,786.1171875,799.8168334960938,795.3846435546875,795.3846435546875
609,790.1465454101562,794.1758422851562,792.967041015625,795.3846435546875
610,786.1171875,786.1171875,784.908447265625,790.1465454101562
611,784.908447265625,788.937744140625,784.5054931640625,789.3406372070312
612,791.7582397460938,790.952392578125,786.923095703125,789.7435913085938
613,794.981689453125,789.7435913085938,785.7142944335938,793.7728881835938
614,794.5787353515625,792.1611938476562,788.5347900390625,796.1904907226562
615,799.010986328125,786.923095703125,788.1318969726562,792.1611938476562
616,798.2051391601562,787.7289428710938,786.923095703125,792.967041015625
617,795.7875366210938,791.3552856445312,790.5494384765625,794.981689453125
618,799.010986328125,791.3552856445312,793.7728881835938,793.7728881835938
619,797.3992919921875,788.937744140625,793.3699340820312,790.5494384765625
620,796.996337890625,787.7289428710938,793.3699340820312,790.952392578125
621,794.1758422851562,789.3406372070312,793.3699340820312,794.5787353515625
622,791.7582397460938,788.1318969726562,791.3552856445312,792.1611938476562
623,796.996337890625,792.967041015625,792.1611938476562,791.3552856445312
624,799.8168334960938,795.7875366210938,790.952392578125,794.981689453125
625,799.010986328125,795.7875366210938,787.7289428710938,796.5933837890625
626,798.2051391601562,796.1904907226562,788.5347900390625,789.7435913085938
627,793.7728881835938,792.967041015625,789.3406372070312,787.3259887695312
628,793.3699340820312,787.3259887695312,790.5494384765625,789.3406372070312
629,797.8021850585938,784.5054931640625,796.1904907226562,791.7582397460938
630,799.010986328125,784.908447265625,801.025634765625,796.1904907226562
631,793.3699340820312,785.3113403320312,800.6226806640625,792.967041015625
632,788.937744140625,782.893798828125,794.981689453125,790.952392578125
633,792.967041015625,783.2966918945312,794.981689453125,794.5787353515625
634,794.1758422851562,780.4761962890625,797.8021850585938,793.3699340820312
635,792.967041015625,782.087890625,793.7728881835938,794.1758422851562
636,789.7435913085938,790.5494384765625,793.7728881835938,794.5787353515625
637,791.7582397460938,791.7582397460938,797.8021850585938,796.5933837890625
638,796.1904907226562,788.5347900390625,796.996337890625,790.952392578125
639,794.1758422851562,790.5494384765625,800.2197875976562,787.7289428710938
640,800.2197875976562,796.5933837890625,797.3992919921875,790.952392578125
641,793.7728881835938,791.7582397460938,798.6080322265625,794.1758422851562
642,793.3699340820312,789.3406372070312,798.6080322265625,794.1758422851562
643,793.7728881835938,791.3552856445312,799.8168334960938,788.1318969726562
644,793.7728881835938,791.3552856445312,802.2344360351562,785.3113403320312
645,800.6226806640625,792.967041015625,806.2637329101562,786.1171875
646,800.6226806640625,793.3699340820312,807.87548828125,791.3552856445312
647,799.4139404296875,789.3406372070312,801.025634765625,794.981689453125
648,803.4432373046875,796.1904907226562,802.2344360351562,794.5787353515625
649,801.4285888671875,803.4432373046875,803.8461303710938,786.1171875
650,799.8168334960938,796.996337890625,799.010986328125,783.2966918945312
651,792.5640869140625,792.5640869140625,795.7875366210938,783.2966918945312
652,785.7142944335938,790.5494384765625,792.1611938476562,777.2527465820312
653,789.3406372070312,788.1318969726562,795.3846435546875,774.8351440429688
654,784.1025390625,788.937744140625,798.6080322265625,776.0439453125
655,785.3113403320312,791.3552856445312,794.5787353515625,780.0732421875
656,791.7582397460938,789.3406372070312,789.3406372070312,779.6703491210938
657,793.3699340820312,791.7582397460938,790.952392578125,786.1171875
658,796.1904907226562,795.3846435546875,794.981689453125,788.937744140625
659,797.3992919921875,790.952392578125,791.7582397460938,791.7582397460938
660,799.8168334960938,788.5347900390625,793.7728881835938,801.4285888671875
661,801.025634765625,791.3552856445312,796.5933837890625,799.4139404296875
662,800.6226806640625,796.1904907226562,799.010986328125,803.8461303710938
663,790.1465454101562,793.3699340820312,802.6373901367188,800.2197875976562
664,785.3113403320312,794.1758422851562,803.4432373046875,791.3552856445312
665,792.967041015625,800.2197875976562,800.6226806640625,801.025634765625
666,794.1758422851562,794.1758422851562,800.2197875976562,799.8168334960938
667,791.7582397460938,789.7435913085938,803.8461303710938,797.8021850585938
668,788.5347900390625,792.1611938476562,803.4432373046875,794.5787353515625
669,786.1171875,790.1465454101562,798.2051391601562,786.1171875
670,790.952392578125,787.3259887695312,801.025634765625,787.3259887695312
671,796.5933837890625,786.923095703125,802.2344360351562,792.967041015625
672,794.1758422851562,789.3406372070312,797.8021850585938,791.7582397460938
673,788.937744140625,788.5347900390625,794.1758422851562,788.5347900390625
674,788.5347900390625,792.967041015625,793.7728881835938,789.3406372070312
675,792.1611938476562,796.5933837890625,795.7875366210938,790.1465454101562
676,790.5494384765625,794.5787353515625,796.996337890625,790.952392578125
677,788.5347900390625,792.5640869140625,796.5933837890625,783.2966918945312
678,788.937744140625,791.3552856445312,798.2051391601562,783.6996459960938
679,791.7582397460938,792.1611938476562,800.6226806640625,792.5640869140625
680,799.8168334960938,793.7728881835938,798.2051391601562,786.923095703125
681,806.6666870117188,795.7875366210938,794.981689453125,784.5054931640625
682,807.87548828125,796.996337890625,795.7875366210938,788.1318969726562
683,802.6373901367188,795.7875366210938,794.1758422851562,792.967041015625
684,797.3992919921875,792.5640869140625,787.3259887695312,785.3113403320312
685,799.4139404296875,792.1611938476562,788.937744140625,785.3113403320312
686,798.2051391601562,788.937744140625,789.7435913085938,785.7142944335938
687,794.981689453125,783.2966918945312,787.3259887695312,783.2966918945312
688,794.5787353515625,788.1318969726562,783.2966918945312,788.1318969726562
689,792.967041015625,790.952392578125,778.8644409179688,790.1465454101562
690,794.981689453125,787.7289428710938,780.4761962890625,793.3699340820312
691,798.2051391601562,789.7435913085938,784.1025390625,795.7875366210938
692,802.6373901367188,786.5201416015625,780.4761962890625,791.3552856445312
693,803.4432373046875,784.908447265625,778.8644409179688,787.3259887695312
694,795.3846435546875,788.1318969726562,778.4615478515625,792.1611938476562
695,788.5347900390625,789.7435913085938,780.0732421875,788.937744140625
696,791.3552856445312,784.5054931640625,784.1025390625,783.2966918945312
697,792.5640869140625,783.6996459960938,788.5347900390625,784.908447265625
698,788.5347900390625,789.3406372070312,792.1611938476562,784.908447265625
699,782.4908447265625,790.1465454101562,791.7582397460938,781.6849975585938
700,780.4761962890625,789.3406372070312,791.3552856445312,781.2820434570312
701,786.1171875,788.5347900390625,792.967041015625,784.908447265625
702,790.952392578125,786.923095703125,794.1758422851562,786.5201416015625
703,787.3259887695312,785.7142944335938,794.981689453125,786.1171875
704,784.5054931640625,782.4908447265625,792.967041015625,773.2234497070312
705,780.879150390625,780.0732421875,788.937744140625,768.7911987304688
706,776.4468994140625,782.087890625,787.3259887695312,782.893798828125
707,781.6849975585938,784.1025390625,789.7435913085938,780.879150390625
708,786.5201416015625,786.5201416015625,792.5640869140625,774.8351440429688
709,786.923095703125,784.908447265625,792.967041015625,782.893798828125
710,788.1318969726562,786.923095703125,794.1758422851562,788.5347900390625
711,793.3699340820312,788.5347900390625,798.6080322265625,788.5347900390625
712,808.2783813476562,796.996337890625,790.5494384765625,792.5640869140625
713,803.040283203125,793.7728881835938,791.7582397460938,792.967041015625
714,800.2197875976562,788.937744140625,791.7582397460938,792.5640869140625
715,805.054931640625,790.952392578125,792.1611938476562,796.1904907226562
716,806.2637329101562,797.8021850585938,796.5933837890625,798.2051391601562
717,801.8314819335938,797.3992919921875,799.010986328125,792.1611938476562
718,794.981689453125,795.7875366210938,801.025634765625,782.4908447265625
719,787.7289428710938,794.981689453125,801.4285888671875,781.2820434570312
720,784.1025390625,789.3406372070312,794.981689453125,784.1025390625
721,776.8497924804688,788.937744140625,791.3552856445312,780.4761962890625
722,771.6116943359375,787.3259887695312,794.5787353515625,776.4468994140625
723,772.0146484375,786.1171875,794.981689453125,778.05859375
724,779.6703491210938,792.967041015625,798.6080322265625,784.1025390625
725,788.5347900390625,793.7728881835938,800.2197875976562,783.2966918945312
726,789.3406372070312,790.952392578125,800.2197875976562,784.1025390625
727,790.952392578125,791.3552856445312,803.8461303710938,792.5640869140625
728,793.7728881835938,790.5494384765625,805.8607788085938,795.3846435546875
729,798.2051391601562,791.3552856445312,798.6080322265625,795.7875366210938
730,799.010986328125,794.5787353515625,794.5787353515625,794.5787353515625
731,798.2051391601562,796.996337890625,795.3846435546875,797.8021850585938
732,799.8168334960938,798.2051391601562,795.3846435546875,804.6520385742188
733,802.6373901367188,797.8021850585938,794.1758422851562,801.4285888671875
734,805.8607788085938,800.2197875976562,794.1758422851562,802.6373901367188
735,807.4725341796875,799.8168334960938,797.8021850585938,805.8607788085938
736,813.91943359375,798.2051391601562,799.010986328125,810.2930297851562
737,815.5311279296875,796.996337890625,795.3846435546875,813.91943359375
738,809.084228515625,799.4139404296875,792.967041015625,812.3076782226562
739,812.3076782226562,801.025634765625,796.1904907226562,817.1428833007812
740,810.6959838867188,797.3992919921875,799.8168334960938,818.3516235351562
741,809.4871826171875,794.981689453125,799.010986328125,812.7106323242188
742,811.098876953125,794.1758422851562,796.1904907226562,809.4871826171875
743,796.996337890625,790.5494384765625,795.3846435546875,798.2051391601562
744,789.3406372070312,796.1904907226562,795.3846435546875,795.7875366210938
745,791.3552856445312,802.2344360351562,793.3699340820312,795.7875366210938
746,793.3699340820312,799.4139404296875,789.7435913085938,786.923095703125
747,792.5640869140625,798.6080322265625,791.3552856445312,787.7289428710938
748,784.5054931640625,797.3992919921875,792.5640869140625,787.7289428710938
749,788.5347900390625,798.2051391601562,794.5787353515625,785.7142944335938
750,789.7435913085938,795.7875366210938,793.3699340820312,782.893798828125
751,784.908447265625,792.967041015625,790.1465454101562,776.8497924804688
752,785.3113403320312,797.3992919921875,792.5640869140625,775.2380981445312
753,788.937744140625,801.025634765625,795.7875366210938,779.6703491210938
754,785.3113403320312,799.8168334960938,794.1758422851562,778.05859375
755,782.4908447265625,798.6080322265625,788.5347900390625,774.8351440429688
756,788.1318969726562,799.010986328125,790.952392578125,771.6116943359375
757,791.7582397460938,800.2197875976562,789.3406372070312,773.6264038085938
758,791.3552856445312,798.6080322265625,788.5347900390625,774.029296875
759,788.5347900390625,795.7875366210938,786.923095703125,767.5823974609375
760,794.981689453125,792.5640869140625,785.3113403320312,773.2234497070312
761,804.6520385742188,794.1758422851562,782.087890625,779.2673950195312
762,807.87548828125,797.3992919921875,780.0732421875,782.087890625
763,801.025634765625,795.3846435546875,780.879150390625,786.1171875
764,796.5933837890625,794.981689453125,776.0439453125,786.5201416015625
765,799.4139404296875,794.981689453125,775.2380981445312,792.1611938476562
766,804.6520385742188,794.1758422851562,781.6849975585938,801.4285888671875
767,805.4578857421875,794.5787353515625,780.0732421875,803.4432373046875
768,799.8168334960938,797.8021850585938,782.893798828125,799.010986328125
769,793.7728881835938,798.6080322265625,787.7289428710938,799.8168334960938
770,793.3699340820312,795.3846435546875,788.5347900390625,802.6373901367188
771,795.7875366210938,790.952392578125,792.1611938476562,797.3992919921875
772,792.1611938476562,791.7582397460938,784.1025390625,786.1171875
773,791.7582397460938,789.7435913085938,787.7289428710938,791.7582397460938
774,796.996337890625,791.7582397460938,792.5640869140625,792.967041015625
775,800.2197875976562,791.7582397460938,789.7435913085938,794.1758422851562
776,804.2490844726562,795.3846435546875,790.5494384765625,797.3992919921875
777,800.2197875976562,800.2197875976562,788.5347900390625,794.5787353515625
778,794.5787353515625,795.7875366210938,788.937744140625,792.1611938476562
779,790.1465454101562,794.981689453125,791.3552856445312,792.967041015625
780,788.937744140625,796.996337890625,788.1318969726562,793.7728881835938
781,790.952392578125,790.1465454101562,785.7142944335938,796.5933837890625
782,784.1025390625,784.908447265625,786.923095703125,797.3992919921875
783,782.087890625,786.1171875,786.923095703125,791.3552856445312
784,786.1171875,786.1171875,789.7435913085938,792.5640869140625
785,792.1611938476562,791.3552856445312,793.7728881835938,801.025634765625
786,796.1904907226562,795.7875366210938,792.967041015625,801.8314819335938
787,796.1904907226562,793.7728881835938,792.1611938476562,793.7728881835938
788,794.1758422851562,788.937744140625,786.5201416015625,786.923095703125
789,792.5640869140625,791.7582397460938,784.908447265625,790.1465454101562
790,795.3846435546875,794.981689453125,788.1318969726562,791.3552856445312
791,794.1758422851562,796.1904907226562,793.3699340820312,789.3406372070312
792,794.5787353515625,796.996337890625,796.1904907226562,790.5494384765625
793,796.1904907226562,797.8021850585938,796.1904907226562,796.996337890625
794,793.7728881835938,795.7875366210938,792.1611938476562,788.937744140625
795,791.7582397460938,795.3846435546875,786.5201416015625,783.2966918945312
796,794.981689453125,796.1904907226562,787.7289428710938,787.7289428710938
797,794.981689453125,792.967041015625,789.7435913085938,790.1465454101562
798,788.937744140625,794.5787353515625,787.7289428710938,783.6996459960938
799,790.5494384765625,794.1758422851562,786.923095703125,782.893798828125
800,803.040283203125,794.1758422851562,789.7435913085938,792.5640869140625
801,806.6666870117188,796.5933837890625,799.8168334960938,798.2051391601562
802,796.5933837890625,795.7875366210938,801.4285888671875,798.2051391601562
803,789.3406372070312,793.7728881835938,796.1904907226562,792.967041015625
804,788.1318969726562,794.5787353515625,794.1758422851562,792.5640869140625
805,790.1465454101562,795.3846435546875,794.981689453125,800.2197875976562
806,788.5347900390625,797.8021850585938,796.1904907226562,793.3699340820312
807,788.5347900390625,796.996337890625,795.7875366210938,784.908447265625
808,788.5347900390625,795.7875366210938,797.8021850585938,786.923095703125
809,790.1465454101562,796.996337890625,799.4139404296875,787.7289428710938
810,793.3699340820312,798.6080322265625,799.4139404296875,787.3259887695312
811,796.996337890625,800.2197875976562,799.010986328125,792.967041015625
812,796.1904907226562,799.4139404296875,800.6226806640625,792.967041015625
813,795.3846435546875,798.6080322265625,800.2197875976562,785.7142944335938
814,791.7582397460938,793.3699340820312,800.2197875976562,778.8644409179688
815,788.1318969726562,792.5640869140625,799.010986328125,779.6703491210938
816,791.3552856445312,796.5933837890625,796.5933837890625,787.7289428710938
817,792.967041015625,795.3846435546875,801.4285888671875,790.952392578125
818,792.1611938476562,791.3552856445312,799.8168334960938,787.3259887695312
819,790.5494384765625,789.7435913085938,796.5933837890625,788.937744140625
820,787.3259887695312,791.7582397460938,794.981689453125,792.5640869140625
821,783.6996459960938,795.3846435546875,790.952392578125,794.1758422851562
822,785.7142944335938,790.5494384765625,793.7728881835938,792.967041015625
823,793.3699340820312,787.7289428710938,794.5787353515625,788.5347900390625
824,787.3259887695312,788.1318969726562,792.967041015625,783.2966918945312
825,788.937744140625,786.5201416015625,798.2051391601562,784.5054931640625
826,794.5787353515625,784.908447265625,800.6226806640625,788.937744140625
827,790.5494384765625,786.1171875,797.8021850585938,788.937744140625
828,787.3259887695312,790.952392578125,803.8461303710938,798.2051391601562
829,782.893798828125,792.5640869140625,802.6373901367188,790.952392578125
830,785.7142944335938,789.3406372070312,796.5933837890625,785.3113403320312
831,796.5933837890625,788.1318969726562,795.7875366210938,794.5787353515625
832,797.3992919921875,794.1758422851562,793.7728881835938,794.5787353515625
833,794.1758422851562,796.5933837890625,796.1904907226562,790.952392578125
834,794.981689453125,794.5787353515625,796.1904907226562,785.7142944335938
835,789.7435913085938,799.010986328125,798.6080322265625,784.5054931640625
836,789.3406372070312,799.010986328125,802.6373901367188,784.5054931640625
837,788.5347900390625,799.8168334960938,803.8461303710938,780.4761962890625
838,785.7142944335938,801.4285888671875,802.6373901367188,781.2820434570312
839,780.0732421875,796.1904907226562,803.040283203125,786.1171875
840,774.8351440429688,791.7582397460938,799.4139404296875,783.2966918945312
841,779.6703491210938,792.967041015625,792.5640869140625,774.4322509765625
842,779.2673950195312,791.3552856445312,794.981689453125,774.029296875
843,772.4176025390625,787.3259887695312,794.981689453125,778.4615478515625
844,773.6264038085938,784.5054931640625,791.3552856445312,774.8351440429688
845,777.6557006835938,786.1171875,791.7582397460938,780.4761962890625
846,791.3552856445312,796.5933837890625,784.908447265625,786.1171875
847,796.5933837890625,796.996337890625,786.923095703125,787.7289428710938
848,797.3992919921875,797.8021850585938,788.1318969726562,787.7289428710938
849,794.5787353515625,797.3992919921875,793.3699340820312,787.3259887695312
850,792.967041015625,801.025634765625,796.5933837890625,788.1318969726562
851,799.4139404296875,800.2197875976562,796.1904907226562,786.5201416015625
852,803.040283203125,795.3846435546875,795.7875366210938,786.923095703125
853,796.5933837890625,791.3552856445312,790.5494384765625,780.0732421875
854,794.5787353515625,791.3552856445312,790.1465454101562,777.6557006835938
855,796.5933837890625,794.981689453125,790.5494384765625,782.087890625
856,796.996337890625,794.981689453125,793.3699340820312,786.923095703125
857,798.6080322265625,793.3699340820312,797.3992919921875,790.1465454101562
858,796.1904907226562,793.3699340820312,799.8168334960938,792.5640869140625
859,796.996337890625,794.1758422851562,801.4285888671875,796.5933837890625
860,794.5787353515625,797.3992919921875,800.2197875976562,793.7728881835938
861,790.1465454101562,799.010986328125,796.5933837890625,795.3846435546875
862,792.967041015625,796.5933837890625,790.5494384765625,796.1904907226562
863,794.981689453125,794.5787353515625,792.1611938476562,796.1904907226562
864,792.5640869140625,797.8021850585938,793.3699340820312,800.6226806640625
865,790.1465454101562,796.996337890625,790.952392578125,797.3992919921875
866,795.3846435546875,794.5787353515625,794.1758422851562,795.7875366210938
867,799.8168334960938,792.967041015625,799.010986328125,801.4285888671875
868,789.7435913085938,791.3552856445312,799.4139404296875,796.996337890625
869,787.3259887695312,794.5787353515625,794.981689453125,790.952392578125
870,788.937744140625,793.3699340820312,792.967041015625,792.1611938476562
871,787.3259887695312,792.1611938476562,790.5494384765625,797.3992919921875
872,789.3406372070312,790.5494384765625,791.7582397460938,798.2051391601562
873,789.7435913085938,793.3699340820312,796.1904907226562,790.1465454101562
874,789.3406372070312,794.1758422851562,794.1758422851562,792.1611938476562
875,786.923095703125,789.3406372070312,794.5787353515625,794.5787353515625
876,790.5494384765625,789.3406372070312,796.1904907226562,791.7582397460938
877,792.5640869140625,790.952392578125,798.6080322265625,796.5933837890625
878,790.952392578125,789.7435913085938,799.010986328125,796.5933837890625
879,792.5640869140625,789.7435913085938,797.8021850585938,798.6080322265625
880,793.7728881835938,792.1611938476562,793.3699340820312,799.8168334960938
881,796.1904907226562,796.5933837890625,796.1904907226562,794.981689453125
882,796.5933837890625,797.3992919921875,799.8168334960938,790.952392578125
883,800.2197875976562,796.1904907226562,796.996337890625,793.3699340820312
884,801.4285888671875,795.3846435546875,794.981689453125,791.3552856445312
885,793.3699340820312,793.3699340820312,794.981689453125,786.1171875
886,791.7582397460938,795.7875366210938,792.967041015625,788.937744140625
887,794.5787353515625,797.8021850585938,793.7728881835938,795.7875366210938
888,802.6373901367188,796.996337890625,800.2197875976562,801.4285888671875
889,808.2783813476562,799.8168334960938,804.2490844726562,798.2051391601562
890,799.8168334960938,796.996337890625,799.8168334960938,796.996337890625
891,795.7875366210938,793.7728881835938,797.3992919921875,804.6520385742188
892,801.4285888671875,793.7728881835938,799.4139404296875,802.6373901367188
893,806.6666870117188,793.3699340820312,801.4285888671875,798.6080322265625
894,800.6226806640625,792.1611938476562,800.2197875976562,797.3992919921875
895,794.5787353515625,792.1611938476562,799.4139404296875,792.1611938476562
896,796.996337890625,793.7728881835938,802.2344360351562,786.923095703125
897,800.6226806640625,793.7728881835938,800.2197875976562,791.7582397460938
898,799.8168334960938,796.996337890625,798.6080322265625,793.7728881835938
899,794.1758422851562,796.5933837890625,797.3992919921875,783.6996459960938
900,789.7435913085938,794.1758422851562,795.3846435546875,778.05859375
901,792.967041015625,791.7582397460938,790.5494384765625,775.2380981445312
902,797.3992919921875,789.7435913085938,791.3552856445312,785.3113403320312
903,792.967041015625,787.3259887695312,791.3552856445312,790.5494384765625
904,792.5640869140625,787.3259887695312,788.1318969726562,781.2820434570312
905,796.5933837890625,788.1318969726562,787.7289428710938,780.0732421875
906,793.7728881835938,791.7582397460938,792.5640869140625,785.7142944335938
907,793.3699340820312,796.1904907226562,789.3406372070312,779.2673950195312
908,797.8021850585938,794.981689453125,786.5201416015625,780.0732421875
909,792.1611938476562,794.1758422851562,790.1465454101562,786.1171875
910,792.5640869140625,794.1758422851562,792.967041015625,788.937744140625
911,792.967041015625,792.1611938476562,796.5933837890625,789.3406372070312
912,791.3552856445312,796.1904907226562,794.1758422851562,785.3113403320312
913,799.4139404296875,797.8021850585938,795.7875366210938,793.7728881835938
914,804.6520385742188,791.7582397460938,803.040283203125,805.8607788085938
915,801.4285888671875,786.923095703125,802.6373901367188,803.040283203125
916,794.5787353515625,785.7142944335938,801.4285888671875,794.5787353515625
917,786.1171875,795.3846435546875,798.6080322265625,785.3113403320312
918,787.3259887695312,801.025634765625,800.2197875976562,782.893798828125
919,786.1171875,795.3846435546875,801.025634765625,788.1318969726562
920,786.1171875,796.1904907226562,798.6080322265625,786.923095703125
921,794.5787353515625,788.937744140625,796.996337890625,791.3552856445312
922,790.952392578125,790.5494384765625,802.2344360351562,790.1465454101562
923,794.981689453125,794.1758422851562,799.8168334960938,796.996337890625
924,797.3992919921875,791.7582397460938,795.3846435546875,796.1904907226562
925,798.2051391601562,790.5494384765625,800.2197875976562,785.7142944335938
926,796.5933837890625,791.7582397460938,801.025634765625,789.7435913085938
927,792.967041015625,790.952392578125,799.4139404296875,791.7582397460938
928,791.7582397460938,791.3552856445312,797.3992919921875,792.5640869140625
929,789.3406372070312,791.3552856445312,793.7728881835938,797.8021850585938
930,791.7582397460938,790.5494384765625,795.3846435546875,791.7582397460938
931,792.1611938476562,788.1318969726562,796.996337890625,791.3552856445312
932,785.7142944335938,785.7142944335938,795.3846435546875,788.1318969726562
933,784.1025390625,791.3552856445312,796.5933837890625,792.967041015625
934,784.908447265625,789.7435913085938,794.981689453125,797.8021850585938
935,784.5054931640625,783.6996459960938,790.5494384765625,793.3699340820312
936,786.1171875,789.7435913085938,792.967041015625,789.3406372070312
937,779.2673950195312,794.1758422851562,791.7582397460938,780.879150390625
938,777.2527465820312,792.967041015625,786.923095703125,780.4761962890625
939,784.5054931640625,794.1758422851562,785.7142944335938,783.2966918945312
940,789.3406372070312,795.3846435546875,789.3406372070312,789.7435913085938
941,791.7582397460938,792.5640869140625,791.3552856445312,788.1318969726562
942,791.7582397460938,792.967041015625,792.967041015625,780.4761962890625
943,788.1318969726562,797.3992919921875,790.5494384765625,782.893798828125
944,789.3406372070312,800.6226806640625,788.937744140625,790.952392578125
945,790.952392578125,799.010986328125,790.952392578125,787.3259887695312
946,793.3699340820312,798.2051391601562,792.5640869140625,786.1171875
947,794.981689453125,798.2051391601562,792.967041015625,787.7289428710938
948,795.7875366210938,798.6080322265625,788.937744140625,782.893798828125
949,793.3699340820312,794.1758422851562,788.5347900390625,782.893798828125
950,788.5347900390625,792.5640869140625,790.952392578125,782.087890625
951,796.1904907226562,796.996337890625,792.5640869140625,784.1025390625
952,803.8461303710938,795.7875366210938,794.981689453125,788.5347900390625
953,792.5640869140625,786.923095703125,797.8021850585938,786.5201416015625
954,787.7289428710938,790.1465454101562,798.2051391601562,784.1025390625
955,794.1758422851562,796.1904907226562,793.3699340820312,793.3699340820312
956,795.7875366210938,794.1758422851562,792.5640869140625,800.2197875976562
957,790.952392578125,792.967041015625,792.1611938476562,788.937744140625
958,796.996337890625,793.7728881835938,796.5933837890625,800.6226806640625
959,796.5933837890625,794.1758422851562,802.2344360351562,807.4725341796875
960,798.6080322265625,794.5787353515625,800.2197875976562,801.4285888671875
961,793.7728881835938,787.7289428710938,796.1904907226562,795.7875366210938
962,792.1611938476562,782.893798828125,796.996337890625,801.8314819335938
963,793.7728881835938,788.1318969726562,796.5933837890625,800.2197875976562
964,790.1465454101562,793.3699340820312,796.1904907226562,794.1758422851562
965,796.1904907226562,794.5787353515625,797.3992919921875,794.1758422851562
966,803.040283203125,794.5787353515625,799.8168334960938,796.996337890625
967,798.6080322265625,795.7875366210938,794.981689453125,789.3406372070312
968,793.3699340820312,793.7728881835938,792.5640869140625,787.7289428710938
969,792.5640869140625,792.5640869140625,796.5933837890625,794.981689453125
970,796.5933837890625,790.5494384765625,795.7875366210938,790.952392578125
971,799.4139404296875,783.6996459960938,789.7435913085938,785.3113403320312
972,799.8168334960938,785.7142944335938,787.7289428710938,785.7142944335938
973,794.1758422851562,790.5494384765625,787.3259887695312,785.3113403320312
974,786.5201416015625,788.1318969726562,782.4908447265625,779.6703491210938
975,790.5494384765625,788.5347900390625,785.3113403320312,789.7435913085938
976,796.1904907226562,789.3406372070312,786.923095703125,792.5640869140625
977,793.3699340820312,792.1611938476562,784.1025390625,786.923095703125
978,795.3846435546875,796.1904907226562,785.3113403320312,790.952392578125
979,792.967041015625,793.7728881835938,787.3259887695312,783.6996459960938
980,787.3259887695312,788.937744140625,786.923095703125,782.4908447265625
981,793.3699340820312,786.1171875,793.3699340820312,787.3259887695312
982,796.996337890625,788.1318969726562,798.6080322265625,790.952392578125
983,786.5201416015625,787.3259887695312,793.3699340820312,785.3113403320312
984,782.893798828125,784.1025390625,791.7582397460938,782.893798828125
985,788.5347900390625,791.3552856445312,797.3992919921875,789.3406372070312
986,792.1611938476562,794.981689453125,799.8168334960938,790.1465454101562
987,789.7435913085938,791.3552856445312,796.996337890625,786.1171875
988,787.3259887695312,789.3406372070312,793.7728881835938,786.923095703125
989,789.3406372070312,785.3113403320312,792.5640869140625,795.7875366210938
990,790.952392578125,785.3113403320312,796.1904907226562,792.1611938476562
991,792.967041015625,787.3259887695312,796.996337890625,782.4908447265625
992,794.1758422851562,781.2820434570312,790.952392578125,782.4908447265625
993,790.5494384765625,783.6996459960938,787.3259887695312,785.3113403320312
994,792.5640869140625,786.923095703125,793.7728881835938,788.5347900390625
995,800.6226806640625,784.5054931640625,794.1758422851562,790.1465454101562
996,799.010986328125,787.7289428710938,790.952392578125,789.3406372070312
997,795.7875366210938,793.3699340820312,792.5640869140625,787.7289428710938
998,794.1758422851562,791.3552856445312,791.7582397460938,788.1318969726562
999,791.7582397460938,790.1465454101562,793.7728881835938,786.1171875
1000,793.3699340820312,789.3406372070312,795.3846435546875,784.908447265625
1001,790.952392578125,788.5347900390625,796.1904907226562,793.7728881835938
1002,785.7142944335938,790.1465454101562,794.5787353515625,790.952392578125
1003,782.087890625,785.7142944335938,794.1758422851562,787.3259887695312
1004,780.0732421875,783.6996459960938,794.1758422851562,793.3699340820312
1005,784.908447265625,783.2966918945312,797.3992919921875,790.1465454101562
1006,787.7289428710938,783.2966918945312,796.1904907226562,787.3259887695312
1007,786.5201416015625,783.2966918945312,792.967041015625,786.1171875
1008,780.879150390625,781.2820434570312,790.5494384765625,780.4761962890625
1009,779.2673950195312,780.4761962890625,788.1318969726562,777.2527465820312
1010,780.879150390625,781.6849975585938,790.5494384765625,778.4615478515625
1011,782.4908447265625,788.1318969726562,789.7435913085938,781.2820434570312
1012,787.3259887695312,789.7435913085938,789.3406372070312,788.937744140625
1013,783.2966918945312,783.2966918945312,792.967041015625,792.1611938476562
1014,778.8644409179688,777.2527465820312,795.7875366210938,792.5640869140625
1015,780.879150390625,779.2673950195312,800.2197875976562,785.3113403320312
1016,772.0146484375,784.908447265625,797.8021850585938,771.6116943359375
1017,769.1941528320312,784.5054931640625,791.7582397460938,770.8058471679688
1018,772.0146484375,782.087890625,796.5933837890625,772.8204956054688
1019,776.0439453125,782.087890625,795.3846435546875,771.6116943359375
1020,777.6557006835938,786.923095703125,791.7582397460938,772.4176025390625
1021,776.8497924804688,787.7289428710938,793.7728881835938,778.8644409179688
1022,785.3113403320312,787.7289428710938,792.1611938476562,788.937744140625
1023,790.952392578125,786.5201416015625,787.3259887695312,788.5347900390625
1024,791.7582397460938,789.3406372070312,789.7435913085938,792.967041015625
1025,793.3699340820312,794.5787353515625,794.981689453125,792.1611938476562
1026,796.5933837890625,794.1758422851562,792.5640869140625,785.7142944335938
1027,799.4139404296875,790.1465454101562,791.3552856445312,789.7435913085938
1028,799.4139404296875,787.3259887695312,794.1758422851562,797.8021850585938
1029,801.4285888671875,792.967041015625,793.3699340820312,799.010986328125
1030,800.6226806640625,796.996337890625,793.3699340820312,791.3552856445312
1031,802.6373901367188,794.1758422851562,797.8021850585938,794.981689453125
1032,805.8607788085938,796.1904907226562,794.5787353515625,802.2344360351562
1033,800.6226806640625,796.996337890625,792.5640869140625,795.7875366210938
1034,793.7728881835938,796.996337890625,794.5787353515625,787.7289428710938
1035,797.8021850585938,803.040283203125,792.967041015625,799.8168334960938
1036,797.3992919921875,803.040283203125,796.1904907226562,799.8168334960938
1037,792.1611938476562,797.3992919921875,795.7875366210938,784.5054931640625
1038,788.937744140625,797.3992919921875,791.7582397460938,786.923095703125
1039,782.893798828125,796.5933837890625,790.5494384765625,782.893798828125
1040,780.879150390625,792.967041015625,790.5494384765625,777.6557006835938
1041,783.6996459960938,793.7728881835938,791.7582397460938,780.879150390625
1042,783.6996459960938,792.5640869140625,792.1611938476562,783.6996459960938
1043,782.087890625,789.3406372070312,789.7435913085938,783.6996459960938
1044,781.6849975585938,790.952392578125,791.3552856445312,783.2966918945312
1045,778.4615478515625,791.3552856445312,795.3846435546875,783.6996459960938
1046,785.3113403320312,791.3552856445312,795.3846435546875,792.5640869140625
1047,788.5347900390625,791.7582397460938,799.010986328125,795.7875366210938
1048,784.5054931640625,792.5640869140625,799.4139404296875,794.5787353515625
1049,792.1611938476562,790.5494384765625,802.2344360351562,798.2051391601562
1050,797.3992919921875,794.1758422851562,801.4285888671875,803.040283203125
1051,794.981689453125,800.2197875976562,800.6226806640625,805.4578857421875
1052,799.4139404296875,799.8168334960938,798.2051391601562,796.1904907226562
1053,800.2197875976562,799.010986328125,796.1904907226562,796.1904907226562
1054,799.010986328125,795.7875366210938,795.3846435546875,796.1904907226562
1055,800.2197875976562,797.8021850585938,800.2197875976562,796.996337890625
1056,797.8021850585938,799.4139404296875,798.6080322265625,798.6080322265625
1057,797.3992919921875,799.8168334960938,794.5787353515625,795.7875366210938
1058,795.3846435546875,800.6226806640625,793.7728881835938,797.3992919921875
1059,796.996337890625,801.025634765625,791.7582397460938,794.981689453125
1060,797.8021850585938,797.8021850585938,797.3992919921875,788.937744140625
1061,796.1904907226562,796.996337890625,795.3846435546875,787.3259887695312
1062,794.5787353515625,799.8168334960938,794.1758422851562,792.5640869140625
1063,794.1758422851562,796.996337890625,794.981689453125,794.1758422851562
1064,792.5640869140625,793.3699340820312,791.3552856445312,788.5347900390625
1065,787.7289428710938,792.1611938476562,792.1611938476562,788.937744140625
1066,785.3113403320312,791.7582397460938,795.7875366210938,792.5640869140625
1067,784.5054931640625,791.7582397460938,791.7582397460938,788.5347900390625
1068,785.3113403320312,789.3406372070312,786.5201416015625,785.3113403320312
1069,789.7435913085938,791.3552856445312,790.952392578125,786.1171875
1070,796.5933837890625,792.967041015625,799.4139404296875,788.937744140625
1071,790.952392578125,788.937744140625,799.8168334960938,790.5494384765625
1072,785.7142944335938,787.3259887695312,798.2051391601562,793.3699340820312
1073,790.5494384765625,790.5494384765625,795.3846435546875,797.8021850585938
1074,790.1465454101562,790.1465454101562,794.5787353515625,796.5933837890625
1075,788.1318969726562,789.3406372070312,796.1904907226562,788.5347900390625
1076,790.952392578125,784.1025390625,796.5933837890625,787.7289428710938
1077,799.010986328125,786.923095703125,795.7875366210938,792.1611938476562
1078,807.069580078125,794.981689453125,798.2051391601562,793.7728881835938
1079,814.3223266601562,797.8021850585938,797.8021850585938,791.3552856445312
1080,811.098876953125,797.8021850585938,800.2197875976562,789.7435913085938
1081,800.2197875976562,797.8021850585938,800.6226806640625,788.937744140625
1082,800.6226806640625,801.4285888671875,796.1904907226562,788.937744140625
1083,803.8461303710938,796.996337890625,797.3992919921875,786.1171875
1084,797.3992919921875,793.3699340820312,795.7875366210938,782.4908447265625
1085,790.1465454101562,791.7582397460938,796.1904907226562,787.3259887695312
1086,792.967041015625,794.1758422851562,802.6373901367188,791.7582397460938
1087,794.5787353515625,792.1611938476562,804.2490844726562,791.3552856445312
1088,798.2051391601562,788.937744140625,803.040283203125,803.8461303710938
1089,800.2197875976562,793.7728881835938,811.5018310546875,811.90478515625
1090,800.6226806640625,796.5933837890625,812.7106323242188,803.8461303710938
1091,803.4432373046875,797.8021850585938,809.4871826171875,806.6666870117188
1092,802.2344360351562,795.3846435546875,806.6666870117188,805.054931640625
1093,803.040283203125,794.1758422851562,805.4578857421875,797.8021850585938
1094,806.2637329101562,797.8021850585938,805.4578857421875,800.6226806640625
1095,803.4432373046875,791.3552856445312,801.025634765625,798.2051391601562
1096,794.1758422851562,794.5787353515625,796.1904907226562,790.952392578125
1097,790.1465454101562,804.2490844726562,796.1904907226562,794.5787353515625
1098,790.1465454101562,801.025634765625,794.1758422851562,792.1611938476562
1099,794.981689453125,799.4139404296875,794.1758422851562,793.3699340820312
1100,799.010986328125,803.040283203125,798.6080322265625,796.996337890625
1101,796.1904907226562,806.6666870117188,804.2490844726562,796.996337890625
1102,799.010986328125,809.084228515625,802.6373901367188,799.8168334960938
1103,803.040283203125,804.6520385742188,794.1758422851562,797.3992919921875
1104,797.8021850585938,801.025634765625,790.952392578125,791.3552856445312
1105,799.010986328125,805.054931640625,794.1758422851562,788.937744140625
1106,801.8314819335938,804.6520385742188,796.5933837890625,784.5054931640625
1107,797.3992919921875,801.025634765625,794.1758422851562,780.4761962890625
1108,800.6226806640625,801.8314819335938,798.6080322265625,791.3552856445312
1109,803.040283203125,799.010986328125,804.2490844726562,790.5494384765625
1110,797.3992919921875,797.8021850585938,803.040283203125,787.7289428710938
1111,794.5787353515625,795.7875366210938,800.6226806640625,789.7435913085938
1112,792.967041015625,790.5494384765625,800.6226806640625,785.3113403320312
1113,792.967041015625,793.7728881835938,803.040283203125,785.3113403320312
1114,792.967041015625,794.981689453125,800.2197875976562,784.1025390625
1115,790.1465454101562,788.937744140625,798.6080322265625,787.3259887695312
1116,786.1171875,789.7435913085938,800.2197875976562,786.5201416015625
1117,780.4761962890625,792.1611938476562,799.4139404296875,778.05859375
1118,782.893798828125,790.1465454101562,799.4139404296875,779.6703491210938
1119,788.1318969726562,790.5494384765625,799.4139404296875,784.5054931640625
1120,785.3113403320312,792.967041015625,799.4139404296875,782.4908447265625
1121,774.029296875,793.3699340820312,798.2051391601562,776.4468994140625
1122,778.05859375,794.5787353515625,797.8021850585938,778.05859375
1123,791.3552856445312,798.2051391601562,799.4139404296875,786.923095703125
1124,793.3699340820312,798.2051391601562,800.6226806640625,791.3552856445312
1125,792.5640869140625,792.1611938476562,800.2197875976562,788.5347900390625
1126,788.1318969726562,792.1611938476562,793.3699340820312,780.879150390625
1127,788.937744140625,793.7728881835938,789.3406372070312,786.1171875
1128,790.1465454101562,792.5640869140625,788.5347900390625,786.5201416015625
1129,792.5640869140625,789.7435913085938,786.1171875,780.0732421875
1130,799.010986328125,790.1465454101562,786.923095703125,782.087890625
1131,795.7875366210938,792.1611938476562,788.1318969726562,786.923095703125
1132,794.981689453125,789.7435913085938,787.7289428710938,786.5201416015625
1133,799.010986328125,790.5494384765625,787.7289428710938,786.923095703125
1134,805.4578857421875,791.3552856445312,792.1611938476562,794.5787353515625
1135,807.4725341796875,794.981689453125,793.7728881835938,796.996337890625
1136,801.4285888671875,793.3699340820312,797.8021850585938,795.3846435546875
1137,798.6080322265625,786.5201416015625,798.2051391601562,796.5933837890625
1138,796.5933837890625,789.3406372070312,793.3699340820312,789.3406372070312
1139,797.8021850585938,790.1465454101562,794.981689453125,783.2966918945312
1140,794.5787353515625,786.1171875,796.1904907226562,785.3113403320312
1141,788.5347900390625,785.7142944335938,793.3699340820312,780.0732421875
1142,788.1318969726562,787.7289428710938,790.5494384765625,778.05859375
1143,787.3259887695312,788.1318969726562,791.7582397460938,788.1318969726562
1144,787.7289428710938,788.1318969726562,794.981689453125,795.3846435546875
1145,784.5054931640625,788.1318969726562,796.5933837890625,791.7582397460938
1146,777.6557006835938,786.1171875,792.967041015625,787.3259887695312
1147,780.879150390625,786.1171875,792.1611938476562,786.1171875
1148,790.5494384765625,789.7435913085938,792.967041015625,783.6996459960938
1149,792.5640869140625,790.1465454101562,788.937744140625,784.1025390625
1150,784.5054931640625,794.1758422851562,787.3259887695312,788.1318969726562
1151,785.3113403320312,795.7875366210938,789.3406372070312,787.3259887695312
1152,782.4908447265625,790.952392578125,789.7435913085938,781.2820434570312
1153,781.2820434570312,786.1171875,787.3259887695312,778.8644409179688
1154,791.3552856445312,788.937744140625,785.7142944335938,783.2966918945312
1155,794.1758422851562,794.5787353515625,780.879150390625,785.3113403320312
1156,795.3846435546875,795.7875366210938,788.5347900390625,785.3113403320312
1157,801.025634765625,797.3992919921875,794.981689453125,790.5494384765625
1158,799.8168334960938,795.3846435546875,797.8021850585938,801.025634765625
1159,795.7875366210938,794.981689453125,799.4139404296875,796.996337890625
1160,803.040283203125,797.3992919921875,796.1904907226562,786.5201416015625
1161,805.054931640625,793.7728881835938,792.967041015625,784.5054931640625
1162,795.3846435546875,790.952392578125,794.5787353515625,781.6849975585938
1163,785.3113403320312,790.5494384765625,798.2051391601562,778.05859375
1164,785.7142944335938,790.952392578125,798.6080322265625,781.6849975585938
1165,789.3406372070312,790.5494384765625,799.4139404296875,787.7289428710938
1166,790.5494384765625,790.952392578125,799.010986328125,789.3406372070312
1167,786.923095703125,792.1611938476562,795.7875366210938,780.0732421875
1168,781.6849975585938,791.7582397460938,795.7875366210938,772.4176025390625
1169,782.893798828125,793.3699340820312,792.5640869140625,776.8497924804688
1170,785.7142944335938,792.967041015625,794.981689453125,784.908447265625
1171,781.6849975585938,793.7728881835938,797.8021850585938,783.6996459960938
1172,780.879150390625,793.7728881835938,796.996337890625,788.1318969726562
1173,783.2966918945312,790.952392578125,800.6226806640625,790.952392578125
1174,786.1171875,788.1318969726562,801.025634765625,790.1465454101562
1175,792.5640869140625,791.7582397460938,797.8021850585938,790.952392578125
1176,790.952392578125,796.5933837890625,794.1758422851562,799.010986328125
1177,786.5201416015625,793.3699340820312,794.981689453125,806.6666870117188
1178,786.5201416015625,794.1758422851562,796.5933837890625,804.2490844726562
1179,794.5787353515625,794.5787353515625,798.6080322265625,799.8168334960938
1180,803.040283203125,789.7435913085938,799.4139404296875,807.069580078125
1181,799.010986328125,794.1758422851562,799.010986328125,816.7399291992188
1182,793.3699340820312,794.981689453125,803.8461303710938,806.6666870117188
1183,799.8168334960938,796.1904907226562,803.040283203125,797.3992919921875
1184,799.010986328125,799.010986328125,796.1904907226562,791.7582397460938
1185,799.8168334960938,796.5933837890625,790.952392578125,789.7435913085938
1186,802.2344360351562,795.3846435546875,786.5201416015625,789.7435913085938
1187,795.7875366210938,794.5787353515625,786.5201416015625,789.3406372070312
1188,786.923095703125,792.5640869140625,785.7142944335938,787.3259887695312
1189,788.5347900390625,790.5494384765625,782.893798828125,786.1171875
1190,794.1758422851562,790.1465454101562,791.3552856445312,782.4908447265625
1191,792.1611938476562,791.3552856445312,797.8021850585938,782.4908447265625
1192,784.908447265625,790.952392578125,796.1904907226562,787.7289428710938
1193,775.6410522460938,788.1318969726562,793.7728881835938,784.908447265625
1194,770.8058471679688,786.1171875,791.7582397460938,776.8497924804688
1195,773.2234497070312,783.6996459960938,790.952392578125,776.0439453125
1196,776.8497924804688,783.2966918945312,791.3552856445312,779.6703491210938
1197,781.6849975585938,784.5054931640625,792.1611938476562,780.4761962890625
1198,779.2673950195312,782.893798828125,797.8021850585938,783.6996459960938
1199,778.8644409179688,786.5201416015625,800.2197875976562,787.7289428710938
1200,783.2966918945312,789.3406372070312,795.7875366210938,788.937744140625
1201,783.2966918945312,788.1318969726562,792.5640869140625,786.1171875
1202,786.5201416015625,784.908447265625,792.5640869140625,787.3259887695312
1203,789.7435913085938,788.1318969726562,793.7728881835938,792.1611938476562
1204,790.5494384765625,786.5201416015625,789.3406372070312,796.1904907226562
1205,793.3699340820312,785.7142944335938,788.937744140625,798.2051391601562
1206,793.3699340820312,788.5347900390625,790.952392578125,797.8021850585938
1207,789.7435913085938,789.7435913085938,790.5494384765625,788.1318969726562
1208,788.5347900390625,791.3552856445312,794.981689453125,780.4761962890625
1209,792.967041015625,793.7728881835938,801.8314819335938,787.3259887695312
1210,789.3406372070312,793.3699340820312,801.8314819335938,790.5494384765625
1211,791.3552856445312,789.7435913085938,800.2197875976562,790.1465454101562
1212,794.981689453125,788.937744140625,800.6226806640625,793.7728881835938
1213,789.7435913085938,788.937744140625,793.7728881835938,794.981689453125
1214,790.952392578125,788.1318969726562,792.1611938476562,796.996337890625
1215,796.1904907226562,784.908447265625,796.996337890625,797.8021850585938
1216,804.2490844726562,788.1318969726562,794.981689453125,803.040283203125
1217,803.4432373046875,790.5494384765625,789.7435913085938,800.6226806640625
1218,796.996337890625,793.3699340820312,793.3699340820312,795.3846435546875
1219,797.3992919921875,792.967041015625,789.7435913085938,796.1904907226562
1220,795.7875366210938,787.7289428710938,788.1318969726562,790.952392578125
1221,789.3406372070312,786.923095703125,787.7289428710938,785.7142944335938
1222,793.3699340820312,786.5201416015625,781.6849975585938,795.3846435546875
1223,799.8168334960938,787.7289428710938,786.5201416015625,803.040283203125
1224,796.996337890625,789.3406372070312,789.7435913085938,799.010986328125
1225,793.7728881835938,788.1318969726562,790.1465454101562,792.5640869140625
1226,790.952392578125,784.908447265625,789.7435913085938,789.3406372070312
1227,791.3552856445312,785.7142944335938,793.7728881835938,795.7875366210938
1228,796.996337890625,790.1465454101562,797.3992919921875,800.2197875976562
1229,795.7875366210938,787.7289428710938,794.5787353515625,792.5640869140625
1230,788.937744140625,786.1171875,792.5640869140625,792.967041015625
1231,796.1904907226562,795.3846435546875,794.981689453125,798.6080322265625
1232,805.054931640625,794.1758422851562,798.2051391601562,800.2197875976562
1233,801.4285888671875,794.1758422851562,801.4285888671875,797.3992919921875
1234,799.4139404296875,798.2051391601562,799.8168334960938,795.7875366210938
1235,798.2051391601562,793.7728881835938,796.5933837890625,794.981689453125
1236,799.010986328125,788.5347900390625,795.3846435546875,789.7435913085938
1237,801.8314819335938,790.5494384765625,795.3846435546875,784.908447265625
1238,798.6080322265625,794.981689453125,793.3699340820312,784.908447265625
1239,797.3992919921875,795.7875366210938,789.3406372070312,785.3113403320312
1240,797.3992919921875,792.1611938476562,788.1318969726562,782.4908447265625
1241,794.981689453125,791.7582397460938,789.3406372070312,784.5054931640625
1242,801.025634765625,794.1758422851562,792.5640869140625,785.7142944335938
1243,802.2344360351562,795.7875366210938,791.3552856445312,784.5054931640625
1244,797.8021850585938,796.1904907226562,796.1904907226562,789.7435913085938
1245,800.2197875976562,799.010986328125,793.7728881835938,789.7435913085938
1246,803.8461303710938,798.6080322265625,789.3406372070312,787.3259887695312
1247,805.4578857421875,795.7875366210938,787.3259887695312,786.1171875
1248,801.8314819335938,795.7875366210938,786.923095703125,784.1025390625
1249,797.8021850585938,792.5640869140625,790.1465454101562,789.3406372070312
1250,800.6226806640625,790.5494384765625,789.7435913085938,791.7582397460938
1251,804.2490844726562,795.3846435546875,793.7728881835938,793.7728881835938
1252,804.6520385742188,795.7875366210938,799.010986328125,794.981689453125
1253,800.2197875976562,789.3406372070312,794.981689453125,793.7728881835938
1254,789.7435913085938,787.7289428710938,790.5494384765625,794.981689453125
1255,784.1025390625,788.1318969726562,789.7435913085938,787.3259887695312
1256,787.3259887695312,789.3406372070312,789.7435913085938,778.8644409179688
1257,785.7142944335938,787.7289428710938,792.967041015625,778.8644409179688
1258,784.908447265625,785.3113403320312,795.3846435546875,782.4908447265625
1259,784.5054931640625,786.5201416015625,795.3846435546875,779.6703491210938
1260,782.893798828125,788.5347900390625,793.7728881835938,770.4029541015625
1261,786.1171875,795.3846435546875,793.7728881835938,773.2234497070312
1262,786.5201416015625,794.1758422851562,795.3846435546875,776.4468994140625
1263,787.7289428710938,790.1465454101562,793.7728881835938,776.8497924804688
1264,792.1611938476562,794.1758422851562,794.981689453125,783.2966918945312
1265,792.1611938476562,795.7875366210938,794.981689453125,784.5054931640625
1266,788.937744140625,793.3699340820312,797.3992919921875,782.087890625
1267,792.5640869140625,792.967041015625,798.2051391601562,781.2820434570312
1268,796.5933837890625,792.5640869140625,793.3699340820312,782.087890625
1269,790.952392578125,788.937744140625,792.1611938476562,777.2527465820312
1270,781.2820434570312,789.3406372070312,792.967041015625,775.2380981445312
1271,786.923095703125,790.952392578125,792.1611938476562,782.4908447265625
1272,791.3552856445312,785.7142944335938,795.3846435546875,785.7142944335938
1273,792.967041015625,783.2966918945312,795.3846435546875,789.7435913085938
1274,792.1611938476562,786.1171875,794.5787353515625,799.8168334960938
1275,788.1318969726562,789.7435913085938,797.3992919921875,792.5640869140625
1276,786.1171875,788.937744140625,798.2051391601562,781.2820434570312
1277,788.1318969726562,785.7142944335938,796.996337890625,792.967041015625
1278,784.1025390625,782.4908447265625,792.1611938476562,792.967041015625
1279,780.4761962890625,785.3113403320312,791.3552856445312,784.1025390625
1280,782.893798828125,789.3406372070312,797.3992919921875,787.7289428710938
1281,782.893798828125,788.937744140625,796.1904907226562,793.3699340820312
1282,789.7435913085938,790.5494384765625,791.7582397460938,786.923095703125
1283,796.996337890625,787.3259887695312,790.1465454101562,788.1318969726562
1284,789.3406372070312,786.5201416015625,792.967041015625,792.5640869140625
1285,784.5054931640625,786.923095703125,796.1904907226562,787.7289428710938
1286,789.7435913085938,783.6996459960938,798.6080322265625,790.952392578125
1287,789.3406372070312,786.5201416015625,794.981689453125,792.5640869140625
1288,788.1318969726562,787.3259887695312,793.7728881835938,785.3113403320312
1289,792.967041015625,787.3259887695312,799.4139404296875,788.937744140625
1290,793.7728881835938,786.923095703125,802.6373901367188,788.5347900390625
1291,794.5787353515625,786.923095703125,804.2490844726562,784.908447265625
1292,794.5787353515625,787.7289428710938,800.2197875976562,782.4908447265625
1293,794.981689453125,786.1171875,796.996337890625,782.4908447265625
1294,796.996337890625,787.3259887695312,795.3846435546875,781.2820434570312
1295,796.5933837890625,791.7582397460938,799.4139404296875,781.2820434570312
1296,792.1611938476562,790.952392578125,797.3992919921875,787.7289428710938
1297,789.7435913085938,790.1465454101562,794.1758422851562,787.3259887695312
1298,792.967041015625,791.3552856445312,796.996337890625,783.2966918945312
1299,790.952392578125,789.3406372070312,796.5933837890625,782.087890625
1300,790.1465454101562,786.5201416015625,794.981689453125,786.1171875
1301,790.952392578125,784.908447265625,789.7435913085938,788.937744140625
1302,792.967041015625,781.6849975585938,785.3113403320312,781.2820434570312
1303,799.010986328125,784.5054931640625,782.4908447265625,780.879150390625
1304,794.5787353515625,788.1318969726562,782.893798828125,784.908447265625
1305,788.1318969726562,788.1318969726562,785.7142944335938,778.8644409179688
1306,787.7289428710938,790.5494384765625,788.937744140625,778.05859375
1307,791.3552856445312,788.937744140625,792.967041015625,780.4761962890625
1308,789.3406372070312,790.1465454101562,794.5787353515625,780.879150390625
1309,790.952392578125,793.3699340820312,792.967041015625,780.879150390625
1310,795.7875366210938,791.7582397460938,789.3406372070312,781.6849975585938
1311,790.952392578125,788.937744140625,788.5347900390625,783.2966918945312
1312,788.937744140625,788.1318969726562,794.1758422851562,791.3552856445312
1313,793.3699340820312,793.7728881835938,792.1611938476562,790.1465454101562
1314,796.5933837890625,798.2051391601562,789.7435913085938,788.1318969726562
1315,797.8021850585938,793.7728881835938,792.1611938476562,789.3406372070312
1316,794.981689453125,788.1318969726562,790.5494384765625,782.4908447265625
1317,796.1904907226562,792.1611938476562,792.5640869140625,783.6996459960938
1318,792.967041015625,796.1904907226562,796.996337890625,788.1318969726562
1319,797.8021850585938,792.5640869140625,797.8021850585938,792.967041015625
1320,793.7728881835938,792.967041015625,798.2051391601562,790.1465454101562
1321,785.7142944335938,790.952392578125,795.7875366210938,780.0732421875
1322,793.3699340820312,792.1611938476562,791.7582397460938,782.893798828125
1323,796.1904907226562,794.1758422851562,792.1611938476562,793.7728881835938
1324,793.3699340820312,788.937744140625,795.3846435546875,791.3552856445312
1325,790.952392578125,786.923095703125,797.3992919921875,789.3406372070312
1326,786.1171875,790.1465454101562,796.1904907226562,790.1465454101562
1327,788.5347900390625,789.3406372070312,794.5787353515625,785.3113403320312
1328,790.5494384765625,786.923095703125,795.7875366210938,787.7289428710938
1329,787.7289428710938,787.7289428710938,795.3846435546875,783.6996459960938
1330,782.893798828125,789.3406372070312,795.3846435546875,777.6557006835938
1331,781.6849975585938,792.1611938476562,797.3992919921875,784.1025390625
1332,787.3259887695312,794.5787353515625,801.4285888671875,793.3699340820312
1333,790.952392578125,795.3846435546875,805.054931640625,793.7728881835938
1334,795.3846435546875,796.5933837890625,804.2490844726562,798.2051391601562
1335,794.1758422851562,793.7728881835938,802.2344360351562,797.3992919921875
1336,790.952392578125,794.1758422851562,803.4432373046875,796.1904907226562
1337,788.1318969726562,790.1465454101562,797.8021850585938,789.7435913085938
1338,787.3259887695312,785.7142944335938,792.5640869140625,789.7435913085938
1339,792.967041015625,792.1611938476562,796.1904907226562,792.1611938476562
1340,794.981689453125,794.5787353515625,797.8021850585938,784.1025390625
1341,788.5347900390625,790.952392578125,799.010986328125,784.1025390625
1342,784.908447265625,787.3259887695312,794.981689453125,787.3259887695312
1343,791.7582397460938,786.5201416015625,793.3699340820312,791.7582397460938
1344,801.025634765625,789.7435913085938,799.010986328125,798.2051391601562
1345,797.3992919921875,789.3406372070312,797.8021850585938,796.5933837890625
1346,798.2051391601562,790.952392578125,794.1758422851562,794.5787353515625
1347,804.2490844726562,794.981689453125,799.010986328125,795.7875366210938
1348,806.6666870117188,799.8168334960938,803.4432373046875,795.3846435546875
1349,809.4871826171875,805.4578857421875,801.4285888671875,799.010986328125
1350,805.8607788085938,803.4432373046875,800.6226806640625,801.8314819335938
1351,798.2051391601562,797.8021850585938,799.4139404296875,793.3699340820312
1352,794.1758422851562,796.996337890625,793.3699340820312,784.1025390625
1353,789.3406372070312,793.3699340820312,791.7582397460938,777.2527465820312
1354,794.1758422851562,794.5787353515625,795.7875366210938,778.8644409179688
1355,795.7875366210938,793.3699340820312,796.1904907226562,778.4615478515625
1356,786.923095703125,790.5494384765625,794.1758422851562,774.029296875
1357,785.7142944335938,791.7582397460938,792.967041015625,785.7142944335938
1358,790.5494384765625,787.7289428710938,798.2051391601562,800.6226806640625
1359,797.3992919921875,783.6996459960938,803.040283203125,804.2490844726562
1360,796.1904907226562,782.893798828125,802.6373901367188,792.967041015625
1361,781.2820434570312,785.7142944335938,796.5933837890625,778.4615478515625
1362,782.893798828125,789.3406372070312,792.1611938476562,786.1171875
1363,788.5347900390625,795.7875366210938,792.5640869140625,785.3113403320312
1364,786.1171875,798.2051391601562,788.5347900390625,776.8497924804688
1365,786.5201416015625,796.5933837890625,788.1318969726562,779.6703491210938
1366,785.7142944335938,790.5494384765625,789.3406372070312,781.2820434570312
1367,786.1171875,790.1465454101562,788.5347900390625,778.4615478515625
1368,791.7582397460938,792.5640869140625,790.1465454101562,780.879150390625
1369,793.3699340820312,793.3699340820312,789.3406372070312,783.6996459960938
1370,793.3699340820312,792.5640869140625,796.1904907226562,787.7289428710938
1371,794.1758422851562,793.3699340820312,796.5933837890625,786.5201416015625
1372,786.923095703125,794.5787353515625,795.3846435546875,783.6996459960938
1373,784.1025390625,790.5494384765625,799.8168334960938,789.7435913085938
1374,786.5201416015625,790.1465454101562,794.1758422851562,793.3699340820312
1375,784.908447265625,789.3406372070312,793.3699340820312,788.5347900390625
1376,787.7289428710938,790.5494384765625,796.1904907226562,783.6996459960938
1377,782.893798828125,793.3699340820312,794.1758422851562,780.0732421875
1378,776.8497924804688,789.7435913085938,791.7582397460938,776.8497924804688
1379,780.4761962890625,784.908447265625,790.952392578125,782.087890625
1380,784.908447265625,783.2966918945312,789.7435913085938,787.3259887695312
1381,780.879150390625,787.7289428710938,787.3259887695312,786.5201416015625
1382,782.4908447265625,791.7582397460938,788.937744140625,786.923095703125
1383,783.6996459960938,791.3552856445312,789.3406372070312,783.6996459960938
1384,781.2820434570312,792.967041015625,789.3406372070312,784.908447265625
1385,788.937744140625,797.3992919921875,791.3552856445312,792.967041015625
1386,791.7582397460938,795.7875366210938,796.5933837890625,787.7289428710938
1387,788.5347900390625,798.6080322265625,800.2197875976562,783.6996459960938
1388,790.5494384765625,796.996337890625,797.8021850585938,784.1025390625
1389,795.3846435546875,792.1611938476562,797.3992919921875,785.3113403320312
1390,786.923095703125,794.1758422851562,792.5640869140625,778.4615478515625
1391,780.0732421875,792.1611938476562,786.923095703125,774.8351440429688
1392,782.087890625,792.967041015625,788.937744140625,778.4615478515625
1393,784.908447265625,794.5787353515625,793.7728881835938,780.0732421875
1394,783.2966918945312,792.967041015625,788.1318969726562,780.0732421875
1395,776.8497924804688,788.937744140625,783.6996459960938,779.2673950195312
1396,779.6703491210938,788.937744140625,782.893798828125,781.6849975585938
1397,785.3113403320312,790.952392578125,784.1025390625,780.4761962890625
1398,781.2820434570312,787.7289428710938,786.5201416015625,775.2380981445312
1399,786.5201416015625,790.952392578125,788.1318969726562,781.6849975585938
1400,794.1758422851562,796.1904907226562,792.1611938476562,785.3113403320312
1401,785.7142944335938,794.1758422851562,793.7728881835938,780.0732421875
1402,776.4468994140625,792.1611938476562,790.5494384765625,774.8351440429688
1403,776.8497924804688,792.1611938476562,789.3406372070312,778.4615478515625
1404,776.4468994140625,791.3552856445312,788.1318969726562,781.6849975585938
1405,777.2527465820312,783.6996459960938,784.1025390625,774.8351440429688
1406,778.8644409179688,781.6849975585938,787.3259887695312,774.4322509765625
1407,782.4908447265625,788.1318969726562,791.3552856445312,778.8644409179688
1408,784.908447265625,788.937744140625,792.5640869140625,784.5054931640625
1409,780.4761962890625,790.952392578125,794.981689453125,778.8644409179688
1410,787.3259887695312,795.3846435546875,791.3552856445312,774.4322509765625
1411,792.967041015625,794.1758422851562,790.1465454101562,778.4615478515625
1412,788.5347900390625,795.7875366210938,788.1318969726562,779.6703491210938
1413,783.2966918945312,796.996337890625,785.7142944335938,784.5054931640625
1414,786.5201416015625,792.967041015625,786.1171875,787.7289428710938
1415,796.996337890625,792.1611938476562,787.3259887695312,786.923095703125
1416,799.8168334960938,794.5787353515625,792.1611938476562,784.1025390625
1417,799.010986328125,798.6080322265625,792.967041015625,780.879150390625
1418,799.010986328125,800.6226806640625,794.5787353515625,782.4908447265625
1419,800.6226806640625,799.4139404296875,796.996337890625,789.3406372070312
1420,800.2197875976562,797.8021850585938,794.5787353515625,789.3406372070312
1421,802.6373901367188,801.4285888671875,791.3552856445312,785.7142944335938
1422,800.2197875976562,806.6666870117188,792.1611938476562,791.3552856445312
1423,792.967041015625,802.6373901367188,794.1758422851562,795.7875366210938
1424,793.3699340820312,800.2197875976562,797.3992919921875,795.3846435546875
1425,796.5933837890625,802.2344360351562,794.5787353515625,790.952392578125
1426,799.8168334960938,798.2051391601562,795.7875366210938,789.7435913085938
1427,799.4139404296875,798.2051391601562,802.2344360351562,792.967041015625
1428,799.4139404296875,797.8021850585938,799.8168334960938,794.5787353515625
1429,803.8461303710938,793.7728881835938,794.1758422851562,793.3699340820312
1430,811.098876953125,791.7582397460938,801.8314819335938,800.2197875976562
1431,808.2783813476562,788.937744140625,801.8314819335938,804.2490844726562
1432,795.7875366210938,793.7728881835938,786.5201416015625,790.5494384765625
1433,792.5640869140625,799.8168334960938,790.952392578125,778.05859375
1434,792.1611938476562,801.8314819335938,801.025634765625,780.4761962890625
1435,787.3259887695312,799.010986328125,794.981689453125,781.2820434570312
1436,789.3406372070312,792.967041015625,794.1758422851562,775.6410522460938
1437,792.1611938476562,795.7875366210938,795.7875366210938,775.6410522460938
1438,791.7582397460938,798.2051391601562,795.3846435546875,776.0439453125
1439,792.5640869140625,798.2051391601562,795.7875366210938,783.6996459960938
1440,791.3552856445312,797.3992919921875,797.3992919921875,786.5201416015625
1441,792.1611938476562,794.981689453125,799.010986328125,789.7435913085938
1442,794.1758422851562,792.967041015625,801.025634765625,796.1904907226562
1443,789.7435913085938,789.3406372070312,802.2344360351562,795.3846435546875
1444,784.5054931640625,791.3552856445312,799.010986328125,792.967041015625
1445,784.908447265625,792.967041015625,793.3699340820312,786.1171875
1446,789.3406372070312,792.1611938476562,793.7728881835938,790.5494384765625
1447,795.3846435546875,791.3552856445312,797.3992919921875,792.967041015625
1448,793.7728881835938,791.7582397460938,799.010986328125,790.5494384765625
1449,788.5347900390625,792.1611938476562,796.996337890625,790.952392578125
1450,787.7289428710938,791.3552856445312,796.996337890625,787.7289428710938
1451,788.937744140625,792.967041015625,796.996337890625,790.5494384765625
1452,786.1171875,790.952392578125,793.7728881835938,793.7728881835938
1453,785.7142944335938,786.1171875,792.5640869140625,789.7435913085938
1454,785.7142944335938,787.3259887695312,792.967041015625,788.937744140625
1455,785.3113403320312,788.937744140625,790.1465454101562,788.1318969726562
1456,791.3552856445312,789.7435913085938,789.3406372070312,785.3113403320312
1457,803.8461303710938,791.3552856445312,797.8021850585938,797.3992919921875
1458,799.4139404296875,790.5494384765625,798.2051391601562,807.87548828125
1459,791.7582397460938,794.1758422851562,795.3846435546875,798.6080322265625
1460,797.8021850585938,795.3846435546875,792.1611938476562,794.1758422851562
1461,799.8168334960938,789.7435913085938,795.3846435546875,795.7875366210938
1462,793.3699340820312,784.5054931640625,793.7728881835938,796.1904907226562
1463,785.3113403320312,782.4908447265625,792.5640869140625,794.981689453125
1464,784.5054931640625,789.3406372070312,795.3846435546875,785.3113403320312
1465,788.937744140625,796.996337890625,794.1758422851562,782.4908447265625
1466,789.7435913085938,795.7875366210938,793.7728881835938,786.5201416015625
1467,796.996337890625,794.981689453125,794.1758422851562,792.967041015625
1468,799.4139404296875,794.5787353515625,792.967041015625,796.996337890625
1469,797.3992919921875,789.3406372070312,789.3406372070312,798.2051391601562
1470,799.8168334960938,794.1758422851562,793.3699340820312,799.8168334960938
1471,801.025634765625,797.8021850585938,791.7582397460938,799.010986328125
1472,805.054931640625,790.952392578125,792.5640869140625,801.8314819335938
1473,786.1171875,783.2966918945312,793.7728881835938,791.3552856445312
1474,788.5347900390625,786.1171875,791.7582397460938,789.3406372070312
1475,790.5494384765625,791.7582397460938,796.1904907226562,787.3259887695312
1476,790.1465454101562,792.1611938476562,793.7728881835938,788.5347900390625
1477,788.937744140625,788.1318969726562,791.3552856445312,786.1171875
1478,790.952392578125,786.5201416015625,796.5933837890625,786.923095703125
1479,792.1611938476562,788.5347900390625,791.3552856445312,785.7142944335938
1480,792.5640869140625,790.952392578125,787.7289428710938,791.3552856445312
1481,792.1611938476562,792.967041015625,789.3406372070312,792.1611938476562
1482,797.3992919921875,792.1611938476562,786.923095703125,786.1171875
1483,796.1904907226562,790.952392578125,784.908447265625,784.908447265625
1484,798.6080322265625,792.967041015625,789.3406372070312,793.7728881835938
1485,804.6520385742188,792.5640869140625,791.7582397460938,793.3699340820312
1486,799.4139404296875,792.1611938476562,791.3552856445312,788.5347900390625
1487,798.6080322265625,793.3699340820312,793.3699340820312,782.4908447265625
1488,792.5640869140625,790.1465454101562,793.7728881835938,777.6557006835938
1489,788.937744140625,790.1465454101562,795.7875366210938,784.1025390625
1490,799.4139404296875,790.952392578125,796.5933837890625,790.1465454101562
1491,803.040283203125,788.937744140625,799.8168334960938,794.1758422851562
1492,790.952392578125,789.3406372070312,799.4139404296875,789.7435913085938
1493,783.2966918945312,791.3552856445312,794.1758422851562,779.6703491210938
1494,784.5054931640625,788.5347900390625,792.5640869140625,782.4908447265625
1495,782.4908447265625,786.1171875,790.5494384765625,785.3113403320312
1496,783.2966918945312,785.3113403320312,786.1171875,786.923095703125
1497,785.3113403320312,784.908447265625,784.5054931640625,786.5201416015625
1498,779.6703491210938,782.4908447265625,786.5201416015625,783.6996459960938
1499,782.4908447265625,780.879150390625,787.3259887695312,790.5494384765625
1500,784.1025390625,782.4908447265625,789.3406372070312,794.5787353515625
1501,786.1171875,785.3113403320312,791.7582397460938,787.3259887695312
1502,794.5787353515625,781.2820434570312,793.7728881835938,787.3259887695312
1503,793.3699340820312,781.2820434570312,791.7582397460938,792.967041015625
1504,792.1611938476562,788.1318969726562,790.5494384765625,795.7875366210938
1505,795.7875366210938,788.937744140625,793.7728881835938,797.8021850585938
1506,792.5640869140625,785.3113403320312,790.952392578125,794.5787353515625
1507,793.3699340820312,779.6703491210938,787.3259887695312,790.952392578125
1508,792.1611938476562,782.4908447265625,792.5640869140625,784.5054931640625
1509,795.3846435546875,787.7289428710938,795.3846435546875,781.6849975585938
1510,801.4285888671875,788.1318969726562,794.5787353515625,788.1318969726562
1511,801.025634765625,801.8314819335938,793.3699340820312,792.967041015625
1512,799.010986328125,806.2637329101562,790.5494384765625,789.3406372070312
1513,795.7875366210938,794.1758422851562,792.967041015625,786.5201416015625
1514,788.1318969726562,795.3846435546875,799.010986328125,784.1025390625
1515,789.3406372070312,798.6080322265625,807.069580078125,787.7289428710938
1516,781.2820434570312,788.5347900390625,798.6080322265625,775.6410522460938
1517,763.9560546875,784.5054931640625,799.8168334960938,768.7911987304688
1518,775.2380981445312,788.1318969726562,816.7399291992188,792.967041015625
1519,779.6703491210938,798.6080322265625,823.1868286132812,796.996337890625
1520,749.8534545898438,800.2197875976562,814.3223266601562,760.7326049804688
1521,721.6483764648438,799.010986328125,811.5018310546875,726.08056640625
1522,710.7692260742188,808.2783813476562,824.7985229492188,713.99267578125
1523,697.069580078125,807.4725341796875,834.8717651367188,704.3223266601562
1524,674.1025390625,796.1904907226562,830.03662109375,683.7728881835938
1525,663.2234497070312,809.084228515625,827.6190185546875,670.0732421875
1526,651.5384521484375,813.5164794921875,830.4395751953125,654.7619018554688
1527,637.4359130859375,811.5018310546875,830.03662109375,635.018310546875
1528,620.10986328125,813.5164794921875,842.12451171875,619.3040161132812
1529,602.3809814453125,810.6959838867188,848.5714111328125,611.6483764648438
1530,601.97802734375,809.4871826171875,841.7216186523438,620.5128173828125
1531,606.4102783203125,808.2783813476562,842.930419921875,621.7216186523438
1532,603.1868286132812,818.3516235351562,844.5421142578125,607.6190185546875
1533,597.1428833007812,816.3369750976562,842.5274658203125,597.5457763671875
1534,593.5164794921875,807.069580078125,836.4835205078125,594.7252807617188
1535,601.5750732421875,814.3223266601562,834.06591796875,606.00732421875
1536,619.7069702148438,814.3223266601562,834.4688720703125,625.3479614257812
1537,628.1685180664062,815.93408203125,834.8717651367188,629.3773193359375
1538,614.06591796875,814.3223266601562,827.6190185546875,619.7069702148438
1539,610.4395751953125,805.054931640625,820.7692260742188,622.12451171875
1540,626.5567626953125,804.6520385742188,823.1868286132812,636.2271118164062
1541,641.8681030273438,811.90478515625,827.2161254882812,657.5823974609375
1542,643.8828125,811.098876953125,818.7545776367188,668.4615478515625
1543,641.8681030273438,805.8607788085938,807.069580078125,656.3735961914062
1544,649.9267578125,803.040283203125,805.054931640625,657.5823974609375
1545,664.029296875,803.4432373046875,809.4871826171875,673.2966918945312
1546,672.087890625,805.4578857421875,811.098876953125,678.5347900390625
1547,682.1611938476562,806.2637329101562,808.2783813476562,690.2197875976562
1548,782.893798828125,809.89013671875,806.6666870117188,780.879150390625
1549,800.2197875976562,808.2783813476562,805.4578857421875,792.967041015625
1550,811.90478515625,805.4578857421875,805.054931640625,803.8461303710938
1551,810.2930297851562,798.2051391601562,795.3846435546875,803.8461303710938
1552,815.5311279296875,792.5640869140625,781.6849975585938,810.6959838867188
1553,826.4102783203125,789.3406372070312,785.3113403320312,825.6043701171875
1554,829.2307739257812,790.952392578125,784.908447265625,829.2307739257812
1555,848.974365234375,791.3552856445312,775.6410522460938,849.7802124023438
1556,855.4212646484375,788.5347900390625,780.0732421875,852.6007080078125
1557,846.959716796875,792.1611938476562,778.4615478515625,835.6776733398438
1558,855.8241577148438,790.1465454101562,773.6264038085938,847.3626098632812
1559,866.7033081054688,788.937744140625,777.2527465820312,858.2417602539062
1560,869.5238037109375,790.952392578125,772.8204956054688,864.2857055664062
1561,875.1648559570312,788.937744140625,769.5970458984375,867.912109375
1562,876.3735961914062,782.893798828125,773.2234497070312,864.2857055664062
1563,880.0,788.1318969726562,775.6410522460938,870.3296508789062
1564,889.2673950195312,793.7728881835938,776.0439453125,878.7911987304688
1565,882.8204956054688,788.1318969726562,771.6116943359375,869.5238037109375
1566,878.3883056640625,784.5054931640625,764.7619018554688,863.8828125
1567,884.029296875,784.908447265625,761.1355590820312,877.1795043945312
1568,886.0439453125,783.2966918945312,763.5531005859375,883.6264038085938
1569,882.8204956054688,782.893798828125,763.1502075195312,869.5238037109375
1570,882.0146484375,783.6996459960938,760.3296508789062,863.4798583984375
1571,884.4322509765625,781.2820434570312,764.7619018554688,875.5677490234375
1572,890.4761962890625,778.4615478515625,763.9560546875,884.029296875
1573,895.7142944335938,778.4615478515625,757.5091552734375,882.0146484375
1574,891.2820434570312,779.6703491210938,756.7033081054688,880.8058471679688
1575,886.8497924804688,782.4908447265625,758.3150024414062,879.5970458984375
1576,886.4468994140625,784.1025390625,758.7179565429688,875.970703125
1577,888.05859375,782.4908447265625,760.3296508789062,877.1795043945312
1578,886.0439453125,781.2820434570312,763.9560546875,874.7619018554688
1579,890.4761962890625,786.5201416015625,771.2088012695312,877.5823974609375
1580,889.2673950195312,786.5201416015625,772.8204956054688,871.1355590820312
1581,881.2088012695312,787.7289428710938,774.4322509765625,859.4505615234375
1582,880.0,792.1611938476562,776.0439453125,864.6886596679688
1583,881.6116943359375,794.981689453125,778.8644409179688,868.7179565429688
1584,878.3883056640625,791.3552856445312,779.2673950195312,859.047607421875
