timestamp,RAW_TP9,RAW_AF7,RAW_AF8,RAW_TP10
1,797.3992919921875,796.1904907226562,804.2490844726562,799.8168334960938
2,794.1758422851562,797.3992919921875,806.2637329101562,801.8314819335938
3,802.6373901367188,796.5933837890625,809.4871826171875,813.91943359375
4,805.054931640625,798.6080322265625,808.2783813476562,814.7252807617188
5,796.996337890625,798.2051391601562,808.2783813476562,805.8607788085938
6,799.8168334960938,797.8021850585938,808.6813354492188,800.6226806640625
7,814.7252807617188,799.8168334960938,806.6666870117188,808.6813354492188
8,816.7399291992188,801.4285888671875,809.084228515625,805.054931640625
9,810.2930297851562,800.2197875976562,811.90478515625,800.2197875976562
10,807.4725341796875,796.1904907226562,807.069580078125,808.6813354492188
11,809.084228515625,794.981689453125,805.054931640625,809.4871826171875
12,808.6813354492188,796.996337890625,806.2637329101562,812.3076782226562
13,804.2490844726562,799.010986328125,806.6666870117188,807.87548828125
14,801.8314819335938,798.2051391601562,807.069580078125,806.6666870117188
15,803.040283203125,795.7875366210938,804.6520385742188,813.5164794921875
16,804.2490844726562,796.996337890625,805.054931640625,808.6813354492188
17,800.2197875976562,796.1904907226562,804.6520385742188,799.010986328125
18,795.3846435546875,791.3552856445312,805.054931640625,798.6080322265625
19,797.8021850585938,789.7435913085938,799.4139404296875,806.6666870117188
20,805.8607788085938,796.996337890625,800.2197875976562,809.4871826171875
21,807.4725341796875,800.6226806640625,805.054931640625,805.4578857421875
22,805.4578857421875,798.6080322265625,804.6520385742188,805.054931640625
23,798.6080322265625,800.2197875976562,803.4432373046875,807.87548828125
24,801.4285888671875,799.8168334960938,809.084228515625,809.4871826171875
25,803.4432373046875,795.7875366210938,812.7106323242188,807.87548828125
26,797.3992919921875,794.981689453125,809.89013671875,803.8461303710938
27,799.010986328125,795.3846435546875,808.2783813476562,803.4432373046875
28,799.8168334960938,794.1758422851562,809.084228515625,803.040283203125
29,796.996337890625,794.1758422851562,806.2637329101562,796.996337890625
30,796.5933837890625,792.967041015625,801.025634765625,799.010986328125
31,796.5933837890625,794.1758422851562,801.025634765625,803.8461303710938
32,796.5933837890625,799.010986328125,806.2637329101562,802.6373901367188
33,804.2490844726562,797.3992919921875,802.2344360351562,808.6813354492188
34,801.4285888671875,796.1904907226562,801.025634765625,805.054931640625
35,796.996337890625,797.3992919921875,803.8461303710938,795.7875366210938
36,801.4285888671875,795.7875366210938,802.2344360351562,797.8021850585938
37,802.2344360351562,791.3552856445312,803.4432373046875,798.2051391601562
38,802.2344360351562,790.952392578125,803.8461303710938,798.6080322265625
39,801.4285888671875,792.967041015625,801.4285888671875,804.2490844726562
40,794.5787353515625,796.1904907226562,800.6226806640625,799.8168334960938
41,788.5347900390625,797.3992919921875,804.2490844726562,797.3992919921875
42,790.5494384765625,788.937744140625,803.4432373046875,804.6520385742188
43,794.1758422851562,786.1171875,801.4285888671875,799.4139404296875
44,794.5787353515625,787.3259887695312,801.4285888671875,793.7728881835938
45,796.996337890625,790.1465454101562,800.6226806640625,792.5640869140625
46,792.1611938476562,792.1611938476562,803.040283203125,786.923095703125
47,797.3992919921875,794.1758422851562,801.025634765625,792.967041015625
48,803.040283203125,794.1758422851562,801.8314819335938,803.4432373046875
49,802.6373901367188,794.5787353515625,806.6666870117188,806.2637329101562
50,808.2783813476562,796.1904907226562,805.8607788085938,804.6520385742188
51,805.054931640625,797.3992919921875,804.6520385742188,803.8461303710938
52,794.981689453125,791.7582397460938,803.040283203125,799.8168334960938
53,800.2197875976562,787.7289428710938,802.2344360351562,804.2490844726562
54,803.8461303710938,793.3699340820312,801.025634765625,810.6959838867188
55,801.4285888671875,796.5933837890625,802.6373901367188,809.084228515625
56,804.2490844726562,796.1904907226562,802.2344360351562,808.2783813476562
57,799.8168334960938,794.1758422851562,797.8021850585938,802.6373901367188
58,801.025634765625,794.5787353515625,806.2637329101562,800.6226806640625
59,803.4432373046875,795.3846435546875,808.6813354492188,800.2197875976562
60,801.4285888671875,794.5787353515625,799.4139404296875,801.025634765625
61,797.3992919921875,794.1758422851562,796.1904907226562,797.3992919921875
62,786.5201416015625,792.5640869140625,798.2051391601562,789.3406372070312
63,787.3259887695312,794.1758422851562,803.040283203125,799.8168334960938
64,793.7728881835938,791.3552856445312,802.6373901367188,805.8607788085938
65,797.8021850585938,788.5347900390625,806.2637329101562,811.098876953125
66,796.1904907226562,792.1611938476562,807.87548828125,809.89013671875
67,794.981689453125,792.967041015625,803.040283203125,800.6226806640625
68,795.3846435546875,794.5787353515625,805.4578857421875,803.4432373046875
69,802.6373901367188,791.3552856445312,813.91943359375,812.3076782226562
70,813.113525390625,784.5054931640625,816.7399291992188,821.97802734375
71,809.4871826171875,795.7875366210938,809.4871826171875,819.1575317382812
72,803.8461303710938,804.2490844726562,801.4285888671875,807.4725341796875
73,805.054931640625,806.2637329101562,804.2490844726562,802.2344360351562
74,799.4139404296875,806.2637329101562,804.2490844726562,793.7728881835938
75,793.7728881835938,803.4432373046875,799.010986328125,790.952392578125
76,805.054931640625,807.069580078125,798.6080322265625,809.4871826171875
77,812.3076782226562,811.5018310546875,796.5933837890625,818.3516235351562
78,805.8607788085938,810.6959838867188,796.996337890625,804.2490844726562
79,803.040283203125,804.6520385742188,801.4285888671875,801.4285888671875
80,802.6373901367188,805.054931640625,803.4432373046875,804.2490844726562
81,808.2783813476562,805.8607788085938,805.4578857421875,807.87548828125
82,807.4725341796875,804.2490844726562,804.6520385742188,807.87548828125
83,800.6226806640625,803.040283203125,801.8314819335938,804.6520385742188
84,803.8461303710938,799.8168334960938,798.2051391601562,809.4871826171875
85,803.040283203125,801.4285888671875,799.4139404296875,809.4871826171875
86,796.996337890625,803.040283203125,800.6226806640625,803.040283203125
87,799.4139404296875,798.6080322265625,799.010986328125,801.8314819335938
88,802.2344360351562,798.6080322265625,800.2197875976562,811.5018310546875
89,802.2344360351562,801.8314819335938,803.040283203125,810.2930297851562
90,803.040283203125,798.6080322265625,800.6226806640625,801.4285888671875
91,802.6373901367188,800.2197875976562,799.010986328125,803.8461303710938
92,801.025634765625,804.2490844726562,799.010986328125,804.6520385742188
93,801.8314819335938,800.6226806640625,801.025634765625,801.025634765625
94,802.2344360351562,798.6080322265625,806.2637329101562,799.8168334960938
95,796.1904907226562,799.4139404296875,799.8168334960938,796.996337890625
96,793.3699340820312,796.5933837890625,792.5640869140625,792.5640869140625
97,796.5933837890625,794.981689453125,793.3699340820312,793.3699340820312
98,795.3846435546875,798.2051391601562,792.5640869140625,794.1758422851562
99,796.996337890625,795.7875366210938,791.7582397460938,796.996337890625
100,803.040283203125,792.1611938476562,794.1758422851562,796.5933837890625
101,798.2051391601562,794.981689453125,799.4139404296875,789.3406372070312
102,792.967041015625,795.7875366210938,799.8168334960938,789.7435913085938
103,796.996337890625,794.1758422851562,792.967041015625,802.2344360351562
104,800.2197875976562,799.010986328125,793.3699340820312,805.8607788085938
105,800.2197875976562,798.2051391601562,798.6080322265625,801.8314819335938
106,792.5640869140625,790.5494384765625,797.8021850585938,802.2344360351562
107,790.952392578125,793.3699340820312,797.3992919921875,803.4432373046875
108,795.7875366210938,796.1904907226562,798.2051391601562,797.8021850585938
109,794.1758422851562,797.3992919921875,799.8168334960938,801.4285888671875
110,796.996337890625,799.010986328125,801.025634765625,805.8607788085938
111,801.025634765625,793.7728881835938,801.025634765625,803.8461303710938
112,801.4285888671875,793.3699340820312,800.6226806640625,805.4578857421875
113,796.5933837890625,797.8021850585938,799.8168334960938,805.4578857421875
114,796.996337890625,796.996337890625,801.8314819335938,801.4285888671875
115,799.4139404296875,792.967041015625,803.8461303710938,806.6666870117188
116,791.3552856445312,795.3846435546875,800.6226806640625,802.6373901367188
117,792.5640869140625,795.7875366210938,798.6080322265625,793.3699340820312
118,795.7875366210938,792.5640869140625,797.3992919921875,798.2051391601562
119,792.1611938476562,794.981689453125,795.3846435546875,796.1904907226562
120,789.7435913085938,794.981689453125,798.2051391601562,793.7728881835938
121,786.923095703125,791.7582397460938,799.4139404296875,795.3846435546875
122,787.7289428710938,788.5347900390625,802.2344360351562,796.996337890625
123,790.1465454101562,789.3406372070312,801.025634765625,797.8021850585938
124,796.5933837890625,790.952392578125,796.5933837890625,794.5787353515625
125,803.8461303710938,793.3699340820312,799.8168334960938,796.996337890625
126,804.2490844726562,792.5640869140625,803.4432373046875,815.5311279296875
127,808.6813354492188,794.1758422851562,807.4725341796875,820.7692260742188
128,809.084228515625,794.1758422851562,808.2783813476562,807.069580078125
129,809.084228515625,793.3699340820312,808.2783813476562,812.7106323242188
130,811.5018310546875,794.981689453125,811.098876953125,829.6337280273438
131,800.6226806640625,794.981689453125,811.098876953125,823.1868286132812
132,795.3846435546875,796.1904907226562,813.5164794921875,819.96337890625
133,796.996337890625,794.1758422851562,813.113525390625,815.5311279296875
134,796.5933837890625,794.981689453125,809.4871826171875,808.2783813476562
135,800.6226806640625,794.981689453125,809.084228515625,810.6959838867188
136,800.6226806640625,794.1758422851562,812.3076782226562,811.90478515625
137,799.010986328125,794.5787353515625,808.2783813476562,809.89013671875
138,802.6373901367188,795.3846435546875,805.4578857421875,813.113525390625
139,800.6226806640625,796.996337890625,808.2783813476562,807.4725341796875
140,804.2490844726562,794.981689453125,808.2783813476562,798.2051391601562
141,805.8607788085938,800.6226806640625,808.2783813476562,803.040283203125
142,803.4432373046875,802.2344360351562,807.4725341796875,805.8607788085938
143,806.2637329101562,801.4285888671875,806.2637329101562,801.4285888671875
144,803.040283203125,801.025634765625,807.87548828125,795.3846435546875
145,801.025634765625,797.3992919921875,802.2344360351562,798.2051391601562
146,806.2637329101562,795.7875366210938,796.996337890625,806.6666870117188
147,808.6813354492188,792.5640869140625,801.025634765625,807.069580078125
148,808.6813354492188,792.1611938476562,803.040283203125,794.981689453125
149,809.084228515625,788.937744140625,801.4285888671875,798.6080322265625
150,805.054931640625,787.3259887695312,802.2344360351562,799.010986328125
151,804.6520385742188,792.1611938476562,803.8461303710938,794.5787353515625
152,806.6666870117188,790.952392578125,805.8607788085938,805.4578857421875
153,805.4578857421875,791.7582397460938,811.098876953125,815.93408203125
154,798.2051391601562,792.967041015625,807.4725341796875,816.3369750976562
155,801.4285888671875,793.3699340820312,811.098876953125,813.113525390625
156,804.6520385742188,794.981689453125,812.7106323242188,812.3076782226562
157,797.3992919921875,796.5933837890625,814.7252807617188,812.3076782226562
158,798.2051391601562,800.6226806640625,821.5750732421875,812.3076782226562
159,801.4285888671875,800.6226806640625,819.5604248046875,811.098876953125
160,803.8461303710938,796.996337890625,817.1428833007812,812.7106323242188
161,807.87548828125,795.7875366210938,813.91943359375,817.5457763671875
162,801.025634765625,797.3992919921875,809.89013671875,811.5018310546875
163,800.2197875976562,796.1904907226562,808.6813354492188,807.87548828125
164,802.2344360351562,794.1758422851562,809.084228515625,808.6813354492188
165,799.8168334960938,792.5640869140625,805.054931640625,800.2197875976562
166,798.6080322265625,792.967041015625,803.4432373046875,795.3846435546875
167,800.2197875976562,792.5640869140625,807.4725341796875,793.3699340820312
168,801.4285888671875,793.7728881835938,806.6666870117188,794.1758422851562
169,803.4432373046875,798.6080322265625,807.4725341796875,801.4285888671875
170,801.8314819335938,800.6226806640625,805.054931640625,798.2051391601562
171,803.4432373046875,800.2197875976562,806.6666870117188,802.2344360351562
172,804.6520385742188,801.4285888671875,810.6959838867188,811.5018310546875
173,802.2344360351562,802.2344360351562,810.2930297851562,806.2637329101562
174,802.6373901367188,794.981689453125,807.069580078125,802.2344360351562
175,802.2344360351562,793.7728881835938,813.113525390625,805.054931640625
176,799.010986328125,795.7875366210938,815.5311279296875,807.4725341796875
177,799.4139404296875,798.2051391601562,813.91943359375,811.5018310546875
178,797.8021850585938,795.7875366210938,817.5457763671875,810.6959838867188
179,791.3552856445312,791.7582397460938,815.93408203125,805.054931640625
180,795.7875366210938,790.5494384765625,813.113525390625,811.098876953125
181,796.5933837890625,793.3699340820312,809.89013671875,805.4578857421875
182,792.967041015625,796.5933837890625,807.4725341796875,796.1904907226562
183,794.5787353515625,796.5933837890625,808.6813354492188,800.2197875976562
184,796.1904907226562,798.2051391601562,814.3223266601562,803.040283203125
185,801.4285888671875,801.8314819335938,815.5311279296875,804.2490844726562
186,800.6226806640625,801.4285888671875,815.5311279296875,802.2344360351562
187,800.2197875976562,800.2197875976562,815.1282348632812,803.040283203125
188,801.8314819335938,799.010986328125,811.90478515625,809.084228515625
189,798.6080322265625,798.6080322265625,813.113525390625,800.2197875976562
190,797.8021850585938,792.967041015625,815.1282348632812,796.5933837890625
191,795.3846435546875,789.7435913085938,809.4871826171875,796.996337890625
192,793.7728881835938,792.967041015625,805.4578857421875,793.7728881835938
193,797.3992919921875,796.5933837890625,807.87548828125,793.7728881835938
194,795.3846435546875,799.010986328125,804.6520385742188,796.1904907226562
195,792.5640869140625,792.5640869140625,801.025634765625,803.8461303710938
196,801.8314819335938,796.1904907226562,804.6520385742188,807.069580078125
197,811.5018310546875,802.6373901367188,806.2637329101562,810.6959838867188
198,812.7106323242188,802.6373901367188,805.4578857421875,815.1282348632812
199,810.2930297851562,801.025634765625,807.4725341796875,824.3956298828125
200,807.87548828125,799.4139404296875,811.098876953125,824.7985229492188
201,803.8461303710938,799.4139404296875,809.084228515625,813.113525390625
202,800.2197875976562,796.1904907226562,807.4725341796875,809.4871826171875
203,799.4139404296875,793.7728881835938,802.2344360351562,808.2783813476562
204,804.6520385742188,794.1758422851562,802.2344360351562,801.8314819335938
205,813.91943359375,797.3992919921875,805.054931640625,803.8461303710938
206,810.6959838867188,795.7875366210938,805.4578857421875,805.8607788085938
207,805.4578857421875,792.1611938476562,804.6520385742188,808.2783813476562
208,809.084228515625,791.3552856445312,802.2344360351562,805.054931640625
209,806.2637329101562,792.1611938476562,805.054931640625,796.1904907226562
210,805.054931640625,796.1904907226562,806.2637329101562,797.8021850585938
211,810.6959838867188,797.3992919921875,804.2490844726562,809.4871826171875
212,811.098876953125,798.6080322265625,807.069580078125,805.8607788085938
213,810.6959838867188,798.2051391601562,805.8607788085938,799.010986328125
214,809.89013671875,794.1758422851562,804.6520385742188,795.7875366210938
215,805.054931640625,796.1904907226562,807.87548828125,798.2051391601562
216,801.4285888671875,799.4139404296875,805.054931640625,801.4285888671875
217,799.4139404296875,799.4139404296875,803.4432373046875,805.4578857421875
218,799.4139404296875,796.5933837890625,805.8607788085938,813.5164794921875
219,799.8168334960938,794.981689453125,805.4578857421875,807.069580078125
220,802.2344360351562,801.4285888671875,802.6373901367188,800.2197875976562
221,803.040283203125,805.8607788085938,806.2637329101562,801.4285888671875
222,803.040283203125,801.025634765625,809.084228515625,811.098876953125
223,801.4285888671875,799.4139404296875,810.2930297851562,818.3516235351562
224,799.8168334960938,800.6226806640625,808.6813354492188,808.2783813476562
225,799.010986328125,799.4139404296875,807.87548828125,805.054931640625
226,803.4432373046875,801.4285888671875,809.4871826171875,806.2637329101562
227,805.4578857421875,802.6373901367188,804.6520385742188,796.5933837890625
228,803.8461303710938,802.2344360351562,807.4725341796875,801.4285888671875
229,805.4578857421875,799.8168334960938,805.4578857421875,801.4285888671875
230,806.6666870117188,801.025634765625,803.4432373046875,795.7875366210938
231,808.6813354492188,804.2490844726562,806.2637329101562,798.6080322265625
232,807.069580078125,797.3992919921875,801.4285888671875,803.040283203125
233,805.054931640625,792.1611938476562,801.8314819335938,806.2637329101562
234,800.6226806640625,794.1758422851562,806.2637329101562,801.8314819335938
235,791.3552856445312,799.010986328125,806.2637329101562,786.1171875
236,794.5787353515625,799.4139404296875,803.8461303710938,787.3259887695312
237,799.8168334960938,797.3992919921875,802.2344360351562,799.4139404296875
238,797.3992919921875,800.2197875976562,801.8314819335938,802.2344360351562
239,794.981689453125,800.2197875976562,803.4432373046875,795.7875366210938
240,800.6226806640625,799.8168334960938,808.6813354492188,799.8168334960938
241,803.8461303710938,802.2344360351562,811.098876953125,810.2930297851562
242,800.6226806640625,799.8168334960938,811.098876953125,811.90478515625
243,804.6520385742188,797.3992919921875,813.113525390625,818.7545776367188
244,807.069580078125,796.5933837890625,806.2637329101562,814.3223266601562
245,801.8314819335938,794.1758422851562,805.8607788085938,809.89013671875
246,799.010986328125,795.7875366210938,807.87548828125,808.2783813476562
247,802.2344360351562,796.996337890625,806.6666870117188,802.6373901367188
248,807.069580078125,796.5933837890625,808.6813354492188,805.4578857421875
249,803.8461303710938,793.3699340820312,805.054931640625,807.069580078125
250,799.8168334960938,792.5640869140625,803.8461303710938,807.87548828125
251,802.2344360351562,792.5640869140625,802.6373901367188,805.8607788085938
252,804.2490844726562,790.1465454101562,803.4432373046875,809.4871826171875
253,804.6520385742188,794.981689453125,806.2637329101562,813.113525390625
254,806.6666870117188,802.6373901367188,804.2490844726562,814.3223266601562
255,808.2783813476562,799.4139404296875,804.2490844726562,811.90478515625
256,808.2783813476562,795.7875366210938,808.6813354492188,809.084228515625
257,809.4871826171875,790.952392578125,804.2490844726562,819.1575317382812
258,805.8607788085938,790.5494384765625,804.6520385742188,817.1428833007812
259,795.7875366210938,795.7875366210938,810.6959838867188,805.054931640625
260,795.7875366210938,797.8021850585938,808.2783813476562,802.2344360351562
261,796.5933837890625,796.996337890625,808.2783813476562,801.4285888671875
262,786.923095703125,794.981689453125,806.2637329101562,801.025634765625
263,788.5347900390625,798.2051391601562,805.8607788085938,803.4432373046875
264,798.6080322265625,803.040283203125,810.6959838867188,805.8607788085938
265,800.2197875976562,801.8314819335938,813.113525390625,799.8168334960938
266,801.025634765625,798.6080322265625,812.3076782226562,799.4139404296875
267,807.4725341796875,797.8021850585938,809.4871826171875,802.2344360351562
268,811.098876953125,793.7728881835938,803.4432373046875,801.4285888671875
269,814.3223266601562,792.5640869140625,805.8607788085938,804.2490844726562
270,813.113525390625,799.8168334960938,808.2783813476562,801.4285888671875
271,802.2344360351562,800.2197875976562,801.4285888671875,800.2197875976562
272,801.025634765625,795.7875366210938,800.2197875976562,802.2344360351562
273,802.6373901367188,796.5933837890625,807.4725341796875,798.2051391601562
274,803.4432373046875,797.8021850585938,804.2490844726562,799.4139404296875
275,805.8607788085938,797.8021850585938,805.054931640625,804.6520385742188
276,803.4432373046875,798.6080322265625,810.6959838867188,807.069580078125
277,801.4285888671875,798.2051391601562,805.8607788085938,803.040283203125
278,805.8607788085938,799.010986328125,806.6666870117188,805.054931640625
279,813.113525390625,801.4285888671875,810.2930297851562,812.3076782226562
280,810.6959838867188,796.996337890625,804.2490844726562,807.87548828125
281,804.2490844726562,796.5933837890625,801.8314819335938,801.8314819335938
282,799.8168334960938,798.6080322265625,802.2344360351562,802.2344360351562
283,798.6080322265625,797.8021850585938,807.87548828125,803.8461303710938
284,802.6373901367188,798.2051391601562,811.90478515625,806.2637329101562
285,801.4285888671875,795.3846435546875,809.89013671875,803.4432373046875
286,799.010986328125,793.7728881835938,807.4725341796875,804.2490844726562
287,803.040283203125,788.5347900390625,803.4432373046875,806.6666870117188
288,801.4285888671875,789.3406372070312,803.4432373046875,801.4285888671875
289,794.981689453125,793.7728881835938,807.4725341796875,793.3699340820312
290,797.8021850585938,793.7728881835938,808.2783813476562,795.3846435546875
291,802.2344360351562,795.7875366210938,803.8461303710938,806.2637329101562
292,804.6520385742188,793.7728881835938,803.8461303710938,805.054931640625
293,807.87548828125,795.3846435546875,806.2637329101562,807.4725341796875
294,810.2930297851562,797.8021850585938,807.87548828125,806.2637329101562
295,814.3223266601562,795.3846435546875,808.2783813476562,808.6813354492188
296,810.6959838867188,793.7728881835938,807.87548828125,815.93408203125
297,804.6520385742188,791.3552856445312,807.069580078125,808.6813354492188
298,806.2637329101562,794.1758422851562,807.4725341796875,808.2783813476562
299,809.084228515625,799.8168334960938,809.89013671875,818.7545776367188
300,800.2197875976562,796.5933837890625,810.2930297851562,813.113525390625
301,794.1758422851562,796.1904907226562,807.069580078125,801.8314819335938
302,801.4285888671875,795.7875366210938,808.6813354492188,807.87548828125
303,802.2344360351562,791.7582397460938,809.084228515625,807.87548828125
304,797.3992919921875,794.1758422851562,808.6813354492188,803.4432373046875
305,796.1904907226562,794.1758422851562,808.2783813476562,803.040283203125
306,801.8314819335938,792.967041015625,807.4725341796875,807.87548828125
307,805.4578857421875,794.1758422851562,810.6959838867188,819.1575317382812
308,800.2197875976562,795.7875366210938,812.3076782226562,808.6813354492188
309,800.6226806640625,792.1611938476562,815.93408203125,805.8607788085938
310,811.90478515625,795.3846435546875,816.3369750976562,810.2930297851562
311,818.7545776367188,798.2051391601562,813.113525390625,807.87548828125
312,811.5018310546875,801.025634765625,814.3223266601562,805.054931640625
313,806.2637329101562,803.4432373046875,811.90478515625,807.069580078125
314,813.5164794921875,802.2344360351562,812.7106323242188,816.7399291992188
315,815.5311279296875,799.010986328125,814.3223266601562,815.1282348632812
316,806.6666870117188,792.5640869140625,810.6959838867188,811.098876953125
317,807.069580078125,792.1611938476562,807.87548828125,811.098876953125
318,810.6959838867188,794.5787353515625,803.4432373046875,809.89013671875
319,804.2490844726562,796.996337890625,805.054931640625,807.4725341796875
320,802.6373901367188,801.8314819335938,805.8607788085938,803.040283203125
321,802.6373901367188,799.4139404296875,805.054931640625,807.87548828125
322,799.8168334960938,800.6226806640625,809.89013671875,809.89013671875
323,799.010986328125,801.8314819335938,813.113525390625,807.87548828125
324,800.6226806640625,797.3992919921875,808.6813354492188,810.6959838867188
325,802.2344360351562,796.996337890625,804.2490844726562,814.3223266601562
326,803.4432373046875,795.7875366210938,805.054931640625,817.5457763671875
327,802.2344360351562,796.1904907226562,803.8461303710938,814.7252807617188
328,800.6226806640625,789.3406372070312,802.6373901367188,803.4432373046875
329,801.8314819335938,791.3552856445312,805.8607788085938,806.6666870117188
330,805.4578857421875,795.7875366210938,809.4871826171875,817.5457763671875
331,808.6813354492188,797.3992919921875,809.89013671875,811.098876953125
332,803.8461303710938,798.6080322265625,808.6813354492188,803.8461303710938
333,801.025634765625,799.8168334960938,807.4725341796875,805.8607788085938
334,804.6520385742188,800.6226806640625,804.6520385742188,804.2490844726562
335,808.6813354492188,800.2197875976562,803.040283203125,800.2197875976562
336,808.2783813476562,796.5933837890625,807.4725341796875,800.2197875976562
337,810.2930297851562,792.5640869140625,811.098876953125,803.040283203125
338,810.2930297851562,793.3699340820312,807.4725341796875,801.025634765625
339,804.2490844726562,794.5787353515625,808.2783813476562,802.6373901367188
340,801.4285888671875,796.996337890625,813.5164794921875,803.4432373046875
341,806.2637329101562,798.6080322265625,814.7252807617188,809.89013671875
342,805.8607788085938,800.6226806640625,815.1282348632812,808.2783813476562
343,804.2490844726562,797.8021850585938,811.90478515625,803.4432373046875
344,804.6520385742188,787.3259887695312,809.084228515625,806.2637329101562
345,802.2344360351562,785.3113403320312,808.6813354492188,805.4578857421875
346,804.2490844726562,794.1758422851562,810.2930297851562,805.054931640625
347,805.054931640625,795.7875366210938,809.4871826171875,807.4725341796875
348,803.040283203125,792.5640869140625,810.2930297851562,806.2637329101562
349,801.8314819335938,790.5494384765625,805.4578857421875,811.098876953125
350,800.6226806640625,790.952392578125,803.4432373046875,807.069580078125
351,804.2490844726562,794.981689453125,803.040283203125,802.6373901367188
352,806.2637329101562,794.5787353515625,800.2197875976562,805.4578857421875
353,803.040283203125,789.7435913085938,802.6373901367188,807.87548828125
354,800.2197875976562,791.7582397460938,803.4432373046875,809.084228515625
355,798.2051391601562,794.1758422851562,804.6520385742188,803.040283203125
356,800.6226806640625,794.981689453125,809.4871826171875,802.6373901367188
357,803.4432373046875,795.7875366210938,813.113525390625,809.084228515625
358,801.8314819335938,792.1611938476562,812.7106323242188,803.8461303710938
359,801.025634765625,798.2051391601562,813.91943359375,801.8314819335938
360,801.025634765625,800.6226806640625,812.3076782226562,807.4725341796875
361,798.2051391601562,796.5933837890625,809.084228515625,805.4578857421875
362,799.4139404296875,796.5933837890625,807.87548828125,804.2490844726562
363,798.2051391601562,796.5933837890625,807.87548828125,806.2637329101562
364,797.3992919921875,792.1611938476562,805.054931640625,811.90478515625
365,793.7728881835938,788.937744140625,802.2344360351562,811.098876953125
366,794.5787353515625,793.3699340820312,801.025634765625,803.4432373046875
367,798.2051391601562,795.7875366210938,803.040283203125,802.6373901367188
368,798.2051391601562,793.7728881835938,803.8461303710938,804.6520385742188
369,791.7582397460938,795.7875366210938,803.040283203125,797.8021850585938
370,788.937744140625,795.3846435546875,805.4578857421875,796.996337890625
371,794.5787353515625,795.3846435546875,806.2637329101562,804.2490844726562
372,800.6226806640625,799.010986328125,806.2637329101562,801.4285888671875
373,796.996337890625,799.010986328125,805.8607788085938,801.8314819335938
374,790.5494384765625,797.3992919921875,805.054931640625,801.025634765625
375,793.3699340820312,797.3992919921875,809.89013671875,803.4432373046875
376,799.4139404296875,792.967041015625,813.113525390625,813.113525390625
377,791.3552856445312,792.1611938476562,809.4871826171875,803.040283203125
378,789.7435913085938,795.7875366210938,803.4432373046875,797.8021850585938
379,795.7875366210938,793.7728881835938,803.040283203125,805.8607788085938
380,796.996337890625,792.1611938476562,804.6520385742188,804.6520385742188
381,803.8461303710938,796.996337890625,802.6373901367188,803.4432373046875
382,804.2490844726562,799.8168334960938,803.4432373046875,805.4578857421875
383,798.2051391601562,794.981689453125,814.3223266601562,803.040283203125
384,799.8168334960938,794.5787353515625,817.5457763671875,800.2197875976562
385,801.4285888671875,799.010986328125,818.7545776367188,804.2490844726562
386,790.952392578125,798.6080322265625,820.7692260742188,801.4285888671875
387,794.1758422851562,794.981689453125,817.1428833007812,806.2637329101562
388,800.6226806640625,790.5494384765625,816.7399291992188,811.098876953125
389,799.8168334960938,790.1465454101562,816.3369750976562,810.2930297851562
390,802.2344360351562,794.1758422851562,813.91943359375,809.084228515625
391,809.084228515625,796.5933837890625,813.5164794921875,816.7399291992188
392,809.89013671875,797.8021850585938,816.3369750976562,817.1428833007812
393,807.069580078125,800.2197875976562,815.5311279296875,810.2930297851562
394,809.084228515625,792.5640869140625,809.89013671875,811.90478515625
395,814.7252807617188,792.5640869140625,812.7106323242188,809.084228515625
396,812.3076782226562,797.8021850585938,811.098876953125,804.6520385742188
397,810.6959838867188,798.6080322265625,809.4871826171875,809.084228515625
398,806.6666870117188,796.1904907226562,805.4578857421875,807.4725341796875
399,801.025634765625,791.3552856445312,801.025634765625,801.4285888671875
400,798.2051391601562,789.3406372070312,803.8461303710938,796.1904907226562
401,795.3846435546875,787.3259887695312,802.6373901367188,797.3992919921875
402,803.040283203125,785.7142944335938,808.6813354492188,804.6520385742188
403,807.4725341796875,788.5347900390625,812.3076782226562,808.2783813476562
404,799.010986328125,788.1318969726562,810.6959838867188,800.2197875976562
405,797.3992919921875,783.6996459960938,807.4725341796875,795.7875366210938
406,804.6520385742188,783.6996459960938,803.8461303710938,796.1904907226562
407,801.8314819335938,786.5201416015625,806.6666870117188,800.6226806640625
408,792.967041015625,784.1025390625,805.4578857421875,797.3992919921875
409,787.7289428710938,782.893798828125,801.8314819335938,792.5640869140625
410,791.3552856445312,788.5347900390625,801.4285888671875,803.4432373046875
411,791.7582397460938,791.3552856445312,801.4285888671875,809.4871826171875
412,787.7289428710938,790.1465454101562,799.4139404296875,799.010986328125
413,792.967041015625,789.7435913085938,797.3992919921875,795.7875366210938
414,796.1904907226562,787.3259887695312,799.4139404296875,802.6373901367188
415,789.7435913085938,784.5054931640625,804.2490844726562,806.2637329101562
416,787.7289428710938,786.1171875,801.8314819335938,796.1904907226562
417,795.7875366210938,787.3259887695312,803.040283203125,790.5494384765625
418,797.8021850585938,788.1318969726562,812.3076782226562,791.7582397460938
419,792.967041015625,792.5640869140625,811.90478515625,790.952392578125
420,791.3552856445312,793.3699340820312,806.6666870117188,792.967041015625
421,792.967041015625,788.5347900390625,806.2637329101562,797.3992919921875
422,795.3846435546875,790.5494384765625,812.3076782226562,801.025634765625
423,795.3846435546875,788.937744140625,811.098876953125,800.6226806640625
424,795.3846435546875,786.923095703125,804.6520385742188,796.996337890625
425,798.2051391601562,788.5347900390625,806.6666870117188,792.5640869140625
426,800.6226806640625,790.952392578125,806.6666870117188,796.996337890625
427,803.4432373046875,790.952392578125,806.6666870117188,797.3992919921875
428,809.084228515625,792.1611938476562,805.4578857421875,798.6080322265625
429,813.113525390625,797.3992919921875,803.4432373046875,801.025634765625
430,811.5018310546875,800.6226806640625,808.6813354492188,799.8168334960938
431,809.89013671875,804.2490844726562,810.2930297851562,801.8314819335938
432,808.2783813476562,804.2490844726562,809.084228515625,801.8314819335938
433,810.6959838867188,802.6373901367188,810.2930297851562,801.025634765625
434,810.6959838867188,801.4285888671875,811.90478515625,796.996337890625
435,806.2637329101562,800.2197875976562,813.113525390625,799.010986328125
436,807.87548828125,802.2344360351562,807.4725341796875,805.4578857421875
437,813.91943359375,801.025634765625,808.2783813476562,807.4725341796875
438,808.6813354492188,794.1758422851562,806.6666870117188,802.2344360351562
439,806.2637329101562,795.3846435546875,803.040283203125,802.6373901367188
440,811.5018310546875,799.8168334960938,809.084228515625,809.89013671875
441,804.2490844726562,793.7728881835938,811.5018310546875,809.084228515625
442,794.981689453125,791.3552856445312,805.4578857421875,806.2637329101562
443,799.4139404296875,796.996337890625,802.6373901367188,805.8607788085938
444,801.4285888671875,796.5933837890625,802.6373901367188,803.8461303710938
445,795.3846435546875,794.1758422851562,803.4432373046875,800.6226806640625
446,794.5787353515625,797.8021850585938,804.2490844726562,797.3992919921875
447,799.010986328125,795.7875366210938,804.2490844726562,799.010986328125
448,804.2490844726562,795.7875366210938,806.6666870117188,803.4432373046875
449,807.4725341796875,796.996337890625,805.8607788085938,814.3223266601562
450,799.8168334960938,796.996337890625,809.084228515625,806.2637329101562
451,798.2051391601562,798.6080322265625,810.6959838867188,790.952392578125
452,809.084228515625,800.6226806640625,809.084228515625,801.025634765625
453,815.5311279296875,801.8314819335938,812.3076782226562,815.1282348632812
454,814.3223266601562,800.2197875976562,814.7252807617188,816.7399291992188
455,814.3223266601562,798.2051391601562,813.113525390625,814.3223266601562
456,813.5164794921875,798.6080322265625,810.2930297851562,812.7106323242188
457,808.2783813476562,804.2490844726562,813.5164794921875,809.084228515625
458,804.6520385742188,803.8461303710938,814.3223266601562,807.4725341796875
459,803.040283203125,802.2344360351562,811.90478515625,809.084228515625
460,806.6666870117188,801.025634765625,807.069580078125,812.7106323242188
461,802.6373901367188,800.6226806640625,807.87548828125,815.1282348632812
462,793.7728881835938,802.2344360351562,809.084228515625,808.2783813476562
463,795.7875366210938,802.6373901367188,805.8607788085938,811.5018310546875
464,800.6226806640625,799.4139404296875,803.4432373046875,811.098876953125
465,800.2197875976562,798.6080322265625,806.2637329101562,808.2783813476562
466,802.2344360351562,800.6226806640625,811.5018310546875,808.6813354492188
467,803.4432373046875,801.4285888671875,811.5018310546875,809.084228515625
468,802.2344360351562,799.4139404296875,808.6813354492188,812.3076782226562
469,798.6080322265625,801.4285888671875,810.2930297851562,807.87548828125
470,798.6080322265625,805.054931640625,809.89013671875,807.87548828125
471,799.4139404296875,798.6080322265625,806.2637329101562,811.098876953125
472,801.4285888671875,793.3699340820312,807.069580078125,811.5018310546875
473,794.981689453125,794.1758422851562,807.069580078125,803.4432373046875
474,793.7728881835938,798.2051391601562,807.069580078125,801.8314819335938
475,799.4139404296875,801.8314819335938,810.2930297851562,812.3076782226562
476,794.981689453125,803.8461303710938,808.6813354492188,810.6959838867188
477,788.5347900390625,801.8314819335938,806.6666870117188,799.8168334960938
478,792.5640869140625,799.8168334960938,808.6813354492188,799.010986328125
479,798.2051391601562,798.6080322265625,812.3076782226562,799.4139404296875
480,798.2051391601562,798.2051391601562,809.4871826171875,798.2051391601562
481,794.981689453125,798.6080322265625,806.2637329101562,801.025634765625
482,795.3846435546875,799.4139404296875,809.89013671875,805.054931640625
483,795.7875366210938,798.2051391601562,811.098876953125,810.6959838867188
484,792.5640869140625,800.6226806640625,806.6666870117188,809.4871826171875
485,791.3552856445312,800.2197875976562,804.2490844726562,801.4285888671875
486,798.6080322265625,794.981689453125,807.069580078125,803.4432373046875
487,804.6520385742188,796.1904907226562,807.069580078125,811.5018310546875
488,799.8168334960938,796.5933837890625,808.2783813476562,803.4432373046875
489,799.4139404296875,799.010986328125,809.4871826171875,803.4432373046875
490,801.8314819335938,799.4139404296875,814.3223266601562,808.2783813476562
491,803.8461303710938,797.3992919921875,814.7252807617188,808.6813354492188
492,800.2197875976562,794.1758422851562,809.4871826171875,807.069580078125
493,794.5787353515625,788.1318969726562,803.8461303710938,806.6666870117188
494,800.2197875976562,788.937744140625,803.040283203125,813.113525390625
495,811.5018310546875,795.7875366210938,806.2637329101562,815.93408203125
496,812.3076782226562,797.3992919921875,807.069580078125,816.3369750976562
497,803.4432373046875,796.5933837890625,804.2490844726562,813.91943359375
498,802.2344360351562,794.1758422851562,805.054931640625,814.7252807617188
499,809.4871826171875,796.996337890625,809.4871826171875,821.5750732421875
500,810.6959838867188,806.2637329101562,812.7106323242188,818.3516235351562
501,805.054931640625,803.040283203125,810.2930297851562,811.90478515625
502,807.87548828125,800.2197875976562,807.069580078125,813.91943359375
503,812.3076782226562,799.010986328125,806.6666870117188,813.5164794921875
504,811.098876953125,794.981689453125,808.2783813476562,811.5018310546875
505,814.7252807617188,795.7875366210938,808.6813354492188,809.4871826171875
506,815.5311279296875,796.996337890625,809.4871826171875,811.098876953125
507,807.4725341796875,794.1758422851562,807.4725341796875,808.6813354492188
508,802.6373901367188,799.4139404296875,806.6666870117188,800.6226806640625
509,800.2197875976562,801.8314819335938,806.2637329101562,796.1904907226562
510,796.1904907226562,798.2051391601562,805.4578857421875,798.6080322265625
511,793.7728881835938,802.2344360351562,808.2783813476562,797.3992919921875
512,795.3846435546875,802.2344360351562,809.4871826171875,791.7582397460938
513,796.1904907226562,797.3992919921875,806.2637329101562,793.3699340820312
514,795.3846435546875,791.3552856445312,800.2197875976562,796.996337890625
515,796.1904907226562,796.1904907226562,803.4432373046875,803.8461303710938
516,798.2051391601562,801.4285888671875,806.2637329101562,801.025634765625
517,794.1758422851562,794.981689453125,803.4432373046875,796.996337890625
518,793.7728881835938,789.3406372070312,804.6520385742188,805.8607788085938
519,796.5933837890625,789.7435913085938,806.6666870117188,806.6666870117188
520,802.6373901367188,789.3406372070312,809.084228515625,810.2930297851562
521,814.7252807617188,788.937744140625,811.098876953125,822.3809814453125
522,812.3076782226562,791.3552856445312,807.87548828125,823.99267578125
523,794.981689453125,796.996337890625,806.6666870117188,805.054931640625
524,789.3406372070312,796.5933837890625,812.7106323242188,788.1318969726562
525,789.7435913085938,794.981689453125,811.5018310546875,789.3406372070312
526,792.5640869140625,793.7728881835938,809.084228515625,795.7875366210938
527,792.5640869140625,796.1904907226562,812.3076782226562,796.996337890625
528,790.1465454101562,797.8021850585938,809.084228515625,797.8021850585938
529,791.7582397460938,795.3846435546875,804.2490844726562,801.025634765625
530,792.1611938476562,788.937744140625,805.8607788085938,802.2344360351562
531,801.8314819335938,788.5347900390625,806.2637329101562,810.2930297851562
532,814.7252807617188,794.5787353515625,807.4725341796875,814.3223266601562
533,813.91943359375,796.5933837890625,805.4578857421875,807.069580078125
534,807.4725341796875,799.8168334960938,801.8314819335938,806.6666870117188
535,807.069580078125,804.6520385742188,803.040283203125,807.069580078125
536,811.098876953125,807.87548828125,804.6520385742188,811.098876953125
537,814.3223266601562,809.89013671875,807.87548828125,816.7399291992188
538,815.5311279296875,806.6666870117188,808.6813354492188,812.7106323242188
539,811.098876953125,805.4578857421875,807.87548828125,813.113525390625
540,813.91943359375,801.8314819335938,805.8607788085938,815.93408203125
541,817.94873046875,806.2637329101562,806.6666870117188,815.1282348632812
542,811.5018310546875,806.6666870117188,809.084228515625,805.4578857421875
543,806.2637329101562,799.010986328125,807.069580078125,792.967041015625
544,803.040283203125,797.8021850585938,802.2344360351562,789.3406372070312
545,801.025634765625,797.8021850585938,797.3992919921875,795.3846435546875
546,795.3846435546875,797.3992919921875,801.025634765625,791.3552856445312
547,791.7582397460938,795.7875366210938,804.6520385742188,793.3699340820312
548,791.7582397460938,793.7728881835938,807.87548828125,799.4139404296875
549,789.7435913085938,796.1904907226562,805.054931640625,796.5933837890625
550,788.1318969726562,795.3846435546875,800.2197875976562,790.5494384765625
551,788.5347900390625,790.5494384765625,803.040283203125,793.7728881835938
552,787.7289428710938,787.3259887695312,802.2344360351562,794.981689453125
553,780.879150390625,787.7289428710938,803.040283203125,790.5494384765625
554,782.893798828125,787.3259887695312,808.6813354492188,791.3552856445312
555,785.3113403320312,784.5054931640625,806.6666870117188,793.7728881835938
556,787.7289428710938,783.6996459960938,804.6520385742188,799.010986328125
557,792.967041015625,788.1318969726562,804.2490844726562,810.2930297851562
558,793.7728881835938,792.1611938476562,806.6666870117188,807.4725341796875
559,795.3846435546875,795.7875366210938,809.4871826171875,805.4578857421875
560,800.6226806640625,794.1758422851562,809.084228515625,812.7106323242188
561,803.4432373046875,794.5787353515625,807.069580078125,815.5311279296875
562,801.025634765625,795.7875366210938,807.87548828125,806.2637329101562
563,800.6226806640625,797.3992919921875,811.90478515625,802.2344360351562
564,809.4871826171875,799.8168334960938,811.098876953125,806.6666870117188
565,807.87548828125,802.6373901367188,809.4871826171875,803.8461303710938
566,799.8168334960938,801.8314819335938,807.4725341796875,802.6373901367188
567,810.2930297851562,801.8314819335938,809.084228515625,809.89013671875
568,815.1282348632812,802.6373901367188,809.084228515625,811.098876953125
569,810.2930297851562,805.4578857421875,807.069580078125,799.010986328125
570,806.2637329101562,804.6520385742188,808.6813354492188,788.5347900390625
571,809.4871826171875,799.4139404296875,805.8607788085938,791.7582397460938
572,810.6959838867188,797.3992919921875,802.2344360351562,796.996337890625
573,801.025634765625,801.4285888671875,800.6226806640625,791.7582397460938
574,795.3846435546875,799.010986328125,803.4432373046875,785.7142944335938
575,793.7728881835938,792.1611938476562,802.6373901367188,782.4908447265625
576,787.7289428710938,790.5494384765625,802.2344360351562,785.7142944335938
577,790.1465454101562,793.3699340820312,805.054931640625,790.1465454101562
578,791.7582397460938,792.1611938476562,803.8461303710938,791.3552856445312
579,790.952392578125,792.5640869140625,803.8461303710938,800.2197875976562
580,790.952392578125,794.5787353515625,805.4578857421875,802.6373901367188
581,786.923095703125,793.3699340820312,807.4725341796875,794.5787353515625
582,790.5494384765625,792.967041015625,810.2930297851562,794.981689453125
583,789.7435913085938,791.7582397460938,805.4578857421875,801.8314819335938
584,781.2820434570312,790.1465454101562,801.4285888671875,802.2344360351562
585,780.0732421875,792.1611938476562,801.8314819335938,789.7435913085938
586,784.908447265625,793.3699340820312,804.2490844726562,786.1171875
587,787.7289428710938,796.1904907226562,802.6373901367188,786.1171875
588,792.5640869140625,798.2051391601562,802.2344360351562,790.952392578125
589,790.1465454101562,795.3846435546875,805.8607788085938,796.1904907226562
590,791.3552856445312,792.5640869140625,807.069580078125,793.3699340820312
591,799.8168334960938,795.7875366210938,807.4725341796875,796.996337890625
592,804.2490844726562,797.8021850585938,805.054931640625,795.3846435546875
593,808.6813354492188,794.981689453125,801.4285888671875,788.5347900390625
594,808.6813354492188,793.7728881835938,803.8461303710938,791.7582397460938
595,806.2637329101562,796.5933837890625,807.4725341796875,798.2051391601562
596,805.054931640625,801.025634765625,809.084228515625,798.2051391601562
597,803.8461303710938,803.4432373046875,807.4725341796875,796.5933837890625
598,809.084228515625,804.2490844726562,805.054931640625,798.2051391601562
599,815.5311279296875,801.8314819335938,804.6520385742188,806.6666870117188
600,803.040283203125,798.2051391601562,800.2197875976562,803.040283203125
601,793.7728881835938,797.3992919921875,798.6080322265625,801.8314819335938
602,794.5787353515625,798.6080322265625,801.025634765625,805.8607788085938
603,798.2051391601562,800.2197875976562,802.6373901367188,804.2490844726562
604,801.8314819335938,799.010986328125,800.6226806640625,807.4725341796875
605,803.8461303710938,793.7728881835938,799.010986328125,816.3369750976562
606,805.054931640625,796.5933837890625,801.8314819335938,817.5457763671875
607,799.4139404296875,803.040283203125,802.2344360351562,808.6813354492188
608,788.5347900390625,801.4285888671875,803.4432373046875,797.3992919921875
609,786.1171875,796.5933837890625,804.6520385742188,798.2051391601562
610,796.5933837890625,799.4139404296875,801.4285888671875,803.040283203125
611,802.2344360351562,803.040283203125,795.3846435546875,799.4139404296875
612,798.2051391601562,800.6226806640625,792.967041015625,799.4139404296875
613,802.6373901367188,795.3846435546875,794.981689453125,807.069580078125
614,809.4871826171875,795.3846435546875,799.4139404296875,813.5164794921875
615,803.4432373046875,801.025634765625,802.2344360351562,807.4725341796875
616,800.2197875976562,801.025634765625,801.025634765625,801.025634765625
617,806.6666870117188,795.7875366210938,800.2197875976562,805.8607788085938
618,810.2930297851562,799.010986328125,801.8314819335938,810.6959838867188
619,805.4578857421875,799.4139404296875,801.025634765625,798.2051391601562
620,800.2197875976562,796.5933837890625,796.5933837890625,798.6080322265625
621,798.6080322265625,795.7875366210938,797.3992919921875,799.4139404296875
622,801.8314819335938,794.1758422851562,797.3992919921875,795.7875366210938
623,803.8461303710938,795.3846435546875,797.3992919921875,799.010986328125
624,801.025634765625,795.3846435546875,792.967041015625,795.7875366210938
625,799.8168334960938,795.3846435546875,792.5640869140625,797.3992919921875
626,800.2197875976562,796.996337890625,798.6080322265625,800.6226806640625
627,804.6520385742188,796.5933837890625,799.010986328125,800.2197875976562
628,805.8607788085938,796.5933837890625,793.7728881835938,798.2051391601562
629,808.2783813476562,798.2051391601562,794.1758422851562,803.4432373046875
630,809.084228515625,802.6373901367188,797.3992919921875,807.87548828125
631,805.4578857421875,801.8314819335938,796.1904907226562,805.054931640625
632,809.89013671875,799.010986328125,795.7875366210938,807.069580078125
633,812.7106323242188,801.025634765625,799.4139404296875,807.4725341796875
634,810.2930297851562,800.6226806640625,803.8461303710938,807.4725341796875
635,806.2637329101562,798.6080322265625,801.025634765625,804.6520385742188
636,801.4285888671875,799.010986328125,801.8314819335938,803.040283203125
637,799.010986328125,796.996337890625,805.054931640625,805.054931640625
638,799.8168334960938,796.996337890625,801.4285888671875,811.5018310546875
639,797.8021850585938,796.1904907226562,803.8461303710938,809.89013671875
640,796.996337890625,796.5933837890625,807.069580078125,809.4871826171875
641,793.3699340820312,796.5933837890625,803.8461303710938,814.7252807617188
642,788.1318969726562,796.5933837890625,804.6520385742188,804.2490844726562
643,791.7582397460938,800.6226806640625,803.8461303710938,796.996337890625
644,799.010986328125,799.8168334960938,796.996337890625,802.2344360351562
645,799.4139404296875,794.981689453125,797.8021850585938,805.054931640625
646,793.3699340820312,795.7875366210938,797.3992919921875,793.3699340820312
647,792.5640869140625,795.7875366210938,794.981689453125,785.7142944335938
648,792.967041015625,794.1758422851562,797.8021850585938,789.7435913085938
649,793.7728881835938,793.7728881835938,800.2197875976562,788.937744140625
650,800.6226806640625,802.2344360351562,801.025634765625,790.952392578125
651,797.8021850585938,803.040283203125,803.8461303710938,794.5787353515625
652,794.981689453125,796.996337890625,801.025634765625,799.010986328125
653,799.010986328125,798.6080322265625,799.8168334960938,802.2344360351562
654,799.8168334960938,801.4285888671875,801.8314819335938,792.5640869140625
655,795.3846435546875,801.4285888671875,803.040283203125,792.5640869140625
656,801.025634765625,799.8168334960938,806.2637329101562,807.87548828125
657,800.6226806640625,799.4139404296875,809.89013671875,801.8314819335938
658,793.7728881835938,796.5933837890625,806.2637329101562,789.3406372070312
659,803.040283203125,795.3846435546875,806.2637329101562,796.5933837890625
660,806.6666870117188,798.6080322265625,809.89013671875,801.4285888671875
661,800.6226806640625,801.8314819335938,805.4578857421875,801.025634765625
662,803.8461303710938,801.025634765625,808.2783813476562,803.8461303710938
663,805.054931640625,798.2051391601562,807.4725341796875,809.084228515625
664,803.4432373046875,796.996337890625,801.8314819335938,813.113525390625
665,802.6373901367188,794.981689453125,806.6666870117188,809.89013671875
666,801.8314819335938,788.937744140625,805.4578857421875,810.6959838867188
667,804.6520385742188,796.5933837890625,799.010986328125,813.113525390625
668,802.2344360351562,806.2637329101562,800.2197875976562,804.6520385742188
669,796.5933837890625,803.4432373046875,801.8314819335938,796.1904907226562
670,798.6080322265625,801.025634765625,803.8461303710938,795.7875366210938
671,805.4578857421875,803.040283203125,803.4432373046875,799.4139404296875
672,803.4432373046875,801.025634765625,801.025634765625,797.3992919921875
673,798.2051391601562,798.6080322265625,797.3992919921875,797.8021850585938
674,803.040283203125,798.2051391601562,797.8021850585938,800.2197875976562
675,805.8607788085938,799.8168334960938,802.6373901367188,805.4578857421875
676,801.8314819335938,797.8021850585938,805.054931640625,810.2930297851562
677,797.3992919921875,792.967041015625,806.6666870117188,809.084228515625
678,799.010986328125,795.7875366210938,805.8607788085938,808.2783813476562
679,807.069580078125,796.5933837890625,804.6520385742188,810.6959838867188
680,812.7106323242188,791.7582397460938,805.8607788085938,811.5018310546875
681,813.113525390625,794.981689453125,807.069580078125,807.4725341796875
682,808.2783813476562,799.8168334960938,808.2783813476562,810.6959838867188
683,809.084228515625,796.996337890625,806.2637329101562,815.1282348632812
684,808.2783813476562,798.2051391601562,804.6520385742188,808.2783813476562
685,802.6373901367188,799.8168334960938,805.8607788085938,801.8314819335938
686,803.8461303710938,799.010986328125,804.6520385742188,808.2783813476562
687,806.2637329101562,796.5933837890625,804.2490844726562,813.5164794921875
688,801.8314819335938,793.7728881835938,803.040283203125,808.2783813476562
689,800.2197875976562,796.996337890625,803.4432373046875,803.8461303710938
690,804.6520385742188,798.6080322265625,805.054931640625,810.2930297851562
691,806.2637329101562,793.7728881835938,803.8461303710938,813.113525390625
692,797.3992919921875,794.1758422851562,805.4578857421875,800.2197875976562
693,794.5787353515625,798.6080322265625,803.040283203125,793.7728881835938
694,805.4578857421875,799.4139404296875,796.5933837890625,798.2051391601562
695,807.87548828125,801.4285888671875,801.025634765625,800.6226806640625
696,802.6373901367188,806.6666870117188,807.87548828125,803.040283203125
697,807.4725341796875,805.4578857421875,806.2637329101562,807.069580078125
698,809.4871826171875,800.6226806640625,801.025634765625,804.2490844726562
699,797.8021850585938,801.8314819335938,798.6080322265625,799.4139404296875
700,792.967041015625,799.8168334960938,800.6226806640625,801.8314819335938
701,800.6226806640625,799.010986328125,801.8314819335938,803.040283203125
702,804.2490844726562,802.2344360351562,801.4285888671875,805.8607788085938
703,803.040283203125,803.040283203125,807.87548828125,809.89013671875
704,800.2197875976562,803.4432373046875,811.098876953125,807.87548828125
705,796.996337890625,799.010986328125,809.4871826171875,803.4432373046875
706,795.7875366210938,798.2051391601562,807.069580078125,795.3846435546875
707,794.981689453125,798.6080322265625,806.6666870117188,793.7728881835938
708,799.010986328125,799.010986328125,809.89013671875,798.6080322265625
709,805.054931640625,800.6226806640625,810.2930297851562,800.2197875976562
710,806.2637329101562,800.2197875976562,812.7106323242188,805.4578857421875
711,801.025634765625,797.8021850585938,811.90478515625,807.069580078125
712,798.2051391601562,794.5787353515625,810.6959838867188,805.8607788085938
713,800.6226806640625,793.3699340820312,807.4725341796875,802.2344360351562
714,800.2197875976562,792.5640869140625,803.8461303710938,810.2930297851562
715,795.7875366210938,793.3699340820312,808.6813354492188,811.90478515625
716,796.996337890625,794.981689453125,810.2930297851562,805.4578857421875
717,801.4285888671875,796.1904907226562,808.6813354492188,803.4432373046875
718,796.5933837890625,796.996337890625,806.6666870117188,796.1904907226562
719,792.1611938476562,796.5933837890625,806.6666870117188,795.3846435546875
720,799.010986328125,794.1758422851562,809.4871826171875,806.2637329101562
721,801.4285888671875,793.7728881835938,813.5164794921875,811.5018310546875
722,796.996337890625,792.5640869140625,815.1282348632812,807.069580078125
723,794.5787353515625,790.952392578125,811.098876953125,801.8314819335938
724,796.1904907226562,795.3846435546875,807.4725341796875,801.4285888671875
725,801.4285888671875,797.3992919921875,806.6666870117188,803.8461303710938
726,801.025634765625,791.7582397460938,804.6520385742188,803.040283203125
727,801.025634765625,792.1611938476562,799.4139404296875,797.8021850585938
728,805.054931640625,796.5933837890625,799.010986328125,797.3992919921875
729,803.4432373046875,799.010986328125,799.4139404296875,797.3992919921875
730,790.1465454101562,796.996337890625,802.2344360351562,794.1758422851562
731,788.937744140625,794.5787353515625,799.010986328125,792.967041015625
732,800.6226806640625,801.025634765625,794.981689453125,797.3992919921875
733,802.6373901367188,801.8314819335938,800.2197875976562,810.6959838867188
734,798.6080322265625,796.5933837890625,807.4725341796875,811.90478515625
735,798.6080322265625,796.1904907226562,804.6520385742188,801.4285888671875
736,802.2344360351562,801.025634765625,801.8314819335938,799.8168334960938
737,797.8021850585938,798.2051391601562,803.040283203125,808.2783813476562
738,796.996337890625,798.2051391601562,803.8461303710938,805.8607788085938
739,802.2344360351562,799.8168334960938,809.4871826171875,797.3992919921875
740,800.6226806640625,801.4285888671875,811.098876953125,802.2344360351562
741,797.3992919921875,802.2344360351562,805.4578857421875,806.6666870117188
742,794.5787353515625,795.7875366210938,801.8314819335938,798.2051391601562
743,795.7875366210938,794.1758422851562,803.4432373046875,794.1758422851562
744,795.7875366210938,795.7875366210938,805.4578857421875,800.6226806640625
745,796.996337890625,795.7875366210938,803.8461303710938,801.4285888671875
746,801.4285888671875,797.8021850585938,805.054931640625,803.040283203125
747,801.4285888671875,798.2051391601562,806.2637329101562,804.2490844726562
748,804.2490844726562,796.1904907226562,807.069580078125,809.89013671875
749,808.6813354492188,798.6080322265625,810.6959838867188,818.3516235351562
750,806.2637329101562,800.6226806640625,815.93408203125,814.7252807617188
751,803.8461303710938,800.6226806640625,817.94873046875,815.5311279296875
752,809.084228515625,798.6080322265625,815.1282348632812,823.1868286132812
753,805.054931640625,798.2051391601562,813.5164794921875,817.94873046875
754,801.4285888671875,800.2197875976562,811.90478515625,810.2930297851562
755,801.8314819335938,794.981689453125,810.2930297851562,813.91943359375
756,807.87548828125,794.981689453125,810.6959838867188,817.94873046875
757,812.7106323242188,796.5933837890625,808.2783813476562,815.1282348632812
758,812.3076782226562,792.967041015625,807.87548828125,815.1282348632812
759,808.2783813476562,796.5933837890625,804.6520385742188,815.5311279296875
760,804.2490844726562,796.5933837890625,800.6226806640625,817.5457763671875
761,801.4285888671875,793.3699340820312,805.4578857421875,811.5018310546875
762,805.8607788085938,796.1904907226562,807.87548828125,807.4725341796875
763,811.098876953125,798.6080322265625,804.6520385742188,809.89013671875
764,811.098876953125,795.3846435546875,802.2344360351562,810.2930297851562
765,805.8607788085938,788.937744140625,802.2344360351562,805.8607788085938
766,807.87548828125,793.7728881835938,805.054931640625,807.069580078125
767,810.2930297851562,802.2344360351562,803.4432373046875,807.4725341796875
768,807.069580078125,800.6226806640625,802.6373901367188,806.2637329101562
769,803.040283203125,796.996337890625,805.054931640625,799.8168334960938
770,796.5933837890625,800.2197875976562,805.054931640625,798.6080322265625
771,796.5933837890625,799.8168334960938,802.2344360351562,798.2051391601562
772,795.7875366210938,793.7728881835938,800.6226806640625,794.1758422851562
773,793.3699340820312,794.5787353515625,802.2344360351562,795.3846435546875
774,794.981689453125,798.6080322265625,803.4432373046875,795.3846435546875
775,799.010986328125,796.1904907226562,803.4432373046875,800.2197875976562
776,799.010986328125,796.996337890625,804.2490844726562,799.8168334960938
777,796.5933837890625,794.981689453125,803.040283203125,789.7435913085938
778,796.1904907226562,794.981689453125,803.040283203125,790.952392578125
779,797.8021850585938,797.3992919921875,803.040283203125,794.981689453125
780,794.981689453125,798.2051391601562,805.4578857421875,788.5347900390625
781,789.3406372070312,800.6226806640625,805.4578857421875,785.7142944335938
782,790.1465454101562,798.2051391601562,800.2197875976562,791.7582397460938
783,792.967041015625,797.8021850585938,798.2051391601562,796.996337890625
784,794.981689453125,801.025634765625,801.8314819335938,800.2197875976562
785,796.5933837890625,800.2197875976562,805.054931640625,799.4139404296875
786,795.3846435546875,796.996337890625,806.2637329101562,797.8021850585938
787,801.4285888671875,794.981689453125,805.054931640625,805.4578857421875
788,804.2490844726562,797.8021850585938,804.2490844726562,799.4139404296875
789,802.6373901367188,799.8168334960938,803.040283203125,792.1611938476562
790,793.7728881835938,796.996337890625,802.6373901367188,794.5787353515625
791,790.5494384765625,797.8021850585938,805.8607788085938,795.3846435546875
792,801.025634765625,802.6373901367188,811.5018310546875,807.069580078125
793,805.054931640625,800.6226806640625,810.6959838867188,807.069580078125
794,804.6520385742188,799.8168334960938,805.8607788085938,808.6813354492188
795,798.6080322265625,799.010986328125,804.6520385742188,809.4871826171875
796,792.967041015625,795.7875366210938,804.6520385742188,799.4139404296875
797,790.5494384765625,797.3992919921875,805.054931640625,792.5640869140625
798,791.7582397460938,793.7728881835938,802.2344360351562,797.8021850585938
799,787.7289428710938,790.952392578125,800.2197875976562,801.8314819335938
800,790.952392578125,791.3552856445312,804.6520385742188,799.4139404296875
801,799.010986328125,786.1171875,807.87548828125,806.2637329101562
802,803.8461303710938,789.3406372070312,804.2490844726562,809.084228515625
803,803.8461303710938,797.8021850585938,800.6226806640625,802.6373901367188
804,792.1611938476562,793.3699340820312,803.4432373046875,799.010986328125
805,780.0732421875,790.952392578125,803.040283203125,794.5787353515625
806,780.0732421875,793.3699340820312,802.2344360351562,789.7435913085938
807,786.1171875,797.8021850585938,801.8314819335938,789.3406372070312
808,782.893798828125,794.1758422851562,803.4432373046875,783.2966918945312
809,777.6557006835938,792.1611938476562,804.6520385742188,778.8644409179688
810,784.1025390625,792.5640869140625,804.2490844726562,798.2051391601562
811,787.7289428710938,796.5933837890625,806.2637329101562,803.4432373046875
812,783.6996459960938,797.3992919921875,803.4432373046875,790.952392578125
813,784.1025390625,791.7582397460938,799.010986328125,786.923095703125
814,791.7582397460938,798.2051391601562,801.025634765625,785.3113403320312
815,796.5933837890625,802.2344360351562,803.4432373046875,789.7435913085938
816,791.7582397460938,796.1904907226562,803.8461303710938,788.5347900390625
817,789.3406372070312,798.6080322265625,799.8168334960938,788.937744140625
818,788.1318969726562,799.8168334960938,796.5933837890625,791.3552856445312
819,787.7289428710938,793.3699340820312,801.4285888671875,789.7435913085938
820,790.5494384765625,794.5787353515625,803.4432373046875,789.7435913085938
821,794.5787353515625,794.1758422851562,797.8021850585938,798.2051391601562
822,792.5640869140625,791.3552856445312,797.3992919921875,805.4578857421875
823,783.2966918945312,793.3699340820312,802.2344360351562,794.1758422851562
824,784.1025390625,794.1758422851562,803.4432373046875,792.5640869140625
825,792.967041015625,794.1758422851562,806.6666870117188,791.7582397460938
826,795.3846435546875,796.996337890625,805.8607788085938,784.5054931640625
827,790.5494384765625,796.5933837890625,801.4285888671875,787.3259887695312
828,792.1611938476562,797.3992919921875,803.040283203125,793.3699340820312
829,790.952392578125,803.040283203125,804.6520385742188,789.7435913085938
830,786.5201416015625,799.8168334960938,803.4432373046875,792.1611938476562
831,790.5494384765625,801.8314819335938,803.4432373046875,796.5933837890625
832,787.3259887695312,800.6226806640625,803.8461303710938,793.3699340820312
833,792.5640869140625,796.5933837890625,802.2344360351562,794.1758422851562
834,794.1758422851562,802.6373901367188,804.2490844726562,785.7142944335938
835,790.5494384765625,803.040283203125,804.2490844726562,779.6703491210938
836,796.996337890625,798.2051391601562,805.054931640625,782.087890625
837,795.3846435546875,799.8168334960938,815.5311279296875,783.2966918945312
838,788.937744140625,808.6813354492188,812.3076782226562,782.4908447265625
839,795.7875366210938,807.87548828125,812.3076782226562,781.6849975585938
840,801.4285888671875,798.2051391601562,809.89013671875,785.3113403320312
841,787.3259887695312,798.2051391601562,804.2490844726562,781.2820434570312
842,778.4615478515625,800.6226806640625,809.4871826171875,770.8058471679688
843,782.4908447265625,799.4139404296875,810.2930297851562,777.2527465820312
844,778.8644409179688,802.6373901367188,819.96337890625,781.2820434570312
845,774.4322509765625,809.89013671875,822.7838745117188,780.4761962890625
846,762.3442993164062,803.8461303710938,817.5457763671875,764.7619018554688
847,751.8681030273438,794.981689453125,823.5897216796875,750.2564086914062
848,748.6447143554688,804.2490844726562,826.00732421875,743.8095092773438
849,740.1831665039062,820.3662719726562,824.7985229492188,738.1685180664062
850,722.05126953125,818.7545776367188,818.7545776367188,724.06591796875
851,713.1868286132812,813.113525390625,821.1721801757812,718.8278198242188
852,709.1575317382812,815.93408203125,832.05126953125,719.6337280273438
853,693.8461303710938,822.3809814453125,837.2893676757812,709.5604248046875
854,691.4285888671875,822.3809814453125,833.6630249023438,704.3223266601562
855,694.6520385742188,816.3369750976562,826.4102783203125,698.6813354492188
856,688.2051391601562,819.5604248046875,826.00732421875,701.098876953125
857,686.5933837890625,826.4102783203125,828.02197265625,696.2637329101562
858,683.3699340820312,825.6043701171875,829.6337280273438,684.1758422851562
859,684.1758422851562,823.1868286132812,840.915771484375,691.4285888671875
860,693.040283203125,830.4395751953125,836.886474609375,700.2930297851562
861,694.2490844726562,835.2747192382812,825.6043701171875,700.2930297851562
862,691.8314819335938,828.8278198242188,834.4688720703125,701.098876953125
863,697.87548828125,817.94873046875,844.1392211914062,710.7692260742188
864,703.113525390625,816.7399291992188,838.4981689453125,721.2454223632812
865,705.93408203125,822.3809814453125,830.03662109375,716.8131713867188
866,705.5311279296875,821.1721801757812,826.8131713867188,707.94873046875
867,711.5750732421875,815.93408203125,824.3956298828125,723.2600708007812
868,715.2014770507812,815.93408203125,821.1721801757812,731.3186645507812
869,720.8424682617188,821.5750732421875,826.4102783203125,730.10986328125
870,730.10986328125,825.6043701171875,823.1868286132812,733.7362670898438
871,732.930419921875,821.97802734375,821.1721801757812,740.5860595703125
872,733.7362670898438,819.1575317382812,825.6043701171875,744.2124633789062
873,758.3150024414062,819.1575317382812,822.7838745117188,748.2417602539062
874,784.1025390625,815.93408203125,822.3809814453125,768.7911987304688
875,777.2527465820312,811.90478515625,823.1868286132812,772.4176025390625
876,778.8644409179688,807.87548828125,818.3516235351562,774.4322509765625
877,794.1758422851562,804.2490844726562,813.91943359375,796.1904907226562
878,803.040283203125,806.6666870117188,810.2930297851562,804.6520385742188
879,803.4432373046875,805.4578857421875,801.025634765625,812.3076782226562
880,804.6520385742188,798.6080322265625,799.010986328125,823.1868286132812
881,811.90478515625,794.981689453125,802.6373901367188,826.00732421875
882,819.5604248046875,793.7728881835938,803.4432373046875,829.6337280273438
883,819.96337890625,794.1758422851562,799.8168334960938,846.5567626953125
884,826.00732421875,792.5640869140625,801.4285888671875,848.5714111328125
885,836.886474609375,790.1465454101562,801.8314819335938,841.3186645507812
886,841.7216186523438,790.5494384765625,794.1758422851562,846.959716796875
887,843.3333129882812,790.952392578125,789.3406372070312,851.7948608398438
888,844.945068359375,783.6996459960938,786.1171875,849.7802124023438
889,854.6153564453125,782.087890625,780.0732421875,853.003662109375
890,857.8388061523438,784.5054931640625,782.087890625,860.6593627929688
891,853.8095092773438,783.2966918945312,783.2966918945312,859.047607421875
892,863.076904296875,785.3113403320312,780.0732421875,855.8241577148438
893,865.4945068359375,788.1318969726562,776.4468994140625,861.8681030273438
894,860.6593627929688,787.7289428710938,774.4322509765625,863.4798583984375
895,864.6886596679688,785.3113403320312,774.4322509765625,858.6447143554688
896,880.0,782.893798828125,776.8497924804688,859.047607421875
897,890.4761962890625,782.893798828125,779.6703491210938,866.3003540039062
898,867.912109375,781.2820434570312,780.4761962890625,866.7033081054688
899,858.2417602539062,782.4908447265625,782.087890625,860.6593627929688
900,865.4945068359375,784.1025390625,782.087890625,861.4652099609375
901,863.8828125,785.3113403320312,784.1025390625,863.8828125
902,864.2857055664062,788.937744140625,786.923095703125,878.7911987304688
903,864.2857055664062,783.2966918945312,789.3406372070312,885.6410522460938
904,862.2710571289062,782.4908447265625,787.3259887695312,869.120849609375
905,859.047607421875,783.6996459960938,782.4908447265625,861.8681030273438
906,850.1831665039062,780.4761962890625,785.3113403320312,865.091552734375
907,849.3773193359375,783.2966918945312,787.7289428710938,861.4652099609375
908,850.989013671875,781.2820434570312,786.5201416015625,864.6886596679688
909,847.7655639648438,778.05859375,784.5054931640625,859.4505615234375
910,846.1538696289062,776.8497924804688,785.7142944335938,849.3773193359375
911,850.1831665039062,776.8497924804688,790.5494384765625,849.3773193359375
912,853.8095092773438,779.6703491210938,790.1465454101562,848.1685180664062
913,854.6153564453125,780.4761962890625,786.1171875,846.1538696289062
914,848.974365234375,778.4615478515625,784.908447265625,850.1831665039062
915,845.7509155273438,777.6557006835938,784.908447265625,852.6007080078125
916,851.7948608398438,781.6849975585938,783.6996459960938,848.974365234375
917,853.4066162109375,782.893798828125,784.5054931640625,851.7948608398438
918,848.1685180664062,780.4761962890625,790.5494384765625,849.7802124023438
919,844.5421142578125,784.1025390625,796.5933837890625,840.915771484375
920,841.3186645507812,782.893798828125,793.7728881835938,837.6923217773438
921,838.4981689453125,778.4615478515625,788.5347900390625,835.6776733398438
922,840.5128173828125,781.2820434570312,791.7582397460938,835.6776733398438
923,832.05126953125,786.1171875,793.7728881835938,829.2307739257812
924,820.3662719726562,784.1025390625,790.952392578125,824.3956298828125
925,821.1721801757812,779.2673950195312,790.1465454101562,826.00732421875
926,824.3956298828125,783.2966918945312,790.952392578125,825.6043701171875
927,824.3956298828125,788.5347900390625,792.5640869140625,824.3956298828125
928,822.7838745117188,790.952392578125,796.5933837890625,830.4395751953125
929,823.5897216796875,791.7582397460938,799.010986328125,840.5128173828125
930,826.4102783203125,792.1611938476562,799.010986328125,831.2454223632812
931,826.4102783203125,793.3699340820312,798.6080322265625,824.7985229492188
932,823.99267578125,791.3552856445312,797.3992919921875,829.2307739257812
933,821.1721801757812,790.5494384765625,797.8021850585938,819.96337890625
934,819.5604248046875,794.5787353515625,794.981689453125,813.113525390625
935,819.5604248046875,798.6080322265625,795.3846435546875,819.96337890625
936,817.5457763671875,797.8021850585938,802.2344360351562,821.1721801757812
937,818.7545776367188,796.1904907226562,802.2344360351562,820.7692260742188
938,815.93408203125,790.5494384765625,793.3699340820312,819.1575317382812
939,806.6666870117188,789.7435913085938,796.1904907226562,826.00732421875
940,810.2930297851562,795.3846435546875,800.2197875976562,823.5897216796875
941,809.4871826171875,796.5933837890625,795.7875366210938,811.098876953125
942,806.6666870117188,795.7875366210938,798.6080322265625,813.113525390625
943,818.7545776367188,791.7582397460938,804.6520385742188,811.90478515625
944,815.5311279296875,789.7435913085938,803.4432373046875,805.4578857421875
945,807.87548828125,795.7875366210938,803.8461303710938,809.084228515625
946,805.4578857421875,797.3992919921875,804.6520385742188,809.89013671875
947,803.4432373046875,793.7728881835938,796.996337890625,807.4725341796875
948,808.2783813476562,790.952392578125,793.7728881835938,809.084228515625
949,811.90478515625,792.967041015625,800.6226806640625,817.94873046875
950,813.113525390625,796.1904907226562,803.040283203125,819.5604248046875
951,811.098876953125,798.2051391601562,801.025634765625,809.89013671875
952,811.098876953125,795.3846435546875,799.8168334960938,814.3223266601562
953,810.2930297851562,796.996337890625,801.8314819335938,814.7252807617188
954,810.2930297851562,796.996337890625,805.8607788085938,805.8607788085938
955,809.89013671875,794.1758422851562,805.054931640625,803.040283203125
956,805.054931640625,795.3846435546875,807.4725341796875,806.2637329101562
957,804.2490844726562,795.3846435546875,808.6813354492188,809.89013671875
958,804.6520385742188,794.981689453125,807.87548828125,808.6813354492188
959,797.3992919921875,793.3699340820312,806.2637329101562,810.6959838867188
960,792.967041015625,792.967041015625,805.4578857421875,810.6959838867188
961,798.2051391601562,796.996337890625,804.6520385742188,801.025634765625
962,800.2197875976562,796.5933837890625,803.4432373046875,795.7875366210938
963,800.2197875976562,792.1611938476562,803.8461303710938,804.2490844726562
964,794.1758422851562,789.3406372070312,803.4432373046875,803.040283203125
965,784.1025390625,787.3259887695312,802.2344360351562,797.8021850585938
966,789.3406372070312,786.1171875,801.4285888671875,796.996337890625
967,792.967041015625,786.5201416015625,798.2051391601562,787.3259887695312
968,798.6080322265625,796.5933837890625,791.7582397460938,793.3699340820312
969,809.89013671875,801.025634765625,797.8021850585938,792.5640869140625
970,795.3846435546875,789.3406372070312,806.6666870117188,777.6557006835938
971,778.8644409179688,786.1171875,803.8461303710938,776.0439453125
972,776.0439453125,790.5494384765625,801.4285888671875,775.6410522460938
973,783.6996459960938,784.1025390625,805.4578857421875,789.7435913085938
974,784.1025390625,777.2527465820312,807.4725341796875,797.3992919921875
975,784.908447265625,777.6557006835938,805.054931640625,788.937744140625
976,792.967041015625,780.0732421875,807.069580078125,794.1758422851562
977,786.5201416015625,781.6849975585938,805.4578857421875,790.952392578125
978,785.7142944335938,788.5347900390625,805.8607788085938,791.3552856445312
979,792.1611938476562,787.7289428710938,801.025634765625,800.2197875976562
980,793.3699340820312,786.1171875,794.981689453125,799.010986328125
981,794.1758422851562,792.1611938476562,797.8021850585938,792.5640869140625
982,794.5787353515625,790.952392578125,798.6080322265625,799.010986328125
983,796.1904907226562,789.7435913085938,798.6080322265625,800.2197875976562
984,796.5933837890625,789.7435913085938,804.6520385742188,805.8607788085938
985,797.3992919921875,789.3406372070312,807.069580078125,809.084228515625
986,800.2197875976562,792.1611938476562,800.6226806640625,802.2344360351562
987,801.8314819335938,790.5494384765625,801.4285888671875,805.4578857421875
988,803.040283203125,790.1465454101562,804.6520385742188,805.8607788085938
989,807.069580078125,790.5494384765625,806.6666870117188,808.6813354492188
990,804.6520385742188,786.923095703125,807.4725341796875,817.1428833007812
991,799.4139404296875,789.7435913085938,805.054931640625,809.4871826171875
992,800.6226806640625,791.3552856445312,807.069580078125,801.025634765625
993,796.1904907226562,789.3406372070312,808.2783813476562,805.4578857421875
994,797.3992919921875,789.7435913085938,809.4871826171875,811.5018310546875
995,806.6666870117188,788.5347900390625,807.87548828125,809.89013671875
996,807.069580078125,788.5347900390625,807.87548828125,809.084228515625
997,803.040283203125,790.5494384765625,805.8607788085938,810.6959838867188
998,807.4725341796875,789.3406372070312,801.4285888671875,805.054931640625
999,807.069580078125,790.952392578125,806.6666870117188,813.91943359375
1000,800.6226806640625,794.981689453125,807.87548828125,812.7106323242188
1001,801.8314819335938,796.5933837890625,805.4578857421875,804.2490844726562
1002,804.6520385742188,795.3846435546875,809.4871826171875,809.4871826171875
1003,805.054931640625,795.7875366210938,809.89013671875,794.981689453125
1004,803.040283203125,797.8021850585938,807.069580078125,796.996337890625
1005,800.6226806640625,792.967041015625,808.2783813476562,810.2930297851562
1006,796.996337890625,789.3406372070312,807.87548828125,806.6666870117188
1007,794.5787353515625,793.3699340820312,805.054931640625,797.8021850585938
1008,795.7875366210938,796.1904907226562,806.6666870117188,794.1758422851562
1009,803.4432373046875,791.7582397460938,807.4725341796875,802.2344360351562
1010,805.054931640625,789.7435913085938,807.069580078125,810.6959838867188
1011,794.1758422851562,789.7435913085938,807.4725341796875,805.054931640625
1012,800.2197875976562,789.7435913085938,805.4578857421875,801.4285888671875
1013,813.91943359375,794.5787353515625,809.4871826171875,811.5018310546875
1014,811.098876953125,796.996337890625,809.89013671875,805.054931640625
1015,805.054931640625,794.981689453125,808.2783813476562,796.5933837890625
1016,799.4139404296875,789.7435913085938,808.6813354492188,803.4432373046875
1017,800.2197875976562,788.5347900390625,805.8607788085938,809.4871826171875
1018,800.6226806640625,793.3699340820312,803.4432373046875,808.6813354492188
1019,796.996337890625,792.967041015625,805.8607788085938,809.89013671875
1020,797.3992919921875,788.5347900390625,807.87548828125,812.7106323242188
1021,801.8314819335938,790.952392578125,806.2637329101562,807.87548828125
1022,805.8607788085938,796.996337890625,806.2637329101562,801.025634765625
1023,803.4432373046875,795.7875366210938,807.87548828125,798.6080322265625
1024,801.4285888671875,791.3552856445312,802.6373901367188,797.8021850585938
1025,805.054931640625,793.7728881835938,796.996337890625,812.3076782226562
1026,809.084228515625,798.6080322265625,801.4285888671875,820.7692260742188
1027,801.025634765625,793.3699340820312,811.90478515625,808.2783813476562
1028,785.7142944335938,788.5347900390625,811.5018310546875,798.2051391601562
1029,789.3406372070312,784.908447265625,804.6520385742188,791.7582397460938
1030,791.7582397460938,782.4908447265625,805.8607788085938,784.5054931640625
1031,787.3259887695312,784.1025390625,807.069580078125,785.7142944335938
1032,794.5787353515625,784.5054931640625,806.2637329101562,797.8021850585938
1033,801.025634765625,784.1025390625,806.2637329101562,795.3846435546875
1034,800.2197875976562,788.5347900390625,803.8461303710938,786.5201416015625
1035,800.2197875976562,791.3552856445312,799.8168334960938,783.6996459960938
1036,798.6080322265625,790.952392578125,802.2344360351562,801.8314819335938
1037,795.3846435546875,792.1611938476562,800.6226806640625,812.3076782226562
1038,802.2344360351562,798.2051391601562,799.4139404296875,792.967041015625
1039,811.90478515625,797.8021850585938,796.5933837890625,790.1465454101562
1040,810.6959838867188,794.1758422851562,792.967041015625,796.1904907226562
1041,808.6813354492188,793.3699340820312,795.3846435546875,799.4139404296875
1042,807.87548828125,794.5787353515625,797.8021850585938,798.6080322265625
1043,801.025634765625,794.5787353515625,795.7875366210938,795.7875366210938
1044,797.8021850585938,794.5787353515625,801.8314819335938,797.8021850585938
1045,802.2344360351562,795.3846435546875,803.040283203125,797.8021850585938
1046,805.4578857421875,797.8021850585938,801.4285888671875,800.6226806640625
1047,805.4578857421875,798.6080322265625,806.6666870117188,809.084228515625
1048,805.054931640625,796.5933837890625,805.054931640625,813.5164794921875
1049,796.1904907226562,794.981689453125,806.6666870117188,806.2637329101562
1050,788.5347900390625,792.967041015625,807.87548828125,807.4725341796875
1051,794.981689453125,791.3552856445312,803.8461303710938,819.5604248046875
1052,799.8168334960938,787.7289428710938,805.054931640625,821.97802734375
1053,798.2051391601562,787.3259887695312,806.6666870117188,813.91943359375
1054,794.981689453125,788.5347900390625,802.2344360351562,807.87548828125
1055,788.937744140625,786.5201416015625,799.8168334960938,804.2490844726562
1056,792.967041015625,792.5640869140625,804.2490844726562,805.8607788085938
1057,792.967041015625,797.8021850585938,805.054931640625,802.6373901367188
1058,794.1758422851562,794.5787353515625,802.6373901367188,794.981689453125
1059,799.4139404296875,793.3699340820312,799.4139404296875,795.7875366210938
1060,797.8021850585938,796.5933837890625,798.2051391601562,800.6226806640625
1061,790.5494384765625,796.5933837890625,796.996337890625,797.3992919921875
1062,790.5494384765625,795.7875366210938,796.1904907226562,798.6080322265625
1063,789.3406372070312,792.5640869140625,798.6080322265625,805.4578857421875
1064,788.1318969726562,791.3552856445312,799.8168334960938,810.2930297851562
1065,793.3699340820312,797.3992919921875,798.2051391601562,802.2344360351562
1066,796.996337890625,797.3992919921875,797.8021850585938,798.2051391601562
1067,797.3992919921875,792.1611938476562,796.1904907226562,792.967041015625
1068,798.2051391601562,790.952392578125,797.3992919921875,791.3552856445312
1069,798.2051391601562,794.5787353515625,800.6226806640625,800.6226806640625
1070,796.996337890625,792.967041015625,796.5933837890625,797.8021850585938
1071,801.025634765625,792.967041015625,795.3846435546875,801.025634765625
1072,801.4285888671875,792.967041015625,792.967041015625,803.4432373046875
1073,792.5640869140625,792.1611938476562,792.5640869140625,796.996337890625
1074,796.5933837890625,795.3846435546875,790.1465454101562,796.1904907226562
1075,803.8461303710938,794.981689453125,784.5054931640625,807.069580078125
1076,804.2490844726562,799.010986328125,787.7289428710938,808.6813354492188
1077,801.4285888671875,795.3846435546875,792.1611938476562,801.025634765625
1078,798.2051391601562,790.5494384765625,791.3552856445312,804.6520385742188
1079,798.6080322265625,795.3846435546875,788.937744140625,805.4578857421875
1080,796.1904907226562,799.8168334960938,788.937744140625,801.4285888671875
1081,799.4139404296875,799.4139404296875,791.3552856445312,804.2490844726562
1082,807.4725341796875,795.3846435546875,792.1611938476562,803.4432373046875
1083,801.8314819335938,792.1611938476562,792.967041015625,800.2197875976562
1084,792.1611938476562,793.7728881835938,793.3699340820312,803.040283203125
1085,796.1904907226562,792.1611938476562,792.5640869140625,793.3699340820312
1086,796.1904907226562,790.952392578125,796.1904907226562,797.8021850585938
1087,789.3406372070312,794.1758422851562,794.5787353515625,804.6520385742188
1088,787.7289428710938,791.3552856445312,796.1904907226562,793.7728881835938
1089,792.1611938476562,791.3552856445312,799.4139404296875,792.5640869140625
1090,792.1611938476562,790.5494384765625,792.967041015625,794.1758422851562
1091,794.1758422851562,791.7582397460938,793.3699340820312,794.1758422851562
1092,792.967041015625,792.967041015625,800.6226806640625,798.6080322265625
1093,794.1758422851562,788.937744140625,797.3992919921875,802.2344360351562
1094,799.8168334960938,788.937744140625,799.010986328125,806.6666870117188
1095,798.6080322265625,792.967041015625,797.8021850585938,801.4285888671875
1096,798.2051391601562,794.5787353515625,794.981689453125,798.6080322265625
1097,799.010986328125,791.7582397460938,796.1904907226562,799.8168334960938
1098,801.8314819335938,787.7289428710938,794.981689453125,805.8607788085938
1099,802.6373901367188,789.7435913085938,797.8021850585938,807.069580078125
1100,803.8461303710938,791.7582397460938,801.025634765625,804.6520385742188
1101,803.4432373046875,793.3699340820312,794.5787353515625,804.6520385742188
1102,804.6520385742188,799.4139404296875,792.967041015625,807.069580078125
1103,804.6520385742188,797.8021850585938,803.4432373046875,813.113525390625
1104,793.7728881835938,790.952392578125,804.6520385742188,806.2637329101562
1105,794.1758422851562,788.1318969726562,797.3992919921875,809.4871826171875
1106,804.2490844726562,790.952392578125,794.1758422851562,816.7399291992188
1107,799.8168334960938,794.1758422851562,796.996337890625,809.4871826171875
1108,794.981689453125,794.981689453125,800.2197875976562,803.8461303710938
1109,796.1904907226562,792.967041015625,802.2344360351562,805.8607788085938
1110,798.2051391601562,793.3699340820312,797.8021850585938,811.5018310546875
1111,794.1758422851562,796.1904907226562,794.5787353515625,805.4578857421875
1112,794.981689453125,798.6080322265625,798.6080322265625,804.6520385742188
1113,799.010986328125,797.8021850585938,799.4139404296875,806.2637329101562
1114,796.5933837890625,796.5933837890625,798.6080322265625,803.8461303710938
1115,797.8021850585938,800.2197875976562,801.8314819335938,803.040283203125
1116,801.4285888671875,798.6080322265625,802.2344360351562,799.8168334960938
1117,801.025634765625,791.3552856445312,799.8168334960938,800.6226806640625
1118,801.8314819335938,787.7289428710938,801.8314819335938,805.054931640625
1119,796.996337890625,790.5494384765625,798.6080322265625,798.6080322265625
1120,790.1465454101562,790.5494384765625,794.1758422851562,785.3113403320312
1121,796.5933837890625,786.923095703125,796.996337890625,794.1758422851562
1122,790.952392578125,791.3552856445312,800.2197875976562,792.5640869140625
1123,786.1171875,794.5787353515625,801.025634765625,782.4908447265625
1124,788.937744140625,792.967041015625,801.025634765625,789.3406372070312
1125,792.967041015625,794.5787353515625,803.8461303710938,794.981689453125
1126,793.3699340820312,797.3992919921875,800.2197875976562,798.6080322265625
1127,794.1758422851562,795.3846435546875,796.996337890625,801.8314819335938
1128,796.5933837890625,793.7728881835938,803.4432373046875,805.4578857421875
1129,794.1758422851562,792.967041015625,802.6373901367188,803.8461303710938
1130,795.7875366210938,792.1611938476562,799.010986328125,804.6520385742188
1131,796.5933837890625,786.923095703125,799.8168334960938,805.054931640625
1132,795.7875366210938,785.7142944335938,804.6520385742188,807.4725341796875
1133,793.3699340820312,791.3552856445312,807.4725341796875,814.3223266601562
1134,791.7582397460938,792.5640869140625,803.040283203125,803.040283203125
1135,799.010986328125,797.3992919921875,799.010986328125,798.2051391601562
1136,805.4578857421875,792.967041015625,798.6080322265625,808.2783813476562
1137,800.2197875976562,791.3552856445312,799.4139404296875,811.5018310546875
1138,802.2344360351562,796.1904907226562,801.4285888671875,801.4285888671875
1139,809.4871826171875,798.6080322265625,804.2490844726562,801.8314819335938
1140,804.6520385742188,804.2490844726562,807.069580078125,808.6813354492188
1141,806.2637329101562,804.6520385742188,807.4725341796875,802.2344360351562
1142,809.89013671875,797.8021850585938,805.4578857421875,800.2197875976562
1143,809.89013671875,796.5933837890625,803.8461303710938,798.6080322265625
1144,805.4578857421875,794.5787353515625,802.2344360351562,796.996337890625
1145,800.6226806640625,794.5787353515625,801.025634765625,794.981689453125
1146,801.025634765625,802.2344360351562,804.6520385742188,800.6226806640625
1147,796.5933837890625,801.4285888671875,805.8607788085938,804.2490844726562
1148,791.7582397460938,796.1904907226562,801.8314819335938,803.8461303710938
1149,790.952392578125,796.5933837890625,803.8461303710938,800.2197875976562
1150,800.6226806640625,799.8168334960938,807.87548828125,803.8461303710938
1151,806.2637329101562,797.8021850585938,805.054931640625,817.1428833007812
1152,807.069580078125,797.3992919921875,806.6666870117188,819.1575317382812
1153,799.4139404296875,796.5933837890625,806.2637329101562,810.2930297851562
1154,792.1611938476562,791.7582397460938,803.8461303710938,809.89013671875
1155,796.5933837890625,790.952392578125,807.87548828125,811.098876953125
1156,794.981689453125,790.952392578125,808.2783813476562,806.2637329101562
1157,794.5787353515625,795.3846435546875,807.069580078125,807.069580078125
1158,793.7728881835938,796.996337890625,805.8607788085938,805.054931640625
1159,792.967041015625,792.5640869140625,804.6520385742188,806.2637329101562
1160,797.3992919921875,792.1611938476562,805.4578857421875,804.2490844726562
1161,796.1904907226562,788.937744140625,803.4432373046875,794.5787353515625
1162,804.6520385742188,790.1465454101562,807.4725341796875,801.4285888671875
1163,815.1282348632812,793.7728881835938,810.6959838867188,813.113525390625
1164,804.2490844726562,790.952392578125,809.084228515625,804.2490844726562
1165,796.996337890625,790.5494384765625,804.6520385742188,796.1904907226562
1166,796.1904907226562,790.5494384765625,804.2490844726562,806.6666870117188
1167,790.952392578125,790.952392578125,803.4432373046875,801.4285888671875
1168,794.5787353515625,793.3699340820312,805.8607788085938,796.5933837890625
1169,792.5640869140625,790.5494384765625,809.4871826171875,803.040283203125
1170,790.952392578125,790.1465454101562,806.2637329101562,801.8314819335938
1171,798.2051391601562,794.5787353515625,805.8607788085938,808.2783813476562
1172,800.2197875976562,796.1904907226562,806.6666870117188,803.4432373046875
1173,801.025634765625,796.1904907226562,809.89013671875,802.2344360351562
1174,803.8461303710938,796.1904907226562,811.90478515625,806.2637329101562
1175,802.2344360351562,795.7875366210938,810.2930297851562,804.6520385742188
1176,804.6520385742188,796.1904907226562,809.89013671875,807.069580078125
1177,806.2637329101562,796.996337890625,809.084228515625,804.2490844726562
1178,803.8461303710938,798.6080322265625,812.3076782226562,810.6959838867188
1179,797.3992919921875,798.2051391601562,814.3223266601562,816.3369750976562
1180,780.4761962890625,794.5787353515625,809.4871826171875,811.5018310546875
1181,781.2820434570312,790.952392578125,812.7106323242188,806.2637329101562
1182,797.3992919921875,792.1611938476562,811.90478515625,800.6226806640625
1183,794.1758422851562,792.967041015625,806.2637329101562,800.6226806640625
1184,788.5347900390625,791.3552856445312,805.8607788085938,795.7875366210938
1185,794.1758422851562,792.5640869140625,806.6666870117188,800.6226806640625
1186,798.2051391601562,792.1611938476562,806.2637329101562,812.7106323242188
1187,796.996337890625,792.5640869140625,804.6520385742188,812.3076782226562
1188,797.8021850585938,797.3992919921875,801.8314819335938,810.2930297851562
1189,798.2051391601562,796.996337890625,805.8607788085938,808.6813354492188
1190,801.4285888671875,794.981689453125,811.90478515625,810.6959838867188
1191,805.054931640625,796.1904907226562,809.4871826171875,809.4871826171875
1192,802.2344360351562,797.8021850585938,806.2637329101562,801.4285888671875
1193,800.6226806640625,795.3846435546875,808.2783813476562,800.6226806640625
1194,801.025634765625,791.7582397460938,810.2930297851562,809.084228515625
1195,807.4725341796875,791.3552856445312,808.2783813476562,805.4578857421875
1196,807.069580078125,791.3552856445312,802.6373901367188,795.7875366210938
1197,797.8021850585938,793.3699340820312,801.4285888671875,792.967041015625
1198,796.5933837890625,792.5640869140625,803.4432373046875,793.7728881835938
1199,795.7875366210938,793.3699340820312,805.4578857421875,796.5933837890625
1200,799.010986328125,796.5933837890625,803.8461303710938,795.3846435546875
1201,794.981689453125,794.1758422851562,796.1904907226562,791.7582397460938
1202,796.5933837890625,793.3699340820312,800.6226806640625,789.7435913085938
1203,798.2051391601562,795.3846435546875,803.8461303710938,787.3259887695312
1204,792.5640869140625,793.3699340820312,802.2344360351562,790.952392578125
1205,797.8021850585938,792.967041015625,805.054931640625,792.967041015625
1206,800.6226806640625,796.5933837890625,807.87548828125,802.2344360351562
1207,794.1758422851562,798.2051391601562,810.2930297851562,801.8314819335938
1208,790.952392578125,796.1904907226562,810.2930297851562,801.4285888671875
1209,795.3846435546875,794.5787353515625,805.8607788085938,805.054931640625
1210,795.3846435546875,793.7728881835938,804.6520385742188,803.4432373046875
1211,794.1758422851562,792.967041015625,803.8461303710938,805.4578857421875
1212,797.8021850585938,793.7728881835938,800.6226806640625,807.87548828125
1213,801.8314819335938,796.5933837890625,803.8461303710938,806.6666870117188
1214,805.8607788085938,792.5640869140625,805.054931640625,796.5933837890625
1215,804.2490844726562,788.937744140625,803.4432373046875,795.7875366210938
1216,796.5933837890625,794.5787353515625,804.6520385742188,802.2344360351562
1217,793.3699340820312,795.7875366210938,805.4578857421875,810.2930297851562
1218,798.6080322265625,800.2197875976562,808.6813354492188,809.084228515625
1219,803.040283203125,803.4432373046875,810.2930297851562,804.6520385742188
1220,802.6373901367188,799.010986328125,809.4871826171875,803.040283203125
1221,799.8168334960938,799.4139404296875,804.6520385742188,800.6226806640625
1222,806.2637329101562,803.8461303710938,803.4432373046875,802.6373901367188
1223,809.4871826171875,800.2197875976562,801.8314819335938,797.8021850585938
1224,800.6226806640625,794.5787353515625,799.4139404296875,794.981689453125
1225,796.996337890625,794.981689453125,795.3846435546875,791.7582397460938
1226,801.4285888671875,793.3699340820312,795.3846435546875,789.3406372070312
1227,803.8461303710938,792.967041015625,799.4139404296875,790.1465454101562
1228,801.025634765625,795.7875366210938,801.025634765625,799.010986328125
1229,799.8168334960938,796.5933837890625,801.4285888671875,803.040283203125
1230,800.6226806640625,799.8168334960938,804.2490844726562,796.5933837890625
1231,802.2344360351562,800.2197875976562,804.6520385742188,805.054931640625
1232,805.8607788085938,795.7875366210938,807.87548828125,810.6959838867188
1233,808.2783813476562,792.967041015625,809.89013671875,812.3076782226562
1234,810.6959838867188,796.5933837890625,808.6813354492188,813.91943359375
1235,807.069580078125,796.1904907226562,807.069580078125,803.040283203125
1236,797.8021850585938,792.967041015625,801.4285888671875,799.8168334960938
1237,797.3992919921875,793.7728881835938,802.2344360351562,810.6959838867188
1238,800.6226806640625,794.1758422851562,805.054931640625,806.6666870117188
1239,801.8314819335938,790.952392578125,804.6520385742188,801.4285888671875
1240,804.2490844726562,793.3699340820312,806.2637329101562,811.90478515625
1241,803.8461303710938,796.1904907226562,806.6666870117188,806.6666870117188
1242,796.996337890625,794.981689453125,803.040283203125,800.2197875976562
1243,813.5164794921875,797.3992919921875,798.6080322265625,809.084228515625
1244,826.8131713867188,796.5933837890625,794.5787353515625,823.1868286132812
1245,807.87548828125,788.937744140625,802.6373901367188,805.4578857421875
1246,794.981689453125,782.893798828125,808.6813354492188,784.908447265625
1247,795.3846435546875,785.3113403320312,810.2930297851562,796.996337890625
1248,792.1611938476562,789.7435913085938,813.113525390625,799.8168334960938
1249,796.996337890625,788.937744140625,811.90478515625,796.5933837890625
1250,797.8021850585938,784.1025390625,811.5018310546875,802.6373901367188
1251,799.4139404296875,778.4615478515625,814.3223266601562,815.1282348632812
1252,802.2344360351562,780.4761962890625,814.7252807617188,819.1575317382812
1253,792.967041015625,784.1025390625,814.3223266601562,801.4285888671875
1254,793.3699340820312,783.6996459960938,818.7545776367188,805.8607788085938
1255,803.4432373046875,784.5054931640625,819.96337890625,819.5604248046875
1256,802.6373901367188,784.908447265625,817.1428833007812,807.87548828125
1257,797.3992919921875,786.5201416015625,815.5311279296875,803.4432373046875
1258,797.3992919921875,789.3406372070312,814.3223266601562,811.90478515625
1259,802.2344360351562,790.952392578125,812.3076782226562,816.3369750976562
1260,805.4578857421875,793.7728881835938,813.113525390625,815.1282348632812
1261,808.2783813476562,790.5494384765625,814.3223266601562,815.1282348632812
1262,811.098876953125,789.7435913085938,810.6959838867188,812.3076782226562
1263,810.2930297851562,789.7435913085938,811.5018310546875,815.1282348632812
1264,808.6813354492188,790.952392578125,813.91943359375,814.3223266601562
1265,806.2637329101562,794.5787353515625,808.2783813476562,815.5311279296875
1266,806.2637329101562,789.3406372070312,803.040283203125,812.7106323242188
1267,807.4725341796875,788.5347900390625,806.6666870117188,810.6959838867188
1268,810.6959838867188,793.7728881835938,808.6813354492188,803.040283203125
1269,808.2783813476562,796.5933837890625,809.4871826171875,800.2197875976562
1270,808.2783813476562,796.5933837890625,811.5018310546875,800.2197875976562
1271,809.89013671875,796.1904907226562,810.2930297851562,803.4432373046875
1272,807.069580078125,798.2051391601562,809.084228515625,811.5018310546875
1273,808.2783813476562,798.6080322265625,803.4432373046875,811.5018310546875
1274,809.89013671875,798.2051391601562,803.8461303710938,815.1282348632812
1275,809.084228515625,796.1904907226562,807.069580078125,817.1428833007812
1276,809.4871826171875,796.1904907226562,804.2490844726562,811.90478515625
1277,806.6666870117188,794.1758422851562,801.025634765625,807.4725341796875
1278,802.6373901367188,792.1611938476562,801.4285888671875,801.4285888671875
1279,797.8021850585938,793.7728881835938,805.4578857421875,797.8021850585938
1280,797.3992919921875,797.3992919921875,806.6666870117188,801.025634765625
1281,799.010986328125,795.7875366210938,805.4578857421875,803.8461303710938
1282,799.4139404296875,795.7875366210938,801.8314819335938,803.8461303710938
1283,805.4578857421875,798.6080322265625,805.8607788085938,807.069580078125
1284,804.6520385742188,790.1465454101562,805.054931640625,802.6373901367188
1285,803.040283203125,785.7142944335938,800.2197875976562,800.2197875976562
1286,804.6520385742188,788.5347900390625,801.8314819335938,815.1282348632812
1287,799.8168334960938,790.5494384765625,798.2051391601562,812.7106323242188
1288,806.2637329101562,795.3846435546875,798.6080322265625,803.8461303710938
1289,804.6520385742188,794.1758422851562,803.040283203125,811.098876953125
1290,800.2197875976562,788.937744140625,803.8461303710938,809.4871826171875
1291,801.8314819335938,788.937744140625,805.4578857421875,798.6080322265625
1292,798.6080322265625,789.7435913085938,805.054931640625,795.7875366210938
1293,796.996337890625,791.3552856445312,803.8461303710938,799.8168334960938
1294,798.6080322265625,793.7728881835938,803.040283203125,803.040283203125
1295,799.010986328125,795.7875366210938,807.87548828125,804.2490844726562
1296,801.4285888671875,792.1611938476562,805.4578857421875,798.2051391601562
1297,803.4432373046875,789.7435913085938,799.8168334960938,800.2197875976562
1298,802.2344360351562,794.1758422851562,805.054931640625,810.6959838867188
1299,799.8168334960938,794.1758422851562,805.8607788085938,810.6959838867188
1300,797.3992919921875,793.3699340820312,800.6226806640625,798.2051391601562
1301,799.010986328125,792.5640869140625,800.2197875976562,803.040283203125
1302,800.6226806640625,793.3699340820312,799.8168334960938,809.89013671875
1303,800.6226806640625,796.996337890625,802.6373901367188,801.4285888671875
1304,802.2344360351562,796.1904907226562,800.2197875976562,800.6226806640625
1305,805.054931640625,795.7875366210938,800.6226806640625,807.4725341796875
1306,809.89013671875,796.1904907226562,806.6666870117188,807.069580078125
1307,808.2783813476562,795.3846435546875,803.8461303710938,799.8168334960938
1308,802.2344360351562,796.1904907226562,804.2490844726562,804.2490844726562
1309,801.025634765625,792.1611938476562,806.6666870117188,809.4871826171875
1310,799.4139404296875,788.1318969726562,805.4578857421875,801.8314819335938
1311,800.2197875976562,789.3406372070312,805.8607788085938,799.8168334960938
1312,799.010986328125,789.3406372070312,805.8607788085938,802.6373901367188
1313,793.3699340820312,790.5494384765625,807.87548828125,803.4432373046875
1314,793.3699340820312,793.3699340820312,807.4725341796875,798.6080322265625
1315,801.025634765625,794.5787353515625,810.6959838867188,799.8168334960938
1316,805.054931640625,797.3992919921875,812.7106323242188,805.8607788085938
1317,805.8607788085938,799.8168334960938,809.89013671875,804.6520385742188
1318,799.4139404296875,799.010986328125,814.7252807617188,799.4139404296875
1319,796.1904907226562,799.8168334960938,815.93408203125,795.7875366210938
1320,801.025634765625,800.6226806640625,813.113525390625,799.010986328125
1321,801.4285888671875,802.6373901367188,816.7399291992188,800.6226806640625
1322,803.4432373046875,803.040283203125,816.3369750976562,801.8314819335938
1323,806.2637329101562,797.3992919921875,816.3369750976562,806.6666870117188
1324,801.4285888671875,794.981689453125,814.3223266601562,812.7106323242188
1325,797.3992919921875,797.3992919921875,810.6959838867188,807.069580078125
1326,794.5787353515625,800.6226806640625,811.90478515625,795.3846435546875
1327,794.981689453125,798.2051391601562,809.084228515625,792.5640869140625
1328,799.8168334960938,796.1904907226562,811.098876953125,791.7582397460938
1329,796.1904907226562,800.2197875976562,813.113525390625,792.967041015625
1330,793.7728881835938,794.5787353515625,813.91943359375,797.8021850585938
1331,802.2344360351562,780.4761962890625,816.7399291992188,817.94873046875
1332,819.1575317382812,782.4908447265625,816.3369750976562,835.2747192382812
1333,814.3223266601562,805.4578857421875,809.4871826171875,814.7252807617188
1334,795.3846435546875,807.069580078125,809.084228515625,792.1611938476562
1335,801.025634765625,798.6080322265625,811.5018310546875,800.2197875976562
1336,807.87548828125,799.4139404296875,805.054931640625,816.3369750976562
1337,803.040283203125,804.6520385742188,798.6080322265625,816.7399291992188
1338,807.069580078125,806.2637329101562,802.2344360351562,805.054931640625
1339,809.89013671875,809.084228515625,804.2490844726562,797.8021850585938
1340,803.8461303710938,811.90478515625,798.2051391601562,794.1758422851562
1341,801.4285888671875,808.6813354492188,799.8168334960938,794.1758422851562
1342,809.89013671875,805.4578857421875,801.8314819335938,797.3992919921875
1343,815.1282348632812,805.054931640625,803.8461303710938,805.054931640625
1344,805.4578857421875,801.8314819335938,806.2637329101562,800.6226806640625
1345,794.5787353515625,799.010986328125,805.4578857421875,794.981689453125
1346,797.8021850585938,799.010986328125,803.4432373046875,793.7728881835938
1347,800.2197875976562,799.010986328125,802.6373901367188,799.8168334960938
1348,795.7875366210938,799.4139404296875,805.4578857421875,802.2344360351562
1349,796.996337890625,801.025634765625,805.054931640625,795.7875366210938
1350,796.1904907226562,800.2197875976562,799.8168334960938,792.967041015625
1351,798.6080322265625,800.2197875976562,800.6226806640625,793.3699340820312
1352,803.040283203125,801.8314819335938,804.2490844726562,795.3846435546875
1353,792.967041015625,797.3992919921875,805.054931640625,792.967041015625
1354,790.952392578125,798.6080322265625,807.4725341796875,801.025634765625
1355,796.1904907226562,803.4432373046875,807.87548828125,804.2490844726562
1356,794.5787353515625,805.054931640625,806.2637329101562,803.040283203125
1357,788.937744140625,804.2490844726562,801.8314819335938,806.2637329101562
1358,793.7728881835938,800.6226806640625,803.040283203125,803.040283203125
1359,801.8314819335938,801.025634765625,807.4725341796875,807.069580078125
1360,801.025634765625,801.4285888671875,801.025634765625,803.8461303710938
1361,801.8314819335938,798.2051391601562,799.4139404296875,797.3992919921875
1362,803.040283203125,796.996337890625,800.6226806640625,801.025634765625
1363,800.6226806640625,800.2197875976562,804.6520385742188,811.098876953125
1364,800.2197875976562,801.025634765625,807.4725341796875,804.6520385742188
1365,800.6226806640625,800.2197875976562,803.4432373046875,791.3552856445312
1366,803.040283203125,805.4578857421875,808.2783813476562,801.025634765625
1367,807.4725341796875,805.4578857421875,811.90478515625,803.040283203125
1368,808.6813354492188,803.8461303710938,805.8607788085938,797.3992919921875
1369,801.8314819335938,803.040283203125,803.040283203125,800.2197875976562
1370,797.3992919921875,800.6226806640625,808.2783813476562,802.2344360351562
1371,801.4285888671875,802.6373901367188,808.2783813476562,799.010986328125
1372,799.8168334960938,799.010986328125,808.2783813476562,798.6080322265625
1373,789.7435913085938,790.1465454101562,809.4871826171875,794.1758422851562
1374,792.967041015625,790.1465454101562,811.5018310546875,801.4285888671875
1375,799.8168334960938,794.1758422851562,811.90478515625,805.8607788085938
1376,794.981689453125,794.981689453125,812.7106323242188,790.952392578125
1377,799.010986328125,788.5347900390625,814.3223266601562,792.967041015625
1378,803.4432373046875,785.3113403320312,813.91943359375,806.6666870117188
1379,803.4432373046875,790.952392578125,810.2930297851562,805.054931640625
1380,805.4578857421875,798.6080322265625,806.2637329101562,798.2051391601562
1381,806.6666870117188,800.6226806640625,806.6666870117188,806.2637329101562
1382,800.6226806640625,801.025634765625,811.098876953125,809.084228515625
1383,794.1758422851562,801.8314819335938,813.5164794921875,798.6080322265625
1384,794.5787353515625,801.4285888671875,810.6959838867188,791.3552856445312
1385,790.5494384765625,796.1904907226562,813.5164794921875,790.5494384765625
1386,786.1171875,790.1465454101562,812.7106323242188,795.7875366210938
1387,785.7142944335938,791.3552856445312,806.2637329101562,787.7289428710938
1388,784.908447265625,792.5640869140625,807.069580078125,784.1025390625
1389,783.2966918945312,792.1611938476562,807.4725341796875,794.981689453125
1390,782.4908447265625,787.7289428710938,806.2637329101562,792.5640869140625
1391,782.087890625,788.5347900390625,807.069580078125,788.1318969726562
1392,780.0732421875,790.5494384765625,801.8314819335938,780.4761962890625
1393,782.4908447265625,789.3406372070312,802.6373901367188,784.5054931640625
1394,787.3259887695312,789.3406372070312,805.8607788085938,791.7582397460938
1395,788.1318969726562,788.5347900390625,804.2490844726562,785.7142944335938
1396,786.5201416015625,793.3699340820312,805.054931640625,788.5347900390625
1397,786.1171875,792.967041015625,807.4725341796875,796.5933837890625
1398,784.1025390625,790.5494384765625,807.069580078125,799.4139404296875
1399,785.3113403320312,793.7728881835938,803.8461303710938,796.996337890625
1400,792.1611938476562,794.5787353515625,806.2637329101562,795.3846435546875
1401,793.3699340820312,795.3846435546875,805.8607788085938,799.010986328125
1402,794.1758422851562,797.8021850585938,803.4432373046875,799.010986328125
1403,798.6080322265625,796.996337890625,807.069580078125,792.1611938476562
1404,798.6080322265625,796.996337890625,808.2783813476562,796.996337890625
1405,802.6373901367188,794.981689453125,807.069580078125,804.6520385742188
1406,801.8314819335938,789.7435913085938,806.6666870117188,799.8168334960938
1407,794.5787353515625,788.5347900390625,806.2637329101562,802.2344360351562
1408,793.7728881835938,790.5494384765625,805.054931640625,810.6959838867188
1409,795.7875366210938,791.7582397460938,802.6373901367188,813.113525390625
1410,795.7875366210938,792.967041015625,803.4432373046875,806.2637329101562
1411,794.981689453125,788.5347900390625,804.6520385742188,806.2637329101562
1412,795.3846435546875,790.1465454101562,810.6959838867188,806.6666870117188
1413,794.1758422851562,794.1758422851562,815.1282348632812,802.2344360351562
1414,804.2490844726562,797.8021850585938,815.1282348632812,808.2783813476562
1415,812.3076782226562,797.3992919921875,811.098876953125,809.084228515625
1416,811.098876953125,793.7728881835938,805.054931640625,808.6813354492188
1417,815.93408203125,797.8021850585938,806.6666870117188,809.4871826171875
1418,813.113525390625,800.6226806640625,810.2930297851562,804.6520385742188
1419,810.2930297851562,801.4285888671875,805.8607788085938,803.040283203125
1420,814.3223266601562,800.2197875976562,804.2490844726562,807.4725341796875
1421,807.069580078125,794.981689453125,801.4285888671875,809.89013671875
1422,799.8168334960938,793.3699340820312,803.040283203125,800.2197875976562
1423,802.2344360351562,797.8021850585938,809.084228515625,798.2051391601562
1424,801.025634765625,799.8168334960938,808.2783813476562,801.8314819335938
1425,797.8021850585938,796.1904907226562,803.8461303710938,799.8168334960938
1426,798.2051391601562,795.3846435546875,806.2637329101562,798.6080322265625
1427,799.8168334960938,798.2051391601562,804.6520385742188,794.1758422851562
1428,794.981689453125,796.996337890625,796.5933837890625,788.5347900390625
1429,795.3846435546875,793.3699340820312,795.7875366210938,784.908447265625
1430,795.7875366210938,796.5933837890625,802.2344360351562,783.2966918945312
1431,793.3699340820312,795.3846435546875,808.6813354492188,788.5347900390625
1432,795.3846435546875,787.7289428710938,809.084228515625,794.5787353515625
1433,796.996337890625,788.937744140625,808.6813354492188,794.981689453125
1434,791.3552856445312,789.3406372070312,811.90478515625,800.6226806640625
1435,788.5347900390625,786.5201416015625,814.3223266601562,799.4139404296875
1436,789.3406372070312,786.5201416015625,813.113525390625,808.6813354492188
1437,790.5494384765625,787.7289428710938,816.7399291992188,805.054931640625
1438,790.5494384765625,789.7435913085938,815.1282348632812,797.8021850585938
1439,790.5494384765625,792.967041015625,809.084228515625,800.6226806640625
1440,792.5640869140625,796.1904907226562,811.90478515625,798.2051391601562
1441,798.2051391601562,797.3992919921875,815.5311279296875,796.996337890625
1442,805.054931640625,797.3992919921875,818.3516235351562,798.2051391601562
1443,802.6373901367188,792.5640869140625,814.7252807617188,794.5787353515625
1444,796.5933837890625,791.3552856445312,811.5018310546875,792.5640869140625
1445,790.5494384765625,794.1758422851562,813.91943359375,796.5933837890625
1446,791.7582397460938,796.5933837890625,813.113525390625,797.8021850585938
1447,799.010986328125,796.5933837890625,811.5018310546875,800.2197875976562
1448,797.3992919921875,794.1758422851562,813.113525390625,801.4285888671875
1449,792.967041015625,794.1758422851562,815.93408203125,797.3992919921875
1450,801.4285888671875,791.7582397460938,814.7252807617188,799.4139404296875
1451,806.6666870117188,797.3992919921875,816.7399291992188,805.054931640625
1452,799.8168334960938,801.025634765625,819.5604248046875,807.069580078125
1453,797.8021850585938,797.8021850585938,815.1282348632812,801.4285888671875
1454,799.010986328125,798.2051391601562,813.91943359375,809.084228515625
1455,800.2197875976562,799.8168334960938,816.3369750976562,822.7838745117188
1456,804.6520385742188,800.6226806640625,821.5750732421875,823.99267578125
1457,808.2783813476562,799.8168334960938,822.3809814453125,819.96337890625
1458,810.2930297851562,798.6080322265625,820.7692260742188,814.3223266601562
1459,805.054931640625,794.981689453125,820.7692260742188,814.7252807617188
1460,795.7875366210938,793.7728881835938,814.3223266601562,809.4871826171875
1461,798.2051391601562,795.7875366210938,810.6959838867188,802.2344360351562
1462,798.6080322265625,795.7875366210938,807.069580078125,800.2197875976562
1463,797.3992919921875,798.2051391601562,807.4725341796875,800.2197875976562
1464,799.8168334960938,799.4139404296875,810.6959838867188,797.8021850585938
1465,803.4432373046875,797.8021850585938,808.2783813476562,793.7728881835938
1466,810.2930297851562,796.996337890625,805.8607788085938,791.7582397460938
1467,813.5164794921875,799.4139404296875,807.4725341796875,792.967041015625
1468,806.6666870117188,799.4139404296875,810.6959838867188,792.967041015625
1469,798.6080322265625,797.8021850585938,809.084228515625,797.8021850585938
1470,803.8461303710938,801.8314819335938,809.89013671875,810.2930297851562
1471,805.8607788085938,801.4285888671875,810.2930297851562,803.8461303710938
1472,800.6226806640625,796.1904907226562,803.040283203125,792.1611938476562
1473,802.2344360351562,794.1758422851562,803.040283203125,798.6080322265625
1474,803.040283203125,794.5787353515625,806.2637329101562,796.996337890625
1475,803.8461303710938,796.996337890625,801.4285888671875,791.7582397460938
1476,806.6666870117188,798.6080322265625,803.4432373046875,796.1904907226562
1477,802.6373901367188,798.2051391601562,805.8607788085938,797.8021850585938
1478,801.025634765625,797.3992919921875,803.8461303710938,794.981689453125
1479,801.4285888671875,794.1758422851562,803.4432373046875,794.5787353515625
1480,799.8168334960938,796.5933837890625,807.87548828125,793.7728881835938
1481,801.025634765625,795.7875366210938,809.89013671875,800.6226806640625
1482,801.025634765625,790.1465454101562,807.87548828125,809.4871826171875
1483,799.4139404296875,791.3552856445312,808.2783813476562,804.2490844726562
1484,799.4139404296875,796.5933837890625,808.6813354492188,801.8314819335938
1485,801.025634765625,795.7875366210938,810.2930297851562,801.025634765625
1486,800.2197875976562,796.996337890625,811.90478515625,797.8021850585938
1487,795.3846435546875,799.4139404296875,809.89013671875,796.5933837890625
1488,794.981689453125,795.7875366210938,811.5018310546875,801.4285888671875
1489,794.1758422851562,791.7582397460938,813.113525390625,805.8607788085938
1490,791.7582397460938,794.5787353515625,814.3223266601562,809.4871826171875
1491,796.5933837890625,796.996337890625,817.5457763671875,813.113525390625
1492,800.6226806640625,796.1904907226562,813.5164794921875,812.7106323242188
1493,802.2344360351562,796.996337890625,814.3223266601562,815.1282348632812
1494,798.6080322265625,796.996337890625,816.3369750976562,814.3223266601562
1495,791.7582397460938,798.6080322265625,812.7106323242188,799.4139404296875
1496,798.6080322265625,797.3992919921875,809.89013671875,799.010986328125
1497,811.5018310546875,796.5933837890625,812.7106323242188,807.069580078125
1498,806.2637329101562,798.2051391601562,813.91943359375,806.2637329101562
1499,800.6226806640625,799.010986328125,813.5164794921875,801.8314819335938
1500,801.4285888671875,796.5933837890625,814.7252807617188,804.6520385742188
1501,799.4139404296875,797.8021850585938,816.3369750976562,813.5164794921875
1502,800.6226806640625,797.8021850585938,814.3223266601562,806.2637329101562
1503,801.025634765625,794.981689453125,813.5164794921875,802.6373901367188
1504,802.6373901367188,794.1758422851562,814.3223266601562,813.113525390625
1505,802.2344360351562,794.1758422851562,813.113525390625,824.3956298828125
1506,801.025634765625,796.1904907226562,812.3076782226562,817.1428833007812
1507,801.4285888671875,798.2051391601562,817.1428833007812,806.6666870117188
1508,798.6080322265625,798.2051391601562,817.5457763671875,808.6813354492188
1509,800.6226806640625,798.2051391601562,809.89013671875,808.6813354492188
1510,803.8461303710938,797.8021850585938,805.8607788085938,804.2490844726562
1511,807.87548828125,797.8021850585938,805.8607788085938,803.040283203125
1512,811.90478515625,803.040283203125,811.098876953125,804.6520385742188
1513,808.2783813476562,803.040283203125,813.91943359375,803.040283203125
1514,805.054931640625,800.2197875976562,808.6813354492188,801.025634765625
1515,805.8607788085938,799.4139404296875,805.4578857421875,801.025634765625
1516,805.4578857421875,799.4139404296875,808.6813354492188,805.8607788085938
1517,805.4578857421875,801.8314819335938,808.6813354492188,812.3076782226562
1518,808.6813354492188,802.2344360351562,805.8607788085938,809.084228515625
1519,809.89013671875,800.6226806640625,805.4578857421875,805.4578857421875
1520,801.4285888671875,797.8021850585938,804.6520385742188,809.89013671875
1521,796.5933837890625,799.8168334960938,806.2637329101562,812.3076782226562
1522,804.2490844726562,799.4139404296875,805.8607788085938,805.8607788085938
1523,806.6666870117188,792.5640869140625,805.8607788085938,807.069580078125
1524,802.2344360351562,794.981689453125,807.4725341796875,816.7399291992188
1525,803.4432373046875,796.5933837890625,810.6959838867188,813.5164794921875
1526,804.2490844726562,794.1758422851562,811.098876953125,807.069580078125
1527,801.8314819335938,792.5640869140625,808.2783813476562,809.89013671875
1528,806.2637329101562,790.1465454101562,808.2783813476562,813.91943359375
1529,804.6520385742188,790.952392578125,808.2783813476562,804.2490844726562
1530,799.4139404296875,793.7728881835938,806.6666870117188,793.7728881835938
1531,798.6080322265625,792.1611938476562,807.87548828125,796.996337890625
1532,801.025634765625,786.923095703125,807.4725341796875,805.8607788085938
1533,802.6373901367188,789.7435913085938,809.4871826171875,805.4578857421875
1534,800.6226806640625,792.5640869140625,811.90478515625,804.6520385742188
1535,802.2344360351562,789.3406372070312,805.4578857421875,804.2490844726562
1536,804.6520385742188,791.7582397460938,804.6520385742188,805.8607788085938
1537,807.4725341796875,796.5933837890625,809.89013671875,811.90478515625
1538,806.6666870117188,791.7582397460938,807.87548828125,809.89013671875
1539,802.6373901367188,785.7142944335938,805.054931640625,811.5018310546875
1540,803.040283203125,787.7289428710938,803.8461303710938,812.3076782226562
1541,805.8607788085938,791.7582397460938,803.8461303710938,809.4871826171875
1542,806.2637329101562,792.5640869140625,805.4578857421875,811.098876953125
1543,806.2637329101562,792.1611938476562,809.084228515625,817.94873046875
1544,813.91943359375,797.3992919921875,809.4871826171875,818.3516235351562
1545,817.1428833007812,797.3992919921875,806.6666870117188,813.5164794921875
1546,807.4725341796875,793.3699340820312,804.2490844726562,805.8607788085938
1547,801.8314819335938,791.3552856445312,801.8314819335938,799.8168334960938
1548,802.6373901367188,792.967041015625,802.2344360351562,797.8021850585938
1549,801.025634765625,793.7728881835938,804.6520385742188,793.7728881835938
1550,802.6373901367188,792.5640869140625,802.2344360351562,792.5640869140625
1551,807.4725341796875,791.7582397460938,795.7875366210938,796.5933837890625
1552,807.069580078125,791.7582397460938,795.3846435546875,790.952392578125
1553,803.8461303710938,794.981689453125,797.8021850585938,788.5347900390625
1554,803.8461303710938,792.967041015625,798.6080322265625,801.8314819335938
1555,804.6520385742188,790.1465454101562,798.6080322265625,810.6959838867188
1556,796.996337890625,792.967041015625,800.6226806640625,797.8021850585938
1557,790.1465454101562,790.952392578125,802.6373901367188,794.5787353515625
1558,785.7142944335938,786.1171875,803.4432373046875,800.2197875976562
1559,786.1171875,786.1171875,807.069580078125,800.2197875976562
1560,792.5640869140625,791.3552856445312,806.6666870117188,803.8461303710938
1561,797.3992919921875,793.3699340820312,804.6520385742188,806.2637329101562
1562,801.4285888671875,790.1465454101562,809.4871826171875,807.87548828125
1563,801.8314819335938,788.937744140625,810.2930297851562,805.8607788085938
1564,797.3992919921875,788.5347900390625,808.2783813476562,803.8461303710938
1565,800.2197875976562,789.7435913085938,807.069580078125,807.4725341796875
1566,806.2637329101562,794.981689453125,803.8461303710938,816.7399291992188
1567,807.069580078125,792.5640869140625,801.8314819335938,812.7106323242188
1568,804.2490844726562,794.981689453125,803.4432373046875,801.4285888671875
1569,804.6520385742188,795.7875366210938,805.054931640625,804.6520385742188
1570,808.2783813476562,794.1758422851562,801.025634765625,803.040283203125
1571,806.6666870117188,794.981689453125,800.2197875976562,798.2051391601562
1572,808.2783813476562,794.981689453125,804.2490844726562,796.5933837890625
1573,813.91943359375,798.6080322265625,806.2637329101562,798.2051391601562
1574,811.90478515625,798.6080322265625,811.90478515625,807.87548828125
1575,803.8461303710938,794.1758422851562,811.5018310546875,803.4432373046875
1576,802.6373901367188,797.8021850585938,808.6813354492188,803.4432373046875
1577,802.2344360351562,800.2197875976562,806.6666870117188,807.87548828125
