timestamp,RAW_TP9,RAW_AF7,RAW_AF8,RAW_TP10
1,860.2564086914062,763.9560546875,768.7911987304688,857.4359130859375
2,854.6153564453125,764.7619018554688,771.2088012695312,855.8241577148438
3,852.1978149414062,765.1648559570312,774.029296875,856.6300659179688
4,848.974365234375,769.1941528320312,765.970703125,849.7802124023438
5,846.1538696289062,768.3883056640625,762.3442993164062,843.3333129882812
6,844.945068359375,761.5384521484375,768.7911987304688,843.7362670898438
7,844.945068359375,767.9853515625,770.8058471679688,844.945068359375
8,845.7509155273438,776.8497924804688,770.4029541015625,842.12451171875
9,847.3626098632812,779.6703491210938,772.0146484375,842.5274658203125
10,840.915771484375,776.8497924804688,774.4322509765625,840.10986328125
11,836.886474609375,773.2234497070312,778.8644409179688,839.3040161132812
12,840.915771484375,776.8497924804688,783.2966918945312,843.7362670898438
13,840.5128173828125,776.0439453125,781.6849975585938,845.3479614257812
14,834.4688720703125,776.8497924804688,781.2820434570312,837.2893676757812
15,832.8571166992188,778.4615478515625,785.7142944335938,836.886474609375
16,833.6630249023438,769.1941528320312,783.2966918945312,831.6483764648438
17,828.4249267578125,768.7911987304688,778.4615478515625,832.4542236328125
18,824.7985229492188,780.0732421875,782.893798828125,838.09521484375
19,822.7838745117188,782.4908447265625,783.6996459960938,829.6337280273438
20,823.99267578125,776.8497924804688,776.0439453125,825.2014770507812
21,827.2161254882812,779.6703491210938,781.6849975585938,829.2307739257812
22,817.94873046875,783.6996459960938,793.7728881835938,826.8131713867188
23,819.5604248046875,784.1025390625,796.996337890625,821.97802734375
24,823.1868286132812,782.087890625,794.1758422851562,820.7692260742188
25,813.113525390625,779.2673950195312,792.5640869140625,818.7545776367188
26,810.2930297851562,781.2820434570312,791.3552856445312,815.1282348632812
27,813.91943359375,780.0732421875,786.923095703125,811.098876953125
28,811.90478515625,781.2820434570312,784.1025390625,814.7252807617188
29,810.2930297851562,779.6703491210938,788.1318969726562,817.1428833007812
30,806.6666870117188,785.7142944335938,787.3259887695312,814.7252807617188
31,821.1721801757812,797.8021850585938,780.879150390625,819.1575317382812
32,836.886474609375,796.5933837890625,786.1171875,832.05126953125
33,812.7106323242188,789.3406372070312,802.2344360351562,816.3369750976562
34,798.2051391601562,788.5347900390625,805.4578857421875,804.2490844726562
35,803.8461303710938,781.6849975585938,806.2637329101562,815.1282348632812
36,794.5787353515625,774.8351440429688,809.4871826171875,807.069580078125
37,802.2344360351562,774.4322509765625,805.054931640625,808.6813354492188
38,807.4725341796875,772.8204956054688,805.054931640625,810.2930297851562
39,796.5933837890625,766.7765502929688,803.8461303710938,801.025634765625
40,795.3846435546875,774.029296875,801.025634765625,798.6080322265625
41,795.7875366210938,783.2966918945312,800.2197875976562,792.967041015625
42,793.7728881835938,783.6996459960938,801.4285888671875,789.7435913085938
43,799.010986328125,791.7582397460938,801.8314819335938,793.7728881835938
44,795.7875366210938,790.1465454101562,796.996337890625,789.3406372070312
45,787.3259887695312,782.087890625,794.5787353515625,783.2966918945312
46,789.7435913085938,786.1171875,795.3846435546875,784.908447265625
47,795.7875366210938,786.1171875,798.2051391601562,788.937744140625
48,792.967041015625,777.6557006835938,797.8021850585938,788.5347900390625
49,789.7435913085938,776.8497924804688,792.967041015625,784.908447265625
50,791.7582397460938,783.6996459960938,788.5347900390625,782.087890625
51,791.3552856445312,792.967041015625,795.7875366210938,780.4761962890625
52,797.3992919921875,792.5640869140625,796.996337890625,787.3259887695312
53,799.8168334960938,792.5640869140625,793.3699340820312,792.5640869140625
54,795.3846435546875,796.996337890625,798.2051391601562,790.952392578125
55,794.1758422851562,788.937744140625,790.5494384765625,798.6080322265625
56,792.5640869140625,788.1318969726562,796.5933837890625,804.2490844726562
57,794.1758422851562,790.1465454101562,808.6813354492188,803.040283203125
58,786.923095703125,786.923095703125,805.8607788085938,798.2051391601562
59,785.3113403320312,788.5347900390625,801.025634765625,801.8314819335938
60,789.7435913085938,792.5640869140625,809.084228515625,806.6666870117188
61,779.2673950195312,791.3552856445312,800.2197875976562,792.1611938476562
62,773.6264038085938,788.937744140625,795.3846435546875,783.2966918945312
63,766.7765502929688,793.7728881835938,805.054931640625,773.2234497070312
64,766.7765502929688,798.6080322265625,806.2637329101562,770.4029541015625
65,762.3442993164062,804.2490844726562,807.87548828125,759.9267578125
66,741.3919677734375,807.4725341796875,799.8168334960938,734.1392211914062
67,731.7216186523438,811.098876953125,799.8168334960938,721.6483764648438
68,722.05126953125,822.3809814453125,811.5018310546875,707.1428833007812
69,708.7545776367188,832.8571166992188,810.2930297851562,694.2490844726562
70,693.040283203125,828.8278198242188,818.7545776367188,690.2197875976562
71,682.1611938476562,828.02197265625,827.2161254882812,686.996337890625
72,672.4908447265625,838.901123046875,825.2014770507812,664.8351440429688
73,662.4176025390625,837.2893676757812,830.03662109375,652.3442993164062
74,655.1648559570312,827.2161254882812,835.6776733398438,653.1502075195312
75,658.7911987304688,830.8424682617188,831.6483764648438,654.3589477539062
76,672.4908447265625,838.901123046875,830.03662109375,666.0439453125
77,666.8497924804688,830.8424682617188,832.05126953125,666.8497924804688
78,660.0,825.6043701171875,828.8278198242188,664.4322509765625
79,671.2820434570312,832.4542236328125,831.6483764648438,676.5201416015625
80,684.981689453125,836.4835205078125,834.4688720703125,688.2051391601562
81,690.2197875976562,833.6630249023438,830.4395751953125,693.4432373046875
82,699.4871826171875,834.06591796875,828.02197265625,707.1428833007812
83,709.96337890625,835.2747192382812,825.6043701171875,716.8131713867188
84,721.6483764648438,827.2161254882812,818.3516235351562,719.6337280273438
85,734.1392211914062,823.1868286132812,813.113525390625,732.5274658203125
86,741.7948608398438,815.93408203125,804.6520385742188,741.7948608398438
87,759.120849609375,801.025634765625,801.025634765625,756.7033081054688
88,770.8058471679688,797.8021850585938,797.8021850585938,770.0
89,778.8644409179688,795.3846435546875,794.5787353515625,774.4322509765625
90,787.3259887695312,793.7728881835938,792.967041015625,783.2966918945312
91,799.8168334960938,793.7728881835938,786.5201416015625,795.7875366210938
92,809.4871826171875,791.3552856445312,786.5201416015625,805.054931640625
93,809.084228515625,783.2966918945312,788.1318969726562,808.6813354492188
94,813.113525390625,777.2527465820312,784.908447265625,815.1282348632812
95,821.97802734375,779.6703491210938,786.5201416015625,815.1282348632812
96,827.6190185546875,777.6557006835938,784.1025390625,819.96337890625
97,832.8571166992188,774.8351440429688,783.6996459960938,831.2454223632812
98,835.6776733398438,778.05859375,789.7435913085938,841.3186645507812
99,837.6923217773438,778.8644409179688,784.908447265625,844.1392211914062
100,846.1538696289062,778.8644409179688,777.2527465820312,847.7655639648438
101,848.974365234375,774.8351440429688,779.6703491210938,851.7948608398438
102,848.974365234375,776.8497924804688,784.5054931640625,856.2271118164062
103,853.8095092773438,773.6264038085938,785.7142944335938,856.2271118164062
104,852.1978149414062,769.5970458984375,782.087890625,851.3919677734375
105,849.3773193359375,773.2234497070312,773.2234497070312,856.2271118164062
106,848.974365234375,773.6264038085938,774.4322509765625,854.6153564453125
107,855.018310546875,778.05859375,777.6557006835938,850.1831665039062
108,855.4212646484375,782.087890625,773.2234497070312,847.7655639648438
109,850.989013671875,781.6849975585938,769.5970458984375,845.7509155273438
110,853.8095092773438,783.6996459960938,774.029296875,847.3626098632812
111,848.5714111328125,785.7142944335938,780.879150390625,846.1538696289062
112,843.3333129882812,784.1025390625,782.087890625,846.1538696289062
113,849.3773193359375,783.6996459960938,784.5054931640625,849.3773193359375
114,847.7655639648438,777.2527465820312,790.5494384765625,854.6153564453125
115,839.7069702148438,773.6264038085938,791.7582397460938,854.2124633789062
116,841.3186645507812,776.0439453125,785.7142944335938,848.974365234375
117,841.7216186523438,773.2234497070312,780.0732421875,849.3773193359375
118,834.4688720703125,777.2527465820312,780.0732421875,838.4981689453125
119,832.8571166992188,777.2527465820312,779.6703491210938,828.02197265625
120,828.4249267578125,772.8204956054688,778.4615478515625,830.4395751953125
121,821.5750732421875,768.3883056640625,776.8497924804688,831.6483764648438
122,824.3956298828125,764.7619018554688,775.2380981445312,828.8278198242188
123,827.6190185546875,765.970703125,775.2380981445312,829.6337280273438
124,826.8131713867188,768.3883056640625,776.8497924804688,832.05126953125
125,826.8131713867188,774.8351440429688,780.879150390625,829.2307739257812
126,823.5897216796875,777.2527465820312,781.2820434570312,826.4102783203125
127,823.99267578125,781.2820434570312,781.2820434570312,823.99267578125
128,835.2747192382812,780.0732421875,777.6557006835938,831.2454223632812
129,838.4981689453125,778.05859375,780.0732421875,836.886474609375
130,828.8278198242188,779.6703491210938,787.3259887695312,823.99267578125
131,827.6190185546875,782.4908447265625,784.908447265625,818.7545776367188
132,832.4542236328125,784.1025390625,776.4468994140625,820.3662719726562
133,829.6337280273438,778.05859375,777.2527465820312,815.5311279296875
134,823.99267578125,778.05859375,776.8497924804688,813.113525390625
135,819.5604248046875,778.8644409179688,776.4468994140625,811.5018310546875
136,823.1868286132812,785.7142944335938,784.5054931640625,809.89013671875
137,823.99267578125,793.7728881835938,787.7289428710938,812.3076782226562
138,818.3516235351562,793.7728881835938,789.3406372070312,821.5750732421875
139,816.7399291992188,786.923095703125,790.952392578125,826.8131713867188
140,817.5457763671875,781.2820434570312,790.5494384765625,823.5897216796875
141,813.91943359375,785.3113403320312,792.967041015625,819.1575317382812
142,807.069580078125,785.7142944335938,794.5787353515625,816.7399291992188
143,809.4871826171875,786.5201416015625,790.5494384765625,811.90478515625
144,809.4871826171875,788.1318969726562,795.3846435546875,812.7106323242188
145,803.4432373046875,784.5054931640625,799.4139404296875,806.2637329101562
146,803.4432373046875,783.2966918945312,795.7875366210938,803.040283203125
147,807.4725341796875,783.6996459960938,794.1758422851562,808.6813354492188
148,808.6813354492188,788.5347900390625,793.7728881835938,805.8607788085938
149,807.4725341796875,788.937744140625,795.7875366210938,807.069580078125
150,809.084228515625,788.1318969726562,797.8021850585938,811.5018310546875
151,811.098876953125,790.952392578125,798.2051391601562,812.3076782226562
152,810.2930297851562,789.7435913085938,801.4285888671875,808.2783813476562
153,808.6813354492188,793.3699340820312,793.7728881835938,800.2197875976562
154,805.4578857421875,794.981689453125,787.7289428710938,794.981689453125
155,805.054931640625,787.3259887695312,788.5347900390625,808.2783813476562
156,801.025634765625,787.7289428710938,791.7582397460938,809.084228515625
157,804.2490844726562,786.1171875,793.7728881835938,799.8168334960938
158,804.2490844726562,784.908447265625,794.1758422851562,799.010986328125
159,805.8607788085938,794.1758422851562,797.3992919921875,794.981689453125
160,810.6959838867188,795.7875366210938,794.1758422851562,795.3846435546875
161,805.054931640625,790.5494384765625,790.952392578125,797.3992919921875
162,795.7875366210938,787.3259887695312,788.5347900390625,789.7435913085938
163,792.1611938476562,782.087890625,784.5054931640625,786.923095703125
164,793.3699340820312,779.2673950195312,789.3406372070312,790.1465454101562
165,793.7728881835938,786.1171875,796.5933837890625,792.967041015625
166,796.1904907226562,792.1611938476562,800.6226806640625,805.4578857421875
167,790.5494384765625,793.7728881835938,798.2051391601562,807.069580078125
168,788.5347900390625,790.5494384765625,790.5494384765625,798.2051391601562
169,794.1758422851562,787.7289428710938,794.981689453125,799.8168334960938
170,799.010986328125,789.7435913085938,798.6080322265625,803.4432373046875
171,798.2051391601562,790.5494384765625,799.4139404296875,802.2344360351562
172,798.6080322265625,788.937744140625,803.4432373046875,804.6520385742188
173,804.2490844726562,793.7728881835938,801.4285888671875,806.6666870117188
174,801.8314819335938,795.3846435546875,793.3699340820312,802.2344360351562
175,799.4139404296875,785.3113403320312,792.1611938476562,801.4285888671875
176,802.2344360351562,786.5201416015625,797.3992919921875,803.040283203125
177,802.6373901367188,797.3992919921875,795.7875366210938,799.4139404296875
178,806.6666870117188,795.7875366210938,794.5787353515625,804.2490844726562
179,807.87548828125,796.1904907226562,799.8168334960938,809.084228515625
180,806.6666870117188,795.3846435546875,799.8168334960938,797.3992919921875
181,807.87548828125,797.8021850585938,793.3699340820312,788.937744140625
182,805.4578857421875,799.8168334960938,790.1465454101562,787.7289428710938
183,798.6080322265625,793.3699340820312,792.5640869140625,778.4615478515625
184,796.996337890625,792.967041015625,794.5787353515625,775.6410522460938
185,795.7875366210938,789.3406372070312,789.3406372070312,786.5201416015625
186,789.7435913085938,783.6996459960938,784.908447265625,784.908447265625
187,792.1611938476562,793.7728881835938,792.967041015625,787.7289428710938
188,794.981689453125,801.4285888671875,799.010986328125,794.5787353515625
189,788.5347900390625,796.996337890625,794.981689453125,792.967041015625
190,793.3699340820312,797.8021850585938,793.3699340820312,799.010986328125
191,802.6373901367188,800.2197875976562,795.3846435546875,797.3992919921875
192,798.6080322265625,797.8021850585938,790.5494384765625,786.923095703125
193,795.7875366210938,797.3992919921875,792.1611938476562,789.3406372070312
194,798.6080322265625,793.7728881835938,794.1758422851562,791.7582397460938
195,793.7728881835938,796.996337890625,794.981689453125,793.3699340820312
196,791.3552856445312,802.2344360351562,797.3992919921875,795.3846435546875
197,796.1904907226562,790.952392578125,797.3992919921875,794.981689453125
198,795.7875366210938,791.7582397460938,795.3846435546875,790.5494384765625
199,794.1758422851562,795.3846435546875,791.7582397460938,785.7142944335938
200,795.7875366210938,794.1758422851562,789.7435913085938,788.1318969726562
201,797.8021850585938,792.5640869140625,791.3552856445312,796.5933837890625
202,793.3699340820312,794.5787353515625,794.5787353515625,792.967041015625
203,793.3699340820312,800.6226806640625,793.3699340820312,784.908447265625
204,800.2197875976562,799.010986328125,793.7728881835938,788.937744140625
205,797.3992919921875,797.3992919921875,793.7728881835938,794.5787353515625
206,796.5933837890625,793.7728881835938,798.6080322265625,790.952392578125
207,802.6373901367188,784.5054931640625,799.8168334960938,788.937744140625
208,796.1904907226562,788.5347900390625,791.7582397460938,787.7289428710938
209,788.5347900390625,794.5787353515625,792.967041015625,784.1025390625
210,792.967041015625,790.1465454101562,798.2051391601562,784.1025390625
211,798.6080322265625,788.937744140625,794.5787353515625,790.952392578125
212,796.5933837890625,783.2966918945312,790.952392578125,793.3699340820312
213,795.3846435546875,782.087890625,791.3552856445312,802.6373901367188
214,788.937744140625,790.5494384765625,794.1758422851562,794.981689453125
215,786.1171875,791.3552856445312,795.7875366210938,787.3259887695312
216,788.5347900390625,789.3406372070312,788.937744140625,785.7142944335938
217,791.3552856445312,790.1465454101562,791.3552856445312,784.5054931640625
218,793.3699340820312,790.1465454101562,796.1904907226562,786.1171875
219,795.3846435546875,794.1758422851562,795.3846435546875,792.1611938476562
220,805.4578857421875,789.3406372070312,797.8021850585938,802.6373901367188
221,805.054931640625,793.7728881835938,791.3552856445312,797.8021850585938
222,798.6080322265625,800.2197875976562,791.7582397460938,795.3846435546875
223,801.4285888671875,791.3552856445312,797.3992919921875,805.4578857421875
224,801.4285888671875,789.7435913085938,796.5933837890625,807.4725341796875
225,794.1758422851562,795.3846435546875,796.5933837890625,802.2344360351562
226,793.7728881835938,796.1904907226562,796.996337890625,801.025634765625
227,793.3699340820312,793.7728881835938,797.3992919921875,799.8168334960938
228,791.3552856445312,793.7728881835938,795.7875366210938,796.996337890625
229,789.3406372070312,790.5494384765625,791.3552856445312,788.937744140625
230,784.5054931640625,794.981689453125,791.3552856445312,784.908447265625
231,781.6849975585938,796.996337890625,795.3846435546875,787.7289428710938
232,784.1025390625,798.2051391601562,791.7582397460938,788.5347900390625
233,791.3552856445312,803.4432373046875,791.7582397460938,791.3552856445312
234,791.3552856445312,802.6373901367188,801.8314819335938,792.5640869140625
235,790.1465454101562,796.5933837890625,799.8168334960938,796.996337890625
236,794.1758422851562,796.1904907226562,794.981689453125,801.8314819335938
237,796.1904907226562,797.8021850585938,796.1904907226562,793.3699340820312
238,790.952392578125,792.1611938476562,794.1758422851562,789.7435913085938
239,786.1171875,782.4908447265625,787.3259887695312,790.5494384765625
240,782.087890625,789.3406372070312,783.6996459960938,788.1318969726562
241,786.923095703125,792.967041015625,784.908447265625,786.5201416015625
242,792.967041015625,784.908447265625,789.7435913085938,786.923095703125
243,791.7582397460938,785.7142944335938,790.952392578125,790.1465454101562
244,792.5640869140625,786.923095703125,790.952392578125,794.5787353515625
245,801.025634765625,795.3846435546875,795.7875366210938,799.4139404296875
246,797.3992919921875,797.8021850585938,795.3846435546875,798.6080322265625
247,798.2051391601562,791.3552856445312,794.981689453125,801.025634765625
248,799.010986328125,786.923095703125,797.3992919921875,801.025634765625
249,793.3699340820312,784.908447265625,795.7875366210938,794.1758422851562
250,789.7435913085938,785.7142944335938,789.7435913085938,788.5347900390625
251,790.1465454101562,788.1318969726562,782.4908447265625,792.1611938476562
252,788.5347900390625,792.1611938476562,785.7142944335938,788.5347900390625
253,786.5201416015625,793.7728881835938,791.7582397460938,781.6849975585938
254,792.5640869140625,792.5640869140625,792.1611938476562,792.967041015625
255,790.952392578125,796.996337890625,789.7435913085938,795.7875366210938
256,784.908447265625,801.025634765625,794.981689453125,790.1465454101562
257,792.5640869140625,797.3992919921875,799.8168334960938,792.1611938476562
258,796.5933837890625,793.7728881835938,788.1318969726562,793.7728881835938
259,795.3846435546875,797.3992919921875,790.1465454101562,796.1904907226562
260,794.1758422851562,795.3846435546875,796.1904907226562,792.1611938476562
261,790.952392578125,790.952392578125,790.952392578125,780.0732421875
262,789.3406372070312,789.3406372070312,792.1611938476562,780.4761962890625
263,792.5640869140625,791.7582397460938,795.3846435546875,799.010986328125
264,792.967041015625,794.981689453125,798.6080322265625,799.4139404296875
265,790.5494384765625,792.1611938476562,797.8021850585938,792.967041015625
266,798.2051391601562,786.5201416015625,793.3699340820312,797.3992919921875
267,799.8168334960938,788.5347900390625,790.5494384765625,800.2197875976562
268,794.1758422851562,796.1904907226562,791.3552856445312,797.8021850585938
269,796.5933837890625,796.996337890625,796.996337890625,799.8168334960938
270,794.981689453125,797.3992919921875,801.025634765625,806.2637329101562
271,794.5787353515625,795.3846435546875,796.996337890625,806.6666870117188
272,801.8314819335938,793.7728881835938,799.010986328125,803.8461303710938
273,800.2197875976562,793.3699340820312,802.6373901367188,803.8461303710938
274,794.981689453125,790.1465454101562,799.8168334960938,807.069580078125
275,794.981689453125,791.3552856445312,798.2051391601562,806.2637329101562
276,797.3992919921875,790.1465454101562,795.3846435546875,794.981689453125
277,799.4139404296875,787.7289428710938,794.5787353515625,787.7289428710938
278,796.1904907226562,784.908447265625,794.981689453125,787.7289428710938
279,790.5494384765625,782.087890625,797.3992919921875,790.1465454101562
280,789.3406372070312,788.5347900390625,801.8314819335938,790.5494384765625
281,787.7289428710938,789.7435913085938,801.8314819335938,792.967041015625
282,790.5494384765625,785.3113403320312,794.1758422851562,793.7728881835938
283,794.5787353515625,786.923095703125,791.3552856445312,790.952392578125
284,790.1465454101562,787.7289428710938,795.7875366210938,788.937744140625
285,792.5640869140625,784.908447265625,792.1611938476562,789.7435913085938
286,795.3846435546875,789.7435913085938,792.1611938476562,794.981689453125
287,785.3113403320312,793.7728881835938,794.1758422851562,786.923095703125
288,781.6849975585938,789.7435913085938,789.7435913085938,780.879150390625
289,781.6849975585938,790.1465454101562,786.923095703125,778.4615478515625
290,780.879150390625,791.7582397460938,787.7289428710938,778.4615478515625
291,782.087890625,788.937744140625,786.1171875,787.3259887695312
292,784.5054931640625,784.5054931640625,784.1025390625,799.010986328125
293,790.952392578125,788.937744140625,786.5201416015625,801.8314819335938
294,786.1171875,795.3846435546875,788.937744140625,791.3552856445312
295,783.2966918945312,793.3699340820312,789.3406372070312,786.1171875
296,791.7582397460938,794.1758422851562,792.967041015625,791.3552856445312
297,795.7875366210938,795.7875366210938,792.967041015625,799.4139404296875
298,796.1904907226562,794.5787353515625,789.7435913085938,803.040283203125
299,794.1758422851562,793.3699340820312,794.981689453125,799.8168334960938
300,785.3113403320312,794.981689453125,795.3846435546875,796.996337890625
301,786.1171875,799.010986328125,794.981689453125,796.1904907226562
302,795.7875366210938,792.967041015625,796.5933837890625,794.1758422851562
303,797.8021850585938,794.1758422851562,796.5933837890625,796.1904907226562
304,796.1904907226562,793.7728881835938,799.4139404296875,803.4432373046875
305,796.1904907226562,788.937744140625,802.6373901367188,805.054931640625
306,795.7875366210938,788.1318969726562,802.6373901367188,803.040283203125
307,796.996337890625,785.3113403320312,799.010986328125,799.8168334960938
308,801.8314819335938,788.937744140625,799.4139404296875,800.2197875976562
309,794.5787353515625,792.967041015625,803.8461303710938,808.2783813476562
310,788.937744140625,794.981689453125,804.6520385742188,801.8314819335938
311,788.1318969726562,793.7728881835938,798.2051391601562,792.1611938476562
312,789.3406372070312,788.5347900390625,797.8021850585938,797.8021850585938
313,795.3846435546875,786.923095703125,803.040283203125,803.4432373046875
314,796.1904907226562,790.5494384765625,802.2344360351562,794.5787353515625
315,799.4139404296875,792.1611938476562,799.010986328125,791.3552856445312
316,798.2051391601562,796.5933837890625,794.981689453125,793.3699340820312
317,795.7875366210938,795.3846435546875,793.7728881835938,792.967041015625
318,799.010986328125,790.952392578125,794.981689453125,798.2051391601562
319,796.996337890625,796.996337890625,790.1465454101562,791.3552856445312
320,792.1611938476562,796.5933837890625,782.087890625,790.5494384765625
321,786.5201416015625,793.7728881835938,781.6849975585938,796.996337890625
322,784.1025390625,794.1758422851562,782.087890625,785.7142944335938
323,789.7435913085938,796.5933837890625,785.7142944335938,788.937744140625
324,793.7728881835938,792.5640869140625,790.5494384765625,797.8021850585938
325,799.4139404296875,793.7728881835938,790.1465454101562,790.1465454101562
326,804.2490844726562,802.2344360351562,786.923095703125,784.1025390625
327,797.8021850585938,801.025634765625,786.1171875,784.5054931640625
328,794.5787353515625,801.4285888671875,790.5494384765625,791.3552856445312
329,800.6226806640625,799.4139404296875,791.3552856445312,796.1904907226562
330,801.025634765625,799.010986328125,791.3552856445312,791.7582397460938
331,801.025634765625,802.6373901367188,791.7582397460938,795.7875366210938
332,803.040283203125,803.4432373046875,790.1465454101562,798.6080322265625
333,799.8168334960938,801.025634765625,792.967041015625,792.967041015625
334,797.3992919921875,798.2051391601562,794.5787353515625,793.3699340820312
335,796.996337890625,795.3846435546875,792.967041015625,803.8461303710938
336,795.3846435546875,795.3846435546875,792.967041015625,807.87548828125
337,791.3552856445312,798.6080322265625,795.7875366210938,805.054931640625
338,791.3552856445312,799.8168334960938,795.3846435546875,800.6226806640625
339,789.7435913085938,795.7875366210938,795.7875366210938,795.7875366210938
340,780.4761962890625,786.923095703125,797.3992919921875,793.3699340820312
341,780.0732421875,786.5201416015625,798.6080322265625,790.5494384765625
342,780.879150390625,785.3113403320312,797.8021850585938,790.1465454101562
343,779.2673950195312,789.3406372070312,796.996337890625,796.996337890625
344,781.2820434570312,789.7435913085938,798.6080322265625,794.981689453125
345,781.6849975585938,781.2820434570312,797.3992919921875,786.1171875
346,781.2820434570312,780.4761962890625,796.996337890625,788.1318969726562
347,788.937744140625,783.2966918945312,800.2197875976562,794.981689453125
348,786.923095703125,785.7142944335938,793.7728881835938,785.7142944335938
349,784.5054931640625,779.6703491210938,790.5494384765625,784.1025390625
350,789.7435913085938,777.2527465820312,792.5640869140625,793.7728881835938
351,789.3406372070312,786.1171875,788.937744140625,792.967041015625
352,785.7142944335938,796.1904907226562,790.952392578125,790.1465454101562
353,795.7875366210938,801.8314819335938,790.952392578125,785.7142944335938
354,803.8461303710938,799.4139404296875,785.3113403320312,786.5201416015625
355,801.4285888671875,794.981689453125,784.5054931640625,791.7582397460938
356,794.1758422851562,796.996337890625,784.908447265625,789.3406372070312
357,793.7728881835938,797.3992919921875,784.1025390625,782.4908447265625
358,794.5787353515625,786.5201416015625,782.893798828125,782.893798828125
359,794.981689453125,787.7289428710938,784.1025390625,791.3552856445312
360,793.7728881835938,797.8021850585938,786.923095703125,786.923095703125
361,796.1904907226562,796.5933837890625,792.5640869140625,786.923095703125
362,800.2197875976562,794.981689453125,794.1758422851562,795.3846435546875
363,792.1611938476562,795.7875366210938,793.7728881835938,790.1465454101562
364,785.7142944335938,796.1904907226562,798.2051391601562,778.8644409179688
365,792.5640869140625,795.7875366210938,794.5787353515625,783.2966918945312
366,792.5640869140625,795.3846435546875,784.5054931640625,792.5640869140625
367,784.1025390625,791.3552856445312,786.5201416015625,793.3699340820312
368,782.893798828125,785.3113403320312,796.5933837890625,787.3259887695312
369,786.923095703125,787.7289428710938,796.1904907226562,784.1025390625
370,786.1171875,791.3552856445312,788.937744140625,789.7435913085938
371,782.893798828125,791.7582397460938,792.967041015625,790.952392578125
372,777.2527465820312,784.1025390625,793.3699340820312,786.5201416015625
373,776.4468994140625,787.7289428710938,788.1318969726562,790.1465454101562
374,779.2673950195312,794.5787353515625,793.3699340820312,797.3992919921875
375,782.087890625,788.1318969726562,799.4139404296875,801.025634765625
376,792.1611938476562,790.1465454101562,799.8168334960938,797.3992919921875
377,798.6080322265625,796.996337890625,799.4139404296875,793.3699340820312
378,798.6080322265625,796.1904907226562,795.7875366210938,791.3552856445312
379,802.2344360351562,796.5933837890625,791.3552856445312,791.7582397460938
380,803.040283203125,796.1904907226562,791.7582397460938,792.5640869140625
381,801.8314819335938,793.3699340820312,790.1465454101562,788.5347900390625
382,798.6080322265625,792.1611938476562,791.7582397460938,785.7142944335938
383,792.967041015625,797.3992919921875,796.1904907226562,784.1025390625
384,799.010986328125,798.2051391601562,792.1611938476562,787.7289428710938
385,800.2197875976562,797.8021850585938,788.937744140625,789.7435913085938
386,793.7728881835938,798.6080322265625,793.3699340820312,788.1318969726562
387,792.1611938476562,796.996337890625,795.7875366210938,791.7582397460938
388,793.7728881835938,796.5933837890625,798.2051391601562,790.5494384765625
389,796.5933837890625,793.7728881835938,796.996337890625,794.1758422851562
390,792.1611938476562,786.1171875,793.7728881835938,790.952392578125
391,785.7142944335938,786.923095703125,790.5494384765625,782.4908447265625
392,781.6849975585938,791.3552856445312,789.7435913085938,782.893798828125
393,784.1025390625,785.7142944335938,788.937744140625,788.1318969726562
394,784.1025390625,787.7289428710938,793.7728881835938,794.981689453125
395,780.879150390625,798.6080322265625,797.3992919921875,784.1025390625
396,784.5054931640625,799.010986328125,787.7289428710938,776.4468994140625
397,782.893798828125,791.3552856445312,788.1318969726562,782.087890625
398,780.0732421875,785.3113403320312,787.3259887695312,780.4761962890625
399,782.4908447265625,788.5347900390625,784.5054931640625,779.6703491210938
400,784.908447265625,792.5640869140625,788.937744140625,784.1025390625
401,784.5054931640625,787.3259887695312,790.952392578125,787.7289428710938
402,788.1318969726562,785.3113403320312,797.3992919921875,788.5347900390625
403,788.5347900390625,790.5494384765625,790.952392578125,786.5201416015625
404,786.1171875,784.908447265625,784.5054931640625,790.1465454101562
405,788.937744140625,782.087890625,785.7142944335938,802.2344360351562
406,790.1465454101562,790.5494384765625,790.1465454101562,796.5933837890625
407,792.5640869140625,788.937744140625,794.981689453125,794.5787353515625
408,792.5640869140625,788.5347900390625,794.5787353515625,803.8461303710938
409,784.908447265625,793.7728881835938,794.981689453125,802.2344360351562
410,779.6703491210938,795.7875366210938,792.1611938476562,795.3846435546875
411,778.8644409179688,792.1611938476562,790.1465454101562,795.3846435546875
412,789.7435913085938,792.1611938476562,792.967041015625,800.2197875976562
413,799.8168334960938,794.981689453125,792.967041015625,801.4285888671875
414,792.1611938476562,788.5347900390625,794.5787353515625,796.5933837890625
415,783.2966918945312,788.5347900390625,790.952392578125,786.923095703125
416,786.5201416015625,789.3406372070312,788.5347900390625,788.5347900390625
417,791.7582397460938,790.5494384765625,795.7875366210938,795.3846435546875
418,789.7435913085938,796.996337890625,789.7435913085938,794.1758422851562
419,787.3259887695312,798.2051391601562,788.937744140625,797.3992919921875
420,790.1465454101562,795.7875366210938,794.981689453125,792.5640869140625
421,793.7728881835938,791.7582397460938,788.5347900390625,785.7142944335938
422,793.3699340820312,792.967041015625,786.923095703125,786.1171875
423,799.010986328125,793.7728881835938,791.7582397460938,792.5640869140625
424,807.87548828125,790.1465454101562,791.3552856445312,797.8021850585938
425,809.4871826171875,796.996337890625,792.967041015625,798.2051391601562
426,807.069580078125,800.6226806640625,794.1758422851562,792.967041015625
427,803.8461303710938,794.981689453125,788.937744140625,794.5787353515625
428,803.8461303710938,792.967041015625,787.7289428710938,799.8168334960938
429,798.2051391601562,792.1611938476562,790.952392578125,792.5640869140625
430,793.7728881835938,788.1318969726562,791.3552856445312,785.3113403320312
431,794.5787353515625,793.3699340820312,791.3552856445312,788.937744140625
432,796.5933837890625,791.7582397460938,792.5640869140625,789.3406372070312
433,794.5787353515625,793.3699340820312,791.3552856445312,780.879150390625
434,791.3552856445312,801.025634765625,792.1611938476562,778.4615478515625
435,788.937744140625,799.4139404296875,790.1465454101562,781.2820434570312
436,784.908447265625,793.3699340820312,787.3259887695312,781.6849975585938
437,788.937744140625,792.5640869140625,789.3406372070312,788.5347900390625
438,789.3406372070312,792.5640869140625,792.5640869140625,788.1318969726562
439,791.7582397460938,788.1318969726562,786.923095703125,790.5494384765625
440,796.5933837890625,789.7435913085938,786.923095703125,790.952392578125
441,792.5640869140625,793.7728881835938,792.967041015625,784.5054931640625
442,793.3699340820312,790.5494384765625,794.981689453125,788.1318969726562
443,801.4285888671875,793.7728881835938,791.7582397460938,801.025634765625
444,796.996337890625,794.981689453125,786.923095703125,799.010986328125
445,791.3552856445312,795.3846435546875,787.7289428710938,794.1758422851562
446,794.981689453125,799.4139404296875,789.7435913085938,799.8168334960938
447,794.1758422851562,796.996337890625,787.3259887695312,799.010986328125
448,792.1611938476562,794.981689453125,790.1465454101562,792.967041015625
449,797.3992919921875,795.7875366210938,790.952392578125,790.1465454101562
450,801.4285888671875,797.8021850585938,790.5494384765625,790.5494384765625
451,800.6226806640625,800.2197875976562,794.981689453125,795.3846435546875
452,798.6080322265625,795.7875366210938,794.1758422851562,792.5640869140625
453,799.4139404296875,796.996337890625,791.7582397460938,788.1318969726562
454,797.3992919921875,797.8021850585938,791.3552856445312,791.3552856445312
455,795.7875366210938,799.4139404296875,792.5640869140625,797.3992919921875
456,793.3699340820312,805.8607788085938,791.3552856445312,794.981689453125
457,791.3552856445312,806.6666870117188,794.5787353515625,794.5787353515625
458,790.5494384765625,803.4432373046875,792.1611938476562,794.5787353515625
459,785.7142944335938,793.7728881835938,791.3552856445312,783.6996459960938
460,789.7435913085938,792.1611938476562,791.7582397460938,780.0732421875
461,799.010986328125,791.3552856445312,785.3113403320312,788.5347900390625
462,796.1904907226562,781.2820434570312,788.5347900390625,792.967041015625
463,794.1758422851562,782.4908447265625,796.996337890625,793.7728881835938
464,792.967041015625,792.1611938476562,794.5787353515625,786.1171875
465,788.937744140625,795.3846435546875,792.5640869140625,782.4908447265625
466,793.3699340820312,787.7289428710938,796.5933837890625,797.3992919921875
467,795.7875366210938,787.7289428710938,795.7875366210938,801.025634765625
468,793.3699340820312,792.967041015625,795.7875366210938,787.7289428710938
469,793.7728881835938,793.7728881835938,796.996337890625,789.3406372070312
470,801.4285888671875,795.3846435546875,801.4285888671875,794.1758422851562
471,803.8461303710938,794.1758422851562,804.2490844726562,793.3699340820312
472,796.5933837890625,787.3259887695312,794.981689453125,787.3259887695312
473,791.7582397460938,781.6849975585938,793.7728881835938,778.8644409179688
474,787.3259887695312,785.3113403320312,795.7875366210938,777.6557006835938
475,786.5201416015625,797.3992919921875,794.5787353515625,778.4615478515625
476,790.952392578125,799.4139404296875,795.3846435546875,781.6849975585938
477,789.7435913085938,795.7875366210938,791.3552856445312,788.937744140625
478,790.1465454101562,796.5933837890625,790.5494384765625,791.3552856445312
479,785.3113403320312,790.1465454101562,793.3699340820312,787.7289428710938
480,784.5054931640625,788.1318969726562,801.4285888671875,787.3259887695312
481,792.5640869140625,790.1465454101562,796.1904907226562,793.7728881835938
482,793.7728881835938,790.1465454101562,795.7875366210938,800.2197875976562
483,787.3259887695312,791.7582397460938,799.010986328125,788.937744140625
484,785.3113403320312,783.2966918945312,794.5787353515625,781.2820434570312
485,784.5054931640625,786.1171875,792.1611938476562,785.7142944335938
486,782.4908447265625,790.1465454101562,788.1318969726562,788.1318969726562
487,786.923095703125,789.7435913085938,791.7582397460938,791.3552856445312
488,788.1318969726562,785.7142944335938,797.8021850585938,790.5494384765625
489,785.7142944335938,778.8644409179688,793.7728881835938,797.8021850585938
490,783.6996459960938,782.893798828125,793.3699340820312,794.981689453125
491,782.893798828125,788.5347900390625,788.937744140625,786.1171875
492,788.937744140625,787.3259887695312,784.908447265625,789.7435913085938
493,792.967041015625,789.3406372070312,789.3406372070312,790.1465454101562
494,789.7435913085938,792.5640869140625,792.5640869140625,791.7582397460938
495,785.7142944335938,787.3259887695312,799.010986328125,791.3552856445312
496,788.937744140625,784.1025390625,801.4285888671875,789.3406372070312
497,790.1465454101562,786.5201416015625,799.8168334960938,795.7875366210938
498,788.937744140625,783.2966918945312,796.5933837890625,797.3992919921875
499,792.1611938476562,781.6849975585938,793.3699340820312,788.5347900390625
500,790.952392578125,781.2820434570312,788.1318969726562,781.2820434570312
501,787.7289428710938,787.7289428710938,785.7142944335938,791.3552856445312
502,784.5054931640625,799.010986328125,788.5347900390625,793.3699340820312
503,786.5201416015625,793.7728881835938,785.7142944335938,793.3699340820312
504,788.937744140625,788.5347900390625,786.1171875,791.3552856445312
505,788.5347900390625,792.967041015625,788.1318969726562,791.7582397460938
506,783.2966918945312,792.5640869140625,788.5347900390625,800.2197875976562
507,787.3259887695312,784.908447265625,789.3406372070312,802.6373901367188
508,791.7582397460938,785.3113403320312,790.1465454101562,801.8314819335938
509,789.7435913085938,790.1465454101562,791.7582397460938,797.8021850585938
510,792.5640869140625,792.1611938476562,791.7582397460938,796.996337890625
511,790.1465454101562,790.952392578125,792.967041015625,797.3992919921875
512,792.5640869140625,785.7142944335938,791.7582397460938,799.8168334960938
513,796.5933837890625,784.908447265625,791.7582397460938,801.4285888671875
514,791.3552856445312,781.6849975585938,792.1611938476562,793.3699340820312
515,789.7435913085938,780.0732421875,790.952392578125,792.1611938476562
516,790.952392578125,792.5640869140625,791.7582397460938,796.996337890625
517,791.7582397460938,796.5933837890625,790.952392578125,797.8021850585938
518,798.6080322265625,796.996337890625,794.1758422851562,802.6373901367188
519,791.3552856445312,788.937744140625,791.3552856445312,792.1611938476562
520,784.5054931640625,780.0732421875,788.5347900390625,779.6703491210938
521,790.5494384765625,790.5494384765625,788.1318969726562,788.5347900390625
522,791.3552856445312,796.996337890625,787.7289428710938,785.7142944335938
523,795.7875366210938,790.1465454101562,791.3552856445312,786.5201416015625
524,799.4139404296875,780.879150390625,787.7289428710938,796.1904907226562
525,790.5494384765625,778.8644409179688,788.1318969726562,786.1171875
526,785.3113403320312,785.3113403320312,789.3406372070312,776.0439453125
527,788.5347900390625,791.3552856445312,786.1171875,779.6703491210938
528,789.7435913085938,790.952392578125,787.7289428710938,781.2820434570312
529,788.1318969726562,785.7142944335938,788.937744140625,778.05859375
530,792.1611938476562,788.5347900390625,790.952392578125,785.3113403320312
531,794.5787353515625,788.5347900390625,791.7582397460938,792.967041015625
532,794.5787353515625,788.1318969726562,792.967041015625,794.981689453125
533,796.5933837890625,794.5787353515625,797.3992919921875,799.4139404296875
534,794.1758422851562,786.923095703125,793.7728881835938,799.4139404296875
535,797.8021850585938,786.923095703125,790.952392578125,805.8607788085938
536,799.8168334960938,794.1758422851562,794.981689453125,805.054931640625
537,796.5933837890625,794.1758422851562,796.996337890625,799.010986328125
538,798.6080322265625,796.5933837890625,799.4139404296875,801.025634765625
539,798.6080322265625,798.2051391601562,799.010986328125,807.87548828125
540,792.967041015625,795.7875366210938,798.2051391601562,805.054931640625
541,789.3406372070312,796.1904907226562,793.7728881835938,797.3992919921875
542,790.1465454101562,794.981689453125,786.1171875,796.5933837890625
543,791.3552856445312,792.1611938476562,791.3552856445312,798.6080322265625
544,794.981689453125,797.8021850585938,799.4139404296875,801.025634765625
545,794.981689453125,796.1904907226562,796.5933837890625,799.8168334960938
546,790.1465454101562,796.996337890625,790.952392578125,792.967041015625
547,786.923095703125,801.4285888671875,792.967041015625,790.1465454101562
548,789.3406372070312,797.3992919921875,796.1904907226562,789.7435913085938
549,788.1318969726562,798.6080322265625,794.5787353515625,788.1318969726562
550,791.7582397460938,801.4285888671875,793.7728881835938,788.5347900390625
551,791.7582397460938,794.5787353515625,792.967041015625,790.1465454101562
552,786.923095703125,791.3552856445312,791.3552856445312,783.2966918945312
553,793.7728881835938,791.7582397460938,796.1904907226562,782.4908447265625
554,798.6080322265625,795.7875366210938,801.4285888671875,793.7728881835938
555,798.2051391601562,798.6080322265625,801.025634765625,797.3992919921875
556,794.981689453125,792.5640869140625,798.2051391601562,795.3846435546875
557,794.1758422851562,792.1611938476562,796.1904907226562,795.7875366210938
558,794.981689453125,794.1758422851562,794.5787353515625,800.6226806640625
559,794.981689453125,794.981689453125,793.7728881835938,801.8314819335938
560,799.8168334960938,790.5494384765625,794.1758422851562,803.040283203125
561,807.87548828125,785.7142944335938,796.5933837890625,807.069580078125
562,812.3076782226562,789.3406372070312,792.5640869140625,812.3076782226562
563,804.2490844726562,795.3846435546875,794.1758422851562,804.2490844726562
564,786.923095703125,797.8021850585938,798.6080322265625,787.3259887695312
565,782.087890625,799.4139404296875,795.7875366210938,786.923095703125
566,791.3552856445312,794.981689453125,792.1611938476562,795.7875366210938
567,791.3552856445312,792.5640869140625,795.7875366210938,793.3699340820312
568,782.4908447265625,790.5494384765625,796.1904907226562,785.7142944335938
569,778.4615478515625,793.3699340820312,789.7435913085938,784.908447265625
570,784.1025390625,800.2197875976562,789.3406372070312,791.3552856445312
571,792.967041015625,796.996337890625,792.1611938476562,795.7875366210938
572,788.5347900390625,792.5640869140625,790.952392578125,790.1465454101562
573,785.7142944335938,794.1758422851562,787.7289428710938,794.1758422851562
574,786.923095703125,797.3992919921875,786.1171875,796.996337890625
575,784.1025390625,795.7875366210938,788.937744140625,784.1025390625
576,779.6703491210938,794.981689453125,790.5494384765625,786.1171875
577,783.2966918945312,796.1904907226562,788.5347900390625,788.5347900390625
578,789.3406372070312,794.981689453125,792.5640869140625,782.893798828125
579,795.3846435546875,794.981689453125,796.1904907226562,780.0732421875
580,801.4285888671875,794.981689453125,795.3846435546875,791.3552856445312
581,796.5933837890625,792.1611938476562,794.1758422851562,797.3992919921875
582,788.937744140625,792.5640869140625,794.5787353515625,792.967041015625
583,787.7289428710938,799.010986328125,791.7582397460938,792.1611938476562
584,798.6080322265625,799.8168334960938,795.7875366210938,795.7875366210938
585,800.2197875976562,791.7582397460938,800.2197875976562,797.8021850585938
586,785.7142944335938,794.5787353515625,796.1904907226562,789.7435913085938
587,783.6996459960938,796.996337890625,793.7728881835938,784.5054931640625
588,788.5347900390625,797.3992919921875,795.3846435546875,791.7582397460938
589,784.908447265625,796.1904907226562,794.5787353515625,791.3552856445312
590,786.923095703125,789.3406372070312,790.952392578125,790.952392578125
591,792.5640869140625,789.3406372070312,785.7142944335938,792.5640869140625
592,787.7289428710938,786.5201416015625,783.6996459960938,790.952392578125
593,784.908447265625,783.6996459960938,790.1465454101562,791.3552856445312
594,787.3259887695312,795.7875366210938,794.981689453125,790.952392578125
595,790.952392578125,799.8168334960938,790.5494384765625,787.3259887695312
596,788.5347900390625,788.1318969726562,788.937744140625,782.4908447265625
597,783.2966918945312,787.7289428710938,788.5347900390625,789.7435913085938
598,784.1025390625,794.981689453125,785.7142944335938,795.3846435546875
599,786.923095703125,795.3846435546875,786.923095703125,789.3406372070312
600,788.5347900390625,789.7435913085938,790.1465454101562,786.1171875
601,788.937744140625,790.5494384765625,790.952392578125,789.3406372070312
602,790.952392578125,796.1904907226562,792.5640869140625,792.5640869140625
603,791.7582397460938,790.5494384765625,792.967041015625,792.1611938476562
604,795.7875366210938,792.967041015625,790.1465454101562,792.967041015625
605,801.8314819335938,796.996337890625,792.967041015625,796.5933837890625
606,801.025634765625,792.1611938476562,797.8021850585938,799.010986328125
607,798.6080322265625,789.3406372070312,797.3992919921875,797.3992919921875
608,794.5787353515625,788.937744140625,794.1758422851562,789.7435913085938
609,799.010986328125,796.5933837890625,795.7875366210938,790.1465454101562
610,800.6226806640625,792.5640869140625,803.4432373046875,794.5787353515625
611,794.1758422851562,786.923095703125,805.8607788085938,797.3992919921875
612,793.3699340820312,795.7875366210938,796.996337890625,796.1904907226562
613,790.952392578125,794.5787353515625,792.1611938476562,785.3113403320312
614,786.923095703125,785.7142944335938,791.7582397460938,778.8644409179688
615,793.7728881835938,782.4908447265625,790.5494384765625,788.937744140625
616,804.2490844726562,790.5494384765625,794.1758422851562,805.8607788085938
617,801.8314819335938,796.996337890625,796.5933837890625,805.4578857421875
618,798.2051391601562,796.5933837890625,794.1758422851562,791.7582397460938
619,802.6373901367188,797.8021850585938,793.3699340820312,792.1611938476562
620,796.1904907226562,792.5640869140625,791.3552856445312,792.1611938476562
621,794.5787353515625,785.7142944335938,788.5347900390625,790.5494384765625
622,798.2051391601562,788.937744140625,792.1611938476562,792.5640869140625
623,801.4285888671875,797.3992919921875,789.7435913085938,792.967041015625
624,792.1611938476562,798.2051391601562,783.2966918945312,789.7435913085938
625,782.087890625,793.7728881835938,788.5347900390625,781.6849975585938
626,784.908447265625,793.7728881835938,791.7582397460938,786.5201416015625
627,789.3406372070312,791.7582397460938,789.3406372070312,789.3406372070312
628,796.996337890625,792.1611938476562,795.3846435546875,793.7728881835938
629,799.010986328125,792.1611938476562,797.8021850585938,798.2051391601562
630,802.6373901367188,790.952392578125,792.967041015625,798.2051391601562
631,804.6520385742188,795.3846435546875,792.967041015625,799.4139404296875
632,797.3992919921875,792.967041015625,795.3846435546875,795.3846435546875
633,796.1904907226562,790.5494384765625,796.5933837890625,794.981689453125
634,792.1611938476562,795.7875366210938,795.3846435546875,792.5640869140625
635,788.5347900390625,796.1904907226562,789.3406372070312,798.2051391601562
636,791.3552856445312,792.967041015625,792.967041015625,800.2197875976562
637,789.7435913085938,791.3552856445312,793.3699340820312,791.3552856445312
638,786.923095703125,796.1904907226562,788.1318969726562,785.7142944335938
639,785.7142944335938,794.981689453125,793.3699340820312,785.7142944335938
640,793.7728881835938,792.5640869140625,795.3846435546875,788.937744140625
641,796.996337890625,796.996337890625,794.5787353515625,785.7142944335938
642,791.3552856445312,798.2051391601562,794.981689453125,789.3406372070312
643,790.952392578125,798.6080322265625,796.1904907226562,795.3846435546875
644,788.1318969726562,790.952392578125,794.981689453125,794.5787353515625
645,788.1318969726562,788.5347900390625,793.3699340820312,799.8168334960938
646,793.3699340820312,793.3699340820312,793.7728881835938,803.8461303710938
647,792.1611938476562,791.3552856445312,796.1904907226562,804.2490844726562
648,790.5494384765625,798.2051391601562,793.3699340820312,796.996337890625
649,790.5494384765625,799.010986328125,794.1758422851562,794.1758422851562
650,790.5494384765625,792.1611938476562,799.8168334960938,799.4139404296875
651,791.7582397460938,794.1758422851562,801.8314819335938,799.4139404296875
652,791.7582397460938,799.4139404296875,801.8314819335938,796.1904907226562
653,790.1465454101562,797.3992919921875,796.996337890625,790.952392578125
654,790.5494384765625,796.1904907226562,793.3699340820312,790.952392578125
655,789.7435913085938,800.6226806640625,799.010986328125,789.3406372070312
656,789.3406372070312,801.025634765625,799.4139404296875,787.3259887695312
657,787.3259887695312,792.967041015625,794.981689453125,785.3113403320312
658,786.5201416015625,789.7435913085938,799.4139404296875,790.5494384765625
659,787.7289428710938,792.1611938476562,802.2344360351562,788.937744140625
660,784.908447265625,781.6849975585938,795.7875366210938,779.2673950195312
661,788.5347900390625,779.6703491210938,791.7582397460938,788.937744140625
662,794.1758422851562,786.923095703125,794.1758422851562,795.3846435546875
663,799.4139404296875,789.3406372070312,796.996337890625,797.3992919921875
664,796.5933837890625,788.5347900390625,794.5787353515625,802.2344360351562
665,795.7875366210938,794.981689453125,792.5640869140625,800.2197875976562
666,801.025634765625,798.2051391601562,792.5640869140625,793.3699340820312
667,798.2051391601562,796.5933837890625,793.3699340820312,792.1611938476562
668,796.1904907226562,798.6080322265625,793.7728881835938,792.1611938476562
669,797.3992919921875,791.3552856445312,794.981689453125,793.3699340820312
670,797.3992919921875,790.952392578125,794.5787353515625,793.7728881835938
671,799.010986328125,798.2051391601562,794.5787353515625,788.937744140625
672,799.010986328125,796.996337890625,792.967041015625,792.1611938476562
673,796.1904907226562,798.6080322265625,792.967041015625,788.1318969726562
674,799.010986328125,805.4578857421875,790.5494384765625,783.2966918945312
675,801.025634765625,800.6226806640625,791.7582397460938,782.087890625
676,796.996337890625,791.7582397460938,796.1904907226562,783.2966918945312
677,795.3846435546875,792.1611938476562,796.996337890625,789.7435913085938
678,792.5640869140625,794.1758422851562,795.3846435546875,788.937744140625
679,792.967041015625,791.7582397460938,796.996337890625,786.5201416015625
680,791.7582397460938,790.1465454101562,802.6373901367188,784.1025390625
681,787.7289428710938,789.7435913085938,796.996337890625,782.893798828125
682,788.937744140625,792.5640869140625,795.3846435546875,781.6849975585938
683,786.5201416015625,796.5933837890625,798.2051391601562,776.0439453125
684,784.1025390625,799.4139404296875,796.1904907226562,779.2673950195312
685,786.1171875,794.1758422851562,792.967041015625,785.3113403320312
686,780.879150390625,787.7289428710938,794.5787353515625,785.3113403320312
687,786.1171875,791.3552856445312,794.981689453125,785.7142944335938
688,794.981689453125,793.3699340820312,794.981689453125,791.7582397460938
689,786.5201416015625,790.5494384765625,796.1904907226562,791.3552856445312
690,784.1025390625,784.1025390625,795.3846435546875,789.3406372070312
691,789.7435913085938,787.3259887695312,798.2051391601562,793.3699340820312
692,789.7435913085938,792.967041015625,795.3846435546875,798.6080322265625
693,794.981689453125,795.3846435546875,787.3259887695312,804.6520385742188
694,791.7582397460938,799.8168334960938,788.5347900390625,799.8168334960938
695,789.3406372070312,798.6080322265625,793.3699340820312,793.3699340820312
696,794.981689453125,790.952392578125,794.981689453125,794.981689453125
697,787.3259887695312,789.3406372070312,792.5640869140625,796.5933837890625
698,784.5054931640625,794.5787353515625,792.5640869140625,793.3699340820312
699,791.3552856445312,790.952392578125,795.7875366210938,794.1758422851562
700,785.7142944335938,788.937744140625,792.1611938476562,792.1611938476562
701,782.893798828125,792.5640869140625,791.7582397460938,791.3552856445312
702,793.3699340820312,792.1611938476562,793.3699340820312,790.952392578125
703,799.010986328125,800.6226806640625,791.3552856445312,786.5201416015625
704,796.996337890625,800.6226806640625,787.3259887695312,796.996337890625
705,790.952392578125,791.7582397460938,792.1611938476562,797.8021850585938
706,788.937744140625,798.6080322265625,793.3699340820312,786.923095703125
707,787.7289428710938,799.8168334960938,789.7435913085938,790.1465454101562
708,791.3552856445312,789.3406372070312,790.1465454101562,796.1904907226562
709,789.7435913085938,784.908447265625,789.7435913085938,790.1465454101562
710,784.908447265625,788.937744140625,786.5201416015625,789.3406372070312
711,788.5347900390625,790.5494384765625,782.893798828125,789.7435913085938
712,790.952392578125,789.3406372070312,787.3259887695312,786.923095703125
713,791.3552856445312,786.5201416015625,790.5494384765625,781.6849975585938
714,791.7582397460938,788.937744140625,788.937744140625,776.0439453125
715,787.7289428710938,789.3406372070312,787.3259887695312,781.6849975585938
716,788.5347900390625,794.1758422851562,789.7435913085938,787.3259887695312
717,791.3552856445312,797.3992919921875,789.3406372070312,786.1171875
718,787.3259887695312,789.7435913085938,792.5640869140625,785.3113403320312
719,784.1025390625,786.923095703125,793.3699340820312,793.7728881835938
720,785.7142944335938,793.7728881835938,790.1465454101562,802.2344360351562
721,785.7142944335938,796.1904907226562,792.5640869140625,791.7582397460938
722,792.1611938476562,791.3552856445312,794.5787353515625,788.5347900390625
723,796.5933837890625,792.5640869140625,792.5640869140625,795.7875366210938
724,794.1758422851562,794.981689453125,794.981689453125,788.937744140625
725,785.3113403320312,790.1465454101562,795.7875366210938,780.879150390625
726,781.6849975585938,794.1758422851562,794.981689453125,783.2966918945312
727,787.3259887695312,793.7728881835938,796.996337890625,789.7435913085938
728,787.7289428710938,791.3552856445312,798.2051391601562,791.3552856445312
729,784.908447265625,801.025634765625,797.3992919921875,788.5347900390625
730,784.908447265625,800.6226806640625,797.3992919921875,787.7289428710938
731,789.3406372070312,795.7875366210938,795.7875366210938,800.6226806640625
732,785.3113403320312,791.3552856445312,794.1758422851562,798.2051391601562
733,786.5201416015625,794.981689453125,795.7875366210938,788.937744140625
734,786.923095703125,795.7875366210938,799.010986328125,790.1465454101562
735,781.2820434570312,792.5640869140625,798.2051391601562,792.1611938476562
736,783.2966918945312,788.5347900390625,798.2051391601562,793.3699340820312
737,786.5201416015625,785.7142944335938,797.3992919921875,790.952392578125
738,791.3552856445312,788.937744140625,796.1904907226562,792.967041015625
739,792.5640869140625,794.5787353515625,796.996337890625,797.3992919921875
740,792.5640869140625,798.6080322265625,794.5787353515625,794.981689453125
741,797.8021850585938,801.025634765625,791.7582397460938,791.3552856445312
742,797.3992919921875,790.952392578125,791.7582397460938,791.3552856445312
743,797.3992919921875,786.923095703125,792.1611938476562,794.5787353515625
744,794.5787353515625,794.1758422851562,792.5640869140625,794.981689453125
745,786.923095703125,791.7582397460938,790.5494384765625,796.5933837890625
746,785.3113403320312,786.5201416015625,790.1465454101562,797.8021850585938
747,791.3552856445312,786.5201416015625,794.981689453125,802.6373901367188
748,796.996337890625,793.3699340820312,798.2051391601562,808.6813354492188
749,798.2051391601562,788.5347900390625,796.1904907226562,798.6080322265625
750,801.025634765625,781.2820434570312,792.1611938476562,794.981689453125
751,803.4432373046875,795.3846435546875,792.5640869140625,793.7728881835938
752,802.6373901367188,803.4432373046875,793.7728881835938,789.7435913085938
753,801.8314819335938,799.010986328125,793.3699340820312,795.7875366210938
754,804.2490844726562,795.3846435546875,801.8314819335938,810.2930297851562
755,805.8607788085938,794.5787353515625,806.6666870117188,812.7106323242188
756,796.996337890625,792.1611938476562,800.6226806640625,805.4578857421875
757,790.1465454101562,790.5494384765625,798.2051391601562,803.4432373046875
758,794.981689453125,791.7582397460938,797.3992919921875,800.2197875976562
759,803.040283203125,788.1318969726562,798.6080322265625,800.6226806640625
760,801.025634765625,788.937744140625,797.3992919921875,799.8168334960938
761,793.3699340820312,786.5201416015625,793.7728881835938,797.3992919921875
762,793.3699340820312,787.7289428710938,795.7875366210938,794.981689453125
763,796.5933837890625,794.981689453125,799.4139404296875,790.952392578125
764,794.981689453125,789.7435913085938,800.6226806640625,786.923095703125
765,795.3846435546875,790.1465454101562,799.8168334960938,790.1465454101562
766,792.5640869140625,790.952392578125,795.7875366210938,795.3846435546875
767,790.952392578125,790.1465454101562,799.010986328125,794.5787353515625
768,794.5787353515625,789.7435913085938,795.3846435546875,796.1904907226562
769,795.3846435546875,791.3552856445312,786.923095703125,791.3552856445312
770,794.981689453125,798.2051391601562,788.937744140625,792.5640869140625
771,787.7289428710938,794.5787353515625,792.967041015625,794.5787353515625
772,785.3113403320312,792.5640869140625,792.1611938476562,786.5201416015625
773,790.952392578125,796.1904907226562,787.7289428710938,786.923095703125
774,793.3699340820312,792.1611938476562,788.937744140625,793.3699340820312
775,792.1611938476562,789.3406372070312,790.952392578125,798.6080322265625
776,793.3699340820312,794.1758422851562,789.3406372070312,796.996337890625
777,797.3992919921875,793.7728881835938,788.5347900390625,803.8461303710938
778,798.2051391601562,793.7728881835938,789.3406372070312,808.6813354492188
779,793.7728881835938,795.7875366210938,792.5640869140625,796.1904907226562
780,791.3552856445312,791.3552856445312,789.7435913085938,796.1904907226562
781,797.3992919921875,792.967041015625,791.3552856445312,800.2197875976562
782,797.8021850585938,793.3699340820312,798.2051391601562,794.981689453125
783,793.3699340820312,790.1465454101562,795.7875366210938,793.7728881835938
784,796.996337890625,794.981689453125,794.1758422851562,795.3846435546875
785,799.4139404296875,801.025634765625,796.5933837890625,793.7728881835938
786,793.7728881835938,796.5933837890625,800.6226806640625,794.1758422851562
787,794.1758422851562,789.7435913085938,796.1904907226562,796.996337890625
788,792.5640869140625,790.1465454101562,791.3552856445312,791.7582397460938
789,788.937744140625,792.5640869140625,794.1758422851562,786.923095703125
790,796.1904907226562,794.981689453125,796.1904907226562,788.5347900390625
791,790.1465454101562,787.7289428710938,794.1758422851562,783.2966918945312
792,783.2966918945312,779.6703491210938,794.5787353515625,781.6849975585938
793,779.6703491210938,779.6703491210938,791.7582397460938,781.6849975585938
794,780.4761962890625,783.2966918945312,790.1465454101562,781.2820434570312
795,789.7435913085938,788.5347900390625,792.5640869140625,786.1171875
796,792.1611938476562,786.5201416015625,790.1465454101562,794.1758422851562
797,790.1465454101562,782.893798828125,788.1318969726562,798.6080322265625
798,785.3113403320312,785.7142944335938,790.5494384765625,786.923095703125
799,792.5640869140625,782.087890625,789.7435913085938,782.4908447265625
800,799.8168334960938,780.4761962890625,787.7289428710938,793.7728881835938
801,797.3992919921875,795.7875366210938,794.1758422851562,799.4139404296875
802,794.981689453125,801.8314819335938,801.025634765625,794.981689453125
803,793.3699340820312,800.2197875976562,802.6373901367188,797.3992919921875
804,792.967041015625,800.2197875976562,799.010986328125,803.040283203125
805,792.967041015625,793.3699340820312,795.7875366210938,793.7728881835938
806,792.5640869140625,794.5787353515625,794.5787353515625,788.5347900390625
807,797.8021850585938,802.6373901367188,795.7875366210938,795.7875366210938
808,800.2197875976562,801.025634765625,797.3992919921875,794.981689453125
809,796.996337890625,797.3992919921875,797.8021850585938,785.7142944335938
810,797.8021850585938,798.6080322265625,800.2197875976562,790.5494384765625
811,796.5933837890625,798.6080322265625,798.2051391601562,794.5787353515625
812,794.981689453125,790.1465454101562,792.967041015625,790.1465454101562
813,795.3846435546875,790.1465454101562,797.3992919921875,785.3113403320312
814,793.7728881835938,794.1758422851562,802.2344360351562,786.5201416015625
815,791.7582397460938,789.7435913085938,798.2051391601562,791.7582397460938
816,792.967041015625,789.3406372070312,797.3992919921875,800.6226806640625
817,794.981689453125,790.952392578125,803.040283203125,802.6373901367188
818,797.8021850585938,790.1465454101562,797.8021850585938,798.2051391601562
819,798.6080322265625,790.952392578125,793.7728881835938,797.3992919921875
820,795.7875366210938,791.7582397460938,799.010986328125,797.3992919921875
821,793.3699340820312,792.967041015625,804.2490844726562,799.010986328125
822,792.5640869140625,792.1611938476562,803.8461303710938,799.010986328125
823,793.7728881835938,790.952392578125,798.6080322265625,798.2051391601562
824,797.3992919921875,786.923095703125,799.4139404296875,802.6373901367188
825,797.3992919921875,782.4908447265625,799.010986328125,800.2197875976562
826,799.8168334960938,788.5347900390625,797.3992919921875,797.8021850585938
827,798.6080322265625,794.1758422851562,794.1758422851562,799.010986328125
828,790.952392578125,792.1611938476562,791.7582397460938,792.967041015625
829,795.3846435546875,793.7728881835938,792.5640869140625,789.3406372070312
830,798.6080322265625,798.2051391601562,793.3699340820312,789.3406372070312
831,794.1758422851562,796.1904907226562,794.1758422851562,790.952392578125
832,795.3846435546875,792.1611938476562,788.1318969726562,793.3699340820312
833,798.2051391601562,786.923095703125,784.908447265625,791.7582397460938
834,799.4139404296875,790.5494384765625,786.5201416015625,792.967041015625
835,799.010986328125,791.7582397460938,793.3699340820312,799.4139404296875
836,799.010986328125,792.1611938476562,794.1758422851562,795.7875366210938
837,799.010986328125,796.996337890625,793.3699340820312,792.967041015625
838,790.5494384765625,793.7728881835938,786.923095703125,790.5494384765625
839,794.1758422851562,792.5640869140625,786.923095703125,799.4139404296875
840,801.8314819335938,795.7875366210938,794.5787353515625,803.4432373046875
841,795.7875366210938,801.4285888671875,789.3406372070312,796.996337890625
842,791.3552856445312,803.040283203125,787.7289428710938,790.952392578125
843,796.5933837890625,800.6226806640625,792.5640869140625,790.1465454101562
844,796.1904907226562,795.7875366210938,794.1758422851562,790.952392578125
845,790.1465454101562,790.1465454101562,796.5933837890625,786.923095703125
846,797.8021850585938,792.5640869140625,796.996337890625,793.7728881835938
847,801.8314819335938,798.2051391601562,795.7875366210938,800.2197875976562
848,794.5787353515625,799.4139404296875,796.1904907226562,796.5933837890625
849,791.3552856445312,794.981689453125,795.7875366210938,796.5933837890625
850,794.981689453125,789.7435913085938,796.996337890625,803.8461303710938
851,793.3699340820312,791.7582397460938,800.6226806640625,805.054931640625
852,791.3552856445312,793.7728881835938,800.2197875976562,802.2344360351562
853,788.937744140625,791.7582397460938,796.996337890625,799.4139404296875
854,783.2966918945312,786.5201416015625,799.010986328125,790.952392578125
855,784.5054931640625,790.952392578125,802.6373901367188,786.923095703125
856,790.952392578125,795.7875366210938,799.4139404296875,784.908447265625
857,794.5787353515625,797.3992919921875,799.4139404296875,784.1025390625
858,792.1611938476562,801.025634765625,802.6373901367188,784.908447265625
859,792.1611938476562,799.8168334960938,801.8314819335938,787.7289428710938
860,797.8021850585938,796.996337890625,800.2197875976562,790.952392578125
861,793.7728881835938,790.5494384765625,803.8461303710938,796.996337890625
862,787.3259887695312,788.5347900390625,801.4285888671875,802.6373901367188
863,786.923095703125,796.1904907226562,800.6226806640625,802.6373901367188
864,789.3406372070312,801.025634765625,800.6226806640625,804.6520385742188
865,791.3552856445312,801.025634765625,790.952392578125,807.87548828125
866,793.3699340820312,801.4285888671875,789.3406372070312,800.6226806640625
867,801.4285888671875,801.8314819335938,796.5933837890625,797.8021850585938
868,804.6520385742188,803.040283203125,799.8168334960938,802.2344360351562
869,802.6373901367188,797.8021850585938,798.6080322265625,801.4285888671875
870,802.2344360351562,795.3846435546875,794.981689453125,797.8021850585938
871,800.2197875976562,799.8168334960938,796.5933837890625,794.5787353515625
872,796.996337890625,795.7875366210938,799.010986328125,788.937744140625
873,792.1611938476562,786.5201416015625,795.3846435546875,794.5787353515625
874,788.5347900390625,783.2966918945312,794.5787353515625,797.8021850585938
875,788.937744140625,784.908447265625,796.5933837890625,787.7289428710938
876,791.3552856445312,788.5347900390625,792.967041015625,788.937744140625
877,799.8168334960938,796.1904907226562,784.908447265625,795.7875366210938
878,796.996337890625,799.010986328125,790.1465454101562,787.3259887695312
879,787.7289428710938,795.3846435546875,796.5933837890625,776.4468994140625
880,791.3552856445312,792.967041015625,796.5933837890625,779.6703491210938
881,792.967041015625,793.3699340820312,795.3846435546875,784.1025390625
882,787.3259887695312,787.7289428710938,791.3552856445312,781.2820434570312
883,787.7289428710938,779.2673950195312,790.952392578125,780.879150390625
884,788.5347900390625,790.1465454101562,792.5640869140625,784.1025390625
885,787.3259887695312,792.5640869140625,790.1465454101562,785.3113403320312
886,789.3406372070312,785.7142944335938,792.1611938476562,782.4908447265625
887,792.5640869140625,792.967041015625,797.3992919921875,780.879150390625
888,790.1465454101562,801.4285888671875,800.6226806640625,782.893798828125
889,791.3552856445312,803.8461303710938,796.996337890625,788.937744140625
890,793.3699340820312,801.4285888671875,791.7582397460938,790.5494384765625
891,793.7728881835938,795.3846435546875,791.7582397460938,791.7582397460938
892,795.7875366210938,792.967041015625,791.7582397460938,803.040283203125
893,797.3992919921875,796.1904907226562,794.5787353515625,805.054931640625
894,787.7289428710938,799.4139404296875,793.3699340820312,794.1758422851562
895,786.1171875,792.5640869140625,792.5640869140625,791.3552856445312
896,796.5933837890625,790.5494384765625,798.6080322265625,796.5933837890625
897,794.981689453125,792.5640869140625,793.7728881835938,790.952392578125
898,785.3113403320312,784.1025390625,791.3552856445312,790.952392578125
899,784.1025390625,785.3113403320312,792.5640869140625,792.1611938476562
900,786.923095703125,790.1465454101562,787.3259887695312,792.5640869140625
901,787.3259887695312,795.3846435546875,792.967041015625,797.8021850585938
902,785.7142944335938,794.5787353515625,792.5640869140625,794.1758422851562
903,784.908447265625,790.1465454101562,787.3259887695312,796.996337890625
904,788.937744140625,787.7289428710938,792.5640869140625,795.7875366210938
905,790.5494384765625,792.1611938476562,794.981689453125,786.1171875
906,789.7435913085938,796.996337890625,791.3552856445312,785.3113403320312
907,786.1171875,790.952392578125,792.1611938476562,783.6996459960938
908,787.3259887695312,788.5347900390625,794.981689453125,776.8497924804688
909,785.7142944335938,791.3552856445312,792.967041015625,776.4468994140625
910,785.7142944335938,783.2966918945312,789.3406372070312,782.087890625
911,792.5640869140625,783.6996459960938,791.3552856445312,788.937744140625
912,792.5640869140625,797.3992919921875,790.5494384765625,794.981689453125
913,791.3552856445312,801.4285888671875,788.937744140625,789.7435913085938
914,790.1465454101562,796.996337890625,793.3699340820312,783.2966918945312
915,788.5347900390625,796.1904907226562,795.7875366210938,786.5201416015625
916,783.6996459960938,794.1758422851562,800.2197875976562,793.7728881835938
917,782.893798828125,786.923095703125,800.6226806640625,795.7875366210938
918,789.3406372070312,788.937744140625,797.8021850585938,799.010986328125
919,787.7289428710938,787.3259887695312,795.3846435546875,802.2344360351562
920,783.2966918945312,781.6849975585938,793.7728881835938,800.6226806640625
921,786.1171875,787.7289428710938,797.8021850585938,791.3552856445312
922,787.7289428710938,788.937744140625,799.010986328125,788.937744140625
923,788.5347900390625,786.1171875,794.981689453125,791.7582397460938
924,788.5347900390625,792.5640869140625,794.5787353515625,793.3699340820312
925,790.5494384765625,795.3846435546875,793.3699340820312,795.7875366210938
926,790.952392578125,789.7435913085938,793.7728881835938,796.5933837890625
927,785.3113403320312,786.5201416015625,793.7728881835938,793.3699340820312
928,782.4908447265625,788.937744140625,793.3699340820312,785.7142944335938
929,788.1318969726562,792.1611938476562,791.7582397460938,788.5347900390625
930,792.967041015625,790.5494384765625,790.1465454101562,785.3113403320312
931,792.5640869140625,785.3113403320312,790.5494384765625,776.4468994140625
932,799.8168334960938,786.1171875,790.952392578125,784.1025390625
933,800.6226806640625,787.7289428710938,791.3552856445312,786.1171875
934,796.1904907226562,788.5347900390625,792.1611938476562,790.1465454101562
935,798.6080322265625,792.1611938476562,788.5347900390625,804.2490844726562
936,795.3846435546875,795.3846435546875,792.967041015625,803.4432373046875
937,792.5640869140625,798.2051391601562,796.5933837890625,801.4285888671875
938,788.937744140625,789.7435913085938,793.3699340820312,803.040283203125
939,791.3552856445312,786.923095703125,788.937744140625,801.8314819335938
940,794.1758422851562,793.7728881835938,785.7142944335938,795.3846435546875
941,788.1318969726562,792.967041015625,787.3259887695312,790.1465454101562
942,787.7289428710938,789.3406372070312,786.5201416015625,800.2197875976562
943,794.981689453125,782.4908447265625,787.7289428710938,803.8461303710938
944,794.5787353515625,778.4615478515625,789.7435913085938,792.1611938476562
945,793.3699340820312,782.4908447265625,793.7728881835938,787.7289428710938
946,789.3406372070312,782.087890625,792.1611938476562,788.937744140625
947,784.908447265625,784.908447265625,788.5347900390625,788.1318969726562
948,788.5347900390625,786.1171875,789.3406372070312,783.2966918945312
949,791.3552856445312,788.937744140625,787.3259887695312,780.879150390625
950,794.5787353515625,795.3846435546875,781.2820434570312,779.6703491210938
951,794.981689453125,793.3699340820312,782.4908447265625,780.4761962890625
952,795.7875366210938,795.7875366210938,787.3259887695312,781.2820434570312
953,799.8168334960938,796.5933837890625,793.3699340820312,783.2966918945312
954,795.3846435546875,788.5347900390625,792.5640869140625,788.5347900390625
955,790.1465454101562,784.1025390625,792.5640869140625,784.1025390625
956,790.952392578125,786.5201416015625,794.981689453125,784.1025390625
957,794.1758422851562,792.5640869140625,793.7728881835938,792.5640869140625
958,794.5787353515625,792.967041015625,793.3699340820312,796.5933837890625
959,792.1611938476562,792.5640869140625,794.981689453125,790.952392578125
960,792.1611938476562,789.3406372070312,796.996337890625,790.1465454101562
961,788.937744140625,790.1465454101562,793.3699340820312,801.025634765625
962,792.1611938476562,790.5494384765625,795.7875366210938,805.054931640625
963,797.3992919921875,792.1611938476562,800.6226806640625,801.025634765625
964,793.3699340820312,790.5494384765625,796.996337890625,799.4139404296875
965,786.5201416015625,789.7435913085938,796.996337890625,797.3992919921875
966,783.2966918945312,786.923095703125,796.996337890625,796.5933837890625
967,784.5054931640625,781.6849975585938,792.967041015625,795.3846435546875
968,782.893798828125,784.908447265625,792.5640869140625,791.7582397460938
969,781.6849975585938,793.7728881835938,791.7582397460938,790.5494384765625
970,785.7142944335938,791.7582397460938,793.7728881835938,788.1318969726562
971,787.3259887695312,786.5201416015625,795.3846435546875,785.7142944335938
972,790.1465454101562,790.952392578125,794.981689453125,787.3259887695312
973,795.3846435546875,788.937744140625,795.3846435546875,794.1758422851562
974,796.5933837890625,788.937744140625,792.1611938476562,787.3259887695312
975,800.2197875976562,790.952392578125,790.5494384765625,780.0732421875
976,801.4285888671875,789.7435913085938,786.923095703125,787.7289428710938
977,799.8168334960938,791.3552856445312,786.5201416015625,793.3699340820312
978,801.4285888671875,790.952392578125,795.7875366210938,792.5640869140625
979,801.4285888671875,796.996337890625,796.5933837890625,794.5787353515625
980,811.5018310546875,801.025634765625,797.3992919921875,808.2783813476562
981,813.113525390625,789.7435913085938,796.5933837890625,814.3223266601562
982,791.7582397460938,786.923095703125,792.5640869140625,790.5494384765625
983,778.8644409179688,782.893798828125,792.1611938476562,777.6557006835938
984,780.879150390625,779.6703491210938,786.5201416015625,780.4761962890625
985,793.3699340820312,788.5347900390625,784.5054931640625,784.1025390625
986,792.967041015625,794.981689453125,788.1318969726562,783.2966918945312
987,786.5201416015625,796.996337890625,792.1611938476562,782.087890625
988,786.923095703125,793.3699340820312,793.7728881835938,788.937744140625
989,781.6849975585938,791.7582397460938,794.5787353515625,786.5201416015625
990,787.3259887695312,794.1758422851562,800.2197875976562,785.3113403320312
991,794.5787353515625,792.5640869140625,798.6080322265625,789.3406372070312
992,792.967041015625,785.7142944335938,794.1758422851562,789.7435913085938
993,796.1904907226562,786.923095703125,796.5933837890625,794.5787353515625
994,791.7582397460938,795.7875366210938,800.6226806640625,790.5494384765625
995,790.5494384765625,792.967041015625,803.4432373046875,792.967041015625
996,794.981689453125,793.3699340820312,801.4285888671875,790.952392578125
997,788.937744140625,796.996337890625,797.8021850585938,780.879150390625
998,788.937744140625,796.1904907226562,798.6080322265625,780.4761962890625
999,788.937744140625,794.5787353515625,799.010986328125,783.2966918945312
1000,786.1171875,792.967041015625,799.8168334960938,786.1171875
1001,784.908447265625,792.1611938476562,799.8168334960938,788.937744140625
1002,782.4908447265625,789.3406372070312,796.5933837890625,791.3552856445312
1003,784.5054931640625,785.7142944335938,797.3992919921875,790.952392578125
1004,790.5494384765625,785.7142944335938,796.1904907226562,792.5640869140625
1005,787.3259887695312,793.3699340820312,799.4139404296875,790.5494384765625
1006,788.1318969726562,799.4139404296875,803.8461303710938,791.7582397460938
1007,796.5933837890625,795.7875366210938,796.996337890625,799.8168334960938
1008,795.3846435546875,792.5640869140625,798.2051391601562,799.8168334960938
1009,794.5787353515625,792.5640869140625,803.4432373046875,796.5933837890625
1010,796.996337890625,795.7875366210938,805.8607788085938,801.4285888671875
1011,794.1758422851562,791.7582397460938,802.2344360351562,800.2197875976562
1012,796.1904907226562,786.923095703125,799.010986328125,800.6226806640625
1013,801.025634765625,792.967041015625,801.8314819335938,799.010986328125
1014,800.6226806640625,799.8168334960938,802.2344360351562,802.6373901367188
1015,801.4285888671875,798.2051391601562,797.8021850585938,810.6959838867188
1016,796.5933837890625,795.7875366210938,792.5640869140625,797.8021850585938
1017,796.1904907226562,800.6226806640625,793.3699340820312,792.1611938476562
1018,795.3846435546875,801.8314819335938,792.967041015625,791.3552856445312
1019,793.7728881835938,797.8021850585938,788.937744140625,793.7728881835938
1020,797.3992919921875,790.1465454101562,793.7728881835938,799.010986328125
1021,802.2344360351562,790.5494384765625,798.2051391601562,798.6080322265625
1022,803.040283203125,790.5494384765625,795.7875366210938,803.040283203125
1023,798.6080322265625,788.937744140625,796.996337890625,806.6666870117188
1024,792.1611938476562,788.5347900390625,800.2197875976562,802.2344360351562
1025,783.6996459960938,794.5787353515625,794.981689453125,794.981689453125
1026,784.908447265625,793.7728881835938,787.7289428710938,790.5494384765625
1027,789.7435913085938,785.3113403320312,784.908447265625,791.3552856445312
1028,787.7289428710938,785.3113403320312,788.5347900390625,788.5347900390625
1029,785.3113403320312,792.967041015625,789.7435913085938,784.5054931640625
1030,788.1318969726562,791.3552856445312,789.7435913085938,787.7289428710938
1031,790.952392578125,784.908447265625,791.7582397460938,798.6080322265625
1032,789.3406372070312,792.5640869140625,794.1758422851562,793.3699340820312
1033,789.3406372070312,801.025634765625,795.7875366210938,787.3259887695312
1034,788.5347900390625,803.4432373046875,792.5640869140625,790.952392578125
1035,789.3406372070312,800.2197875976562,790.952392578125,794.5787353515625
1036,792.5640869140625,794.1758422851562,794.5787353515625,799.8168334960938
1037,794.1758422851562,796.996337890625,797.8021850585938,799.4139404296875
1038,796.5933837890625,799.4139404296875,795.3846435546875,795.3846435546875
1039,798.6080322265625,799.4139404296875,798.2051391601562,789.3406372070312
1040,796.1904907226562,796.996337890625,797.8021850585938,787.7289428710938
1041,799.4139404296875,798.2051391601562,794.981689453125,791.3552856445312
1042,808.6813354492188,805.8607788085938,796.5933837890625,799.010986328125
1043,802.6373901367188,806.6666870117188,800.2197875976562,794.981689453125
1044,796.1904907226562,802.6373901367188,800.6226806640625,789.3406372070312
1045,797.3992919921875,799.8168334960938,798.6080322265625,796.1904907226562
1046,798.6080322265625,794.981689453125,799.010986328125,802.2344360351562
1047,799.010986328125,790.952392578125,798.2051391601562,799.010986328125
1048,792.1611938476562,789.7435913085938,796.996337890625,797.3992919921875
1049,789.7435913085938,794.1758422851562,799.010986328125,801.4285888671875
1050,793.7728881835938,799.4139404296875,802.2344360351562,799.8168334960938
1051,796.996337890625,796.1904907226562,801.025634765625,799.8168334960938
1052,796.1904907226562,796.1904907226562,796.1904907226562,798.6080322265625
1053,796.5933837890625,796.1904907226562,794.1758422851562,797.3992919921875
1054,797.8021850585938,790.5494384765625,794.1758422851562,801.4285888671875
1055,792.5640869140625,792.967041015625,789.7435913085938,793.3699340820312
1056,792.5640869140625,796.996337890625,792.967041015625,792.1611938476562
1057,793.7728881835938,791.3552856445312,801.8314819335938,789.3406372070312
1058,792.5640869140625,796.996337890625,800.2197875976562,782.4908447265625
1059,788.937744140625,800.6226806640625,796.996337890625,784.5054931640625
1060,784.908447265625,795.7875366210938,794.981689453125,777.6557006835938
1061,790.1465454101562,788.937744140625,794.1758422851562,777.2527465820312
1062,789.7435913085938,784.908447265625,792.5640869140625,782.4908447265625
1063,783.6996459960938,786.923095703125,789.7435913085938,780.4761962890625
1064,785.7142944335938,787.3259887695312,789.3406372070312,778.8644409179688
1065,789.7435913085938,786.1171875,789.7435913085938,790.1465454101562
1066,790.1465454101562,785.7142944335938,794.5787353515625,796.996337890625
1067,788.937744140625,789.7435913085938,794.981689453125,785.7142944335938
1068,786.923095703125,792.967041015625,792.5640869140625,785.7142944335938
1069,786.5201416015625,792.1611938476562,792.1611938476562,789.3406372070312
1070,792.1611938476562,800.2197875976562,794.1758422851562,789.7435913085938
1071,792.1611938476562,801.8314819335938,796.5933837890625,785.3113403320312
1072,789.7435913085938,794.1758422851562,791.3552856445312,783.2966918945312
1073,792.1611938476562,791.7582397460938,793.3699340820312,792.967041015625
1074,794.1758422851562,796.996337890625,797.3992919921875,794.5787353515625
1075,794.1758422851562,802.2344360351562,790.952392578125,790.952392578125
1076,796.996337890625,796.5933837890625,787.3259887695312,789.7435913085938
1077,801.8314819335938,789.7435913085938,786.5201416015625,796.1904907226562
1078,795.3846435546875,796.996337890625,789.3406372070312,794.981689453125
1079,790.952392578125,799.8168334960938,791.3552856445312,795.3846435546875
1080,789.7435913085938,795.7875366210938,795.3846435546875,796.996337890625
1081,789.3406372070312,795.7875366210938,799.4139404296875,801.025634765625
1082,794.5787353515625,790.952392578125,799.010986328125,801.8314819335938
1083,792.967041015625,786.923095703125,794.5787353515625,791.3552856445312
1084,792.1611938476562,792.1611938476562,792.1611938476562,789.7435913085938
1085,788.1318969726562,794.1758422851562,795.7875366210938,794.5787353515625
1086,784.908447265625,792.967041015625,792.1611938476562,793.3699340820312
1087,791.7582397460938,794.1758422851562,788.937744140625,792.1611938476562
1088,788.937744140625,786.923095703125,789.7435913085938,795.3846435546875
1089,784.908447265625,787.7289428710938,790.1465454101562,798.6080322265625
1090,788.1318969726562,795.7875366210938,792.5640869140625,793.3699340820312
1091,790.952392578125,792.967041015625,797.3992919921875,793.3699340820312
1092,793.7728881835938,786.5201416015625,794.981689453125,797.8021850585938
1093,787.3259887695312,781.6849975585938,792.5640869140625,794.981689453125
1094,786.923095703125,785.3113403320312,797.3992919921875,791.3552856445312
1095,789.7435913085938,789.3406372070312,799.4139404296875,791.3552856445312
1096,794.981689453125,794.5787353515625,796.5933837890625,793.7728881835938
1097,796.996337890625,789.7435913085938,794.1758422851562,795.7875366210938
1098,791.7582397460938,790.1465454101562,792.1611938476562,792.967041015625
1099,791.3552856445312,794.1758422851562,791.3552856445312,799.4139404296875
1100,793.3699340820312,790.1465454101562,793.3699340820312,802.6373901367188
1101,794.981689453125,791.7582397460938,793.3699340820312,795.3846435546875
1102,796.5933837890625,795.3846435546875,792.5640869140625,788.1318969726562
1103,796.5933837890625,793.7728881835938,787.7289428710938,786.1171875
1104,794.981689453125,792.1611938476562,787.3259887695312,794.981689453125
1105,789.3406372070312,795.7875366210938,793.7728881835938,793.3699340820312
1106,789.7435913085938,796.1904907226562,793.3699340820312,784.1025390625
1107,791.7582397460938,794.5787353515625,794.5787353515625,778.8644409179688
1108,784.5054931640625,795.3846435546875,797.3992919921875,784.1025390625
1109,783.2966918945312,797.8021850585938,796.1904907226562,788.1318969726562
1110,789.3406372070312,798.2051391601562,795.3846435546875,787.3259887695312
1111,791.3552856445312,799.4139404296875,793.7728881835938,794.981689453125
1112,793.7728881835938,796.1904907226562,792.967041015625,797.3992919921875
1113,794.981689453125,794.981689453125,792.967041015625,794.981689453125
1114,794.1758422851562,800.6226806640625,789.3406372070312,796.996337890625
1115,800.6226806640625,795.3846435546875,791.3552856445312,802.6373901367188
1116,803.4432373046875,797.8021850585938,797.8021850585938,805.8607788085938
1117,799.8168334960938,796.5933837890625,797.8021850585938,801.025634765625
1118,802.6373901367188,787.3259887695312,800.2197875976562,799.010986328125
1119,800.2197875976562,792.1611938476562,796.996337890625,791.7582397460938
1120,792.1611938476562,796.5933837890625,794.981689453125,784.1025390625
1121,794.981689453125,796.996337890625,794.981689453125,790.1465454101562
1122,802.2344360351562,797.8021850585938,791.3552856445312,788.1318969726562
1123,798.6080322265625,792.1611938476562,792.1611938476562,782.893798828125
1124,792.967041015625,792.1611938476562,791.7582397460938,784.1025390625
1125,793.3699340820312,792.1611938476562,794.981689453125,782.893798828125
1126,793.7728881835938,789.7435913085938,794.5787353515625,786.923095703125
1127,794.5787353515625,784.908447265625,790.1465454101562,794.5787353515625
1128,793.7728881835938,781.6849975585938,796.5933837890625,789.3406372070312
1129,794.1758422851562,793.7728881835938,802.2344360351562,786.1171875
1130,799.010986328125,801.4285888671875,799.8168334960938,796.5933837890625
1131,800.6226806640625,798.2051391601562,796.1904907226562,801.025634765625
1132,793.7728881835938,796.996337890625,793.3699340820312,794.1758422851562
1133,788.937744140625,793.3699340820312,792.967041015625,793.3699340820312
1134,790.952392578125,790.5494384765625,795.7875366210938,799.010986328125
1135,792.967041015625,793.7728881835938,795.7875366210938,800.6226806640625
1136,795.3846435546875,794.1758422851562,795.3846435546875,805.054931640625
1137,789.3406372070312,795.3846435546875,798.6080322265625,804.6520385742188
1138,790.5494384765625,793.3699340820312,798.2051391601562,810.2930297851562
1139,796.1904907226562,786.5201416015625,799.010986328125,809.89013671875
1140,794.1758422851562,788.5347900390625,800.2197875976562,799.8168334960938
1141,791.7582397460938,790.5494384765625,795.7875366210938,800.6226806640625
1142,790.1465454101562,792.1611938476562,796.5933837890625,800.2197875976562
1143,788.1318969726562,795.7875366210938,794.981689453125,793.7728881835938
1144,789.3406372070312,794.1758422851562,791.3552856445312,785.3113403320312
1145,792.967041015625,792.5640869140625,794.981689453125,785.7142944335938
1146,792.5640869140625,795.7875366210938,792.967041015625,791.3552856445312
1147,790.1465454101562,797.8021850585938,790.952392578125,790.952392578125
1148,791.3552856445312,796.996337890625,792.1611938476562,790.952392578125
1149,792.1611938476562,790.5494384765625,791.3552856445312,791.3552856445312
1150,788.937744140625,782.4908447265625,795.3846435546875,794.981689453125
1151,790.5494384765625,789.3406372070312,800.2197875976562,792.5640869140625
1152,794.5787353515625,802.6373901367188,796.1904907226562,790.952392578125
1153,792.967041015625,803.040283203125,794.5787353515625,791.3552856445312
1154,791.7582397460938,796.5933837890625,799.010986328125,794.1758422851562
1155,789.3406372070312,796.996337890625,799.010986328125,793.3699340820312
1156,785.7142944335938,798.2051391601562,796.5933837890625,791.7582397460938
1157,785.7142944335938,798.2051391601562,796.1904907226562,788.937744140625
1158,788.937744140625,798.6080322265625,794.1758422851562,787.3259887695312
1159,785.7142944335938,793.7728881835938,789.3406372070312,788.5347900390625
1160,781.2820434570312,793.3699340820312,785.3113403320312,785.7142944335938
1161,786.5201416015625,787.7289428710938,786.1171875,794.981689453125
1162,786.1171875,781.2820434570312,787.7289428710938,800.2197875976562
1163,788.937744140625,794.1758422851562,791.7582397460938,793.3699340820312
1164,799.8168334960938,798.6080322265625,796.1904907226562,795.7875366210938
1165,798.6080322265625,802.6373901367188,799.010986328125,800.6226806640625
1166,798.2051391601562,807.87548828125,803.040283203125,797.8021850585938
1167,792.1611938476562,808.2783813476562,801.025634765625,791.3552856445312
1168,792.1611938476562,803.4432373046875,796.1904907226562,790.5494384765625
1169,794.1758422851562,791.3552856445312,793.3699340820312,791.7582397460938
1170,788.937744140625,794.1758422851562,790.952392578125,786.5201416015625
1171,788.5347900390625,801.025634765625,792.1611938476562,785.7142944335938
1172,793.7728881835938,800.2197875976562,792.967041015625,790.952392578125
1173,795.7875366210938,794.981689453125,788.1318969726562,795.7875366210938
1174,792.967041015625,792.5640869140625,792.5640869140625,792.5640869140625
1175,796.996337890625,791.7582397460938,799.010986328125,793.3699340820312
1176,798.6080322265625,784.908447265625,797.3992919921875,793.3699340820312
1177,793.3699340820312,790.952392578125,792.1611938476562,788.1318969726562
1178,790.952392578125,799.8168334960938,795.3846435546875,788.1318969726562
1179,790.952392578125,798.2051391601562,794.981689453125,787.7289428710938
1180,791.3552856445312,794.5787353515625,790.1465454101562,791.7582397460938
1181,792.1611938476562,795.3846435546875,792.5640869140625,794.981689453125
1182,792.1611938476562,797.8021850585938,794.1758422851562,794.1758422851562
1183,795.7875366210938,797.8021850585938,797.3992919921875,798.2051391601562
1184,801.8314819335938,797.3992919921875,799.8168334960938,801.025634765625
1185,798.2051391601562,790.5494384765625,800.6226806640625,801.025634765625
1186,790.952392578125,779.6703491210938,802.2344360351562,796.1904907226562
1187,792.5640869140625,782.4908447265625,802.2344360351562,797.3992919921875
1188,797.3992919921875,791.7582397460938,804.6520385742188,804.2490844726562
1189,796.1904907226562,794.1758422851562,803.8461303710938,794.981689453125
1190,792.967041015625,794.5787353515625,799.4139404296875,794.1758422851562
1191,789.3406372070312,792.5640869140625,799.4139404296875,801.025634765625
1192,786.5201416015625,793.3699340820312,797.3992919921875,793.3699340820312
1193,785.3113403320312,793.7728881835938,795.7875366210938,790.5494384765625
1194,791.3552856445312,786.5201416015625,796.996337890625,791.3552856445312
1195,792.967041015625,782.893798828125,793.3699340820312,794.5787353515625
1196,790.1465454101562,784.908447265625,789.3406372070312,800.6226806640625
1197,791.3552856445312,783.6996459960938,793.3699340820312,796.1904907226562
1198,791.7582397460938,781.2820434570312,796.1904907226562,788.5347900390625
1199,790.1465454101562,784.1025390625,787.7289428710938,786.5201416015625
1200,790.1465454101562,787.3259887695312,786.923095703125,791.3552856445312
1201,786.1171875,792.1611938476562,793.7728881835938,784.908447265625
1202,789.7435913085938,792.5640869140625,790.5494384765625,782.087890625
1203,792.967041015625,788.937744140625,786.5201416015625,793.7728881835938
1204,788.937744140625,790.952392578125,788.5347900390625,793.7728881835938
1205,786.923095703125,793.3699340820312,787.7289428710938,787.7289428710938
1206,786.1171875,790.1465454101562,791.3552856445312,791.3552856445312
1207,791.3552856445312,793.7728881835938,793.3699340820312,803.4432373046875
1208,794.981689453125,796.5933837890625,789.3406372070312,803.8461303710938
1209,792.967041015625,793.3699340820312,791.7582397460938,790.952392578125
1210,790.1465454101562,786.923095703125,796.5933837890625,787.7289428710938
1211,790.1465454101562,782.893798828125,796.5933837890625,786.5201416015625
1212,793.3699340820312,788.5347900390625,791.3552856445312,783.6996459960938
1213,795.3846435546875,796.5933837890625,792.1611938476562,786.5201416015625
1214,793.7728881835938,797.3992919921875,800.6226806640625,794.981689453125
1215,794.1758422851562,798.2051391601562,803.8461303710938,798.2051391601562
1216,786.5201416015625,801.025634765625,801.4285888671875,791.3552856445312
1217,784.5054931640625,796.5933837890625,798.6080322265625,784.1025390625
1218,791.7582397460938,795.3846435546875,796.1904907226562,782.893798828125
1219,793.3699340820312,794.5787353515625,792.967041015625,787.7289428710938
1220,792.967041015625,790.5494384765625,792.967041015625,793.3699340820312
1221,787.3259887695312,787.3259887695312,793.3699340820312,797.3992919921875
1222,784.1025390625,789.3406372070312,792.1611938476562,801.8314819335938
1223,785.3113403320312,796.5933837890625,792.1611938476562,808.2783813476562
1224,791.3552856445312,802.6373901367188,797.3992919921875,803.8461303710938
1225,795.7875366210938,805.8607788085938,794.5787353515625,803.8461303710938
1226,793.7728881835938,806.6666870117188,788.1318969726562,801.4285888671875
1227,791.7582397460938,804.2490844726562,796.5933837890625,791.3552856445312
1228,793.3699340820312,796.5933837890625,796.5933837890625,785.7142944335938
1229,797.8021850585938,795.7875366210938,785.7142944335938,785.3113403320312
1230,799.8168334960938,797.3992919921875,790.1465454101562,786.923095703125
1231,794.981689453125,795.7875366210938,793.7728881835938,786.923095703125
1232,791.3552856445312,796.5933837890625,793.7728881835938,787.3259887695312
1233,792.1611938476562,796.1904907226562,795.7875366210938,788.1318969726562
1234,792.5640869140625,798.2051391601562,792.5640869140625,794.981689453125
1235,792.1611938476562,797.3992919921875,792.1611938476562,793.3699340820312
1236,796.1904907226562,794.5787353515625,794.1758422851562,790.1465454101562
1237,792.1611938476562,791.7582397460938,789.3406372070312,790.1465454101562
1238,786.5201416015625,794.981689453125,782.4908447265625,786.5201416015625
1239,795.7875366210938,797.3992919921875,789.7435913085938,793.7728881835938
1240,794.5787353515625,791.7582397460938,794.981689453125,788.937744140625
1241,788.1318969726562,798.2051391601562,789.7435913085938,778.4615478515625
1242,787.3259887695312,795.7875366210938,790.952392578125,781.6849975585938
1243,789.3406372070312,794.5787353515625,790.1465454101562,784.1025390625
1244,792.967041015625,800.6226806640625,788.937744140625,785.7142944335938
1245,794.5787353515625,793.3699340820312,792.5640869140625,792.967041015625
1246,798.6080322265625,786.1171875,792.5640869140625,805.054931640625
1247,792.967041015625,791.3552856445312,794.5787353515625,800.6226806640625
1248,789.3406372070312,796.5933837890625,796.5933837890625,794.1758422851562
1249,799.4139404296875,790.952392578125,791.7582397460938,795.7875366210938
1250,802.2344360351562,788.5347900390625,791.3552856445312,795.3846435546875
1251,798.6080322265625,791.7582397460938,793.3699340820312,793.3699340820312
1252,796.1904907226562,784.1025390625,788.937744140625,788.937744140625
1253,795.7875366210938,784.908447265625,788.937744140625,787.3259887695312
1254,793.3699340820312,796.5933837890625,792.1611938476562,792.5640869140625
1255,791.3552856445312,790.1465454101562,795.3846435546875,793.7728881835938
1256,795.7875366210938,788.5347900390625,793.3699340820312,792.1611938476562
1257,796.1904907226562,792.967041015625,786.5201416015625,796.1904907226562
1258,791.3552856445312,794.5787353515625,788.1318969726562,790.5494384765625
1259,786.1171875,793.7728881835938,792.967041015625,774.4322509765625
1260,792.1611938476562,792.967041015625,794.981689453125,785.3113403320312
1261,792.5640869140625,793.7728881835938,792.5640869140625,800.2197875976562
1262,788.1318969726562,790.952392578125,792.1611938476562,792.967041015625
1263,789.7435913085938,784.908447265625,789.7435913085938,784.5054931640625
1264,787.7289428710938,782.4908447265625,793.3699340820312,787.7289428710938
1265,785.7142944335938,780.4761962890625,794.981689453125,788.937744140625
1266,789.7435913085938,790.5494384765625,793.3699340820312,790.1465454101562
1267,788.5347900390625,799.8168334960938,792.1611938476562,792.5640869140625
1268,791.3552856445312,794.981689453125,788.5347900390625,793.7728881835938
1269,796.5933837890625,789.7435913085938,790.1465454101562,802.2344360351562
1270,795.7875366210938,797.8021850585938,795.3846435546875,794.1758422851562
1271,792.5640869140625,799.010986328125,796.996337890625,787.7289428710938
1272,791.3552856445312,790.1465454101562,792.5640869140625,795.3846435546875
1273,787.3259887695312,790.952392578125,793.3699340820312,798.2051391601562
1274,788.5347900390625,796.996337890625,796.996337890625,796.5933837890625
1275,797.3992919921875,794.5787353515625,796.996337890625,794.981689453125
1276,801.025634765625,791.3552856445312,794.5787353515625,787.3259887695312
1277,797.3992919921875,788.937744140625,792.5640869140625,781.2820434570312
1278,792.1611938476562,790.5494384765625,792.967041015625,781.6849975585938
1279,790.952392578125,793.3699340820312,790.5494384765625,773.2234497070312
1280,794.981689453125,791.7582397460938,791.3552856445312,778.4615478515625
1281,796.996337890625,795.7875366210938,793.7728881835938,789.7435913085938
1282,790.5494384765625,797.8021850585938,793.7728881835938,794.5787353515625
1283,787.7289428710938,796.5933837890625,794.981689453125,799.8168334960938
1284,795.7875366210938,796.996337890625,800.2197875976562,805.054931640625
1285,794.5787353515625,798.2051391601562,805.8607788085938,802.6373901367188
1286,792.967041015625,794.981689453125,808.6813354492188,797.3992919921875
1287,794.981689453125,789.7435913085938,804.2490844726562,795.7875366210938
1288,791.7582397460938,788.5347900390625,800.2197875976562,792.1611938476562
1289,796.5933837890625,792.1611938476562,800.2197875976562,793.3699340820312
1290,799.4139404296875,800.2197875976562,801.8314819335938,794.1758422851562
1291,795.3846435546875,799.010986328125,798.6080322265625,794.5787353515625
1292,798.2051391601562,801.4285888671875,796.5933837890625,799.010986328125
1293,798.6080322265625,808.2783813476562,799.010986328125,789.7435913085938
1294,801.025634765625,804.2490844726562,796.996337890625,787.3259887695312
1295,803.040283203125,801.8314819335938,796.1904907226562,797.8021850585938
1296,795.3846435546875,801.8314819335938,800.6226806640625,796.5933837890625
1297,794.5787353515625,794.1758422851562,802.2344360351562,793.7728881835938
1298,791.7582397460938,794.1758422851562,798.2051391601562,793.3699340820312
1299,791.7582397460938,799.4139404296875,792.5640869140625,790.1465454101562
1300,792.967041015625,793.3699340820312,792.1611938476562,788.5347900390625
1301,787.3259887695312,794.5787353515625,792.5640869140625,785.7142944335938
1302,784.5054931640625,802.2344360351562,790.952392578125,787.3259887695312
1303,785.7142944335938,801.8314819335938,792.5640869140625,797.8021850585938
1304,784.5054931640625,795.7875366210938,794.981689453125,796.996337890625
1305,783.6996459960938,790.952392578125,796.996337890625,785.3113403320312
1306,784.5054931640625,791.3552856445312,795.7875366210938,788.937744140625
1307,786.923095703125,788.937744140625,794.5787353515625,795.3846435546875
1308,784.908447265625,791.3552856445312,790.5494384765625,790.1465454101562
1309,784.5054931640625,792.1611938476562,791.7582397460938,787.3259887695312
1310,787.7289428710938,784.5054931640625,798.2051391601562,783.2966918945312
1311,791.3552856445312,788.5347900390625,796.5933837890625,782.893798828125
1312,792.5640869140625,794.981689453125,793.7728881835938,781.6849975585938
1313,792.967041015625,791.3552856445312,794.5787353515625,781.6849975585938
1314,791.7582397460938,794.981689453125,796.5933837890625,789.3406372070312
1315,788.5347900390625,796.1904907226562,796.996337890625,791.7582397460938
1316,788.937744140625,795.7875366210938,788.937744140625,795.3846435546875
1317,794.981689453125,794.981689453125,787.7289428710938,792.967041015625
1318,797.3992919921875,784.5054931640625,795.7875366210938,792.1611938476562
1319,790.5494384765625,786.1171875,791.7582397460938,793.7728881835938
1320,783.6996459960938,796.5933837890625,789.7435913085938,789.7435913085938
1321,792.1611938476562,793.7728881835938,793.3699340820312,793.3699340820312
1322,797.8021850585938,788.937744140625,798.2051391601562,793.7728881835938
1323,798.2051391601562,791.7582397460938,797.8021850585938,789.3406372070312
1324,799.4139404296875,797.3992919921875,797.3992919921875,790.952392578125
1325,791.7582397460938,788.937744140625,795.7875366210938,790.1465454101562
1326,789.3406372070312,788.937744140625,788.937744140625,788.937744140625
1327,795.3846435546875,794.1758422851562,785.7142944335938,791.7582397460938
1328,801.025634765625,794.5787353515625,796.996337890625,798.6080322265625
1329,803.4432373046875,795.7875366210938,808.2783813476562,807.4725341796875
1330,801.025634765625,789.3406372070312,802.6373901367188,808.6813354492188
1331,801.8314819335938,792.1611938476562,794.5787353515625,805.054931640625
1332,811.098876953125,797.8021850585938,791.7582397460938,806.6666870117188
1333,812.3076782226562,797.3992919921875,798.2051391601562,809.4871826171875
1334,797.8021850585938,796.5933837890625,802.6373901367188,795.7875366210938
1335,792.5640869140625,793.7728881835938,799.8168334960938,784.908447265625
1336,798.6080322265625,790.5494384765625,799.010986328125,786.5201416015625
1337,803.4432373046875,792.967041015625,800.2197875976562,792.1611938476562
1338,797.8021850585938,798.2051391601562,803.4432373046875,792.5640869140625
1339,791.7582397460938,788.5347900390625,803.8461303710938,795.3846435546875
1340,788.937744140625,778.8644409179688,798.2051391601562,794.1758422851562
1341,783.6996459960938,784.908447265625,793.3699340820312,787.3259887695312
1342,784.908447265625,791.3552856445312,792.5640869140625,792.5640869140625
1343,782.893798828125,791.3552856445312,794.5787353515625,790.5494384765625
1344,785.7142944335938,792.1611938476562,796.5933837890625,786.5201416015625
1345,790.5494384765625,792.1611938476562,788.937744140625,785.3113403320312
1346,788.5347900390625,789.7435913085938,787.7289428710938,785.7142944335938
1347,789.7435913085938,790.952392578125,794.1758422851562,786.5201416015625
1348,790.1465454101562,790.1465454101562,796.1904907226562,788.1318969726562
1349,786.1171875,782.087890625,794.5787353515625,790.952392578125
1350,792.967041015625,781.6849975585938,800.2197875976562,796.1904907226562
1351,799.4139404296875,791.7582397460938,801.4285888671875,800.2197875976562
1352,792.5640869140625,795.3846435546875,796.5933837890625,793.7728881835938
1353,790.1465454101562,796.5933837890625,797.8021850585938,791.7582397460938
1354,795.7875366210938,797.8021850585938,803.040283203125,798.6080322265625
1355,793.3699340820312,797.3992919921875,800.6226806640625,793.3699340820312
1356,787.7289428710938,788.1318969726562,795.7875366210938,785.3113403320312
1357,788.1318969726562,786.1171875,793.3699340820312,790.5494384765625
1358,792.5640869140625,792.1611938476562,794.1758422851562,794.5787353515625
1359,794.981689453125,787.3259887695312,797.8021850585938,791.3552856445312
1360,787.7289428710938,786.5201416015625,795.7875366210938,790.952392578125
1361,788.5347900390625,795.7875366210938,795.7875366210938,796.996337890625
1362,791.7582397460938,800.6226806640625,796.996337890625,801.8314819335938
1363,792.967041015625,795.7875366210938,799.010986328125,799.8168334960938
1364,796.996337890625,796.1904907226562,799.8168334960938,799.010986328125
1365,795.3846435546875,799.010986328125,796.996337890625,804.2490844726562
1366,786.1171875,793.3699340820312,798.2051391601562,797.3992919921875
1367,786.1171875,794.981689453125,797.8021850585938,794.5787353515625
1368,788.5347900390625,789.3406372070312,793.7728881835938,796.996337890625
1369,786.923095703125,790.5494384765625,792.967041015625,795.7875366210938
1370,788.5347900390625,794.5787353515625,798.6080322265625,794.5787353515625
1371,788.937744140625,790.5494384765625,795.7875366210938,791.7582397460938
1372,788.937744140625,792.5640869140625,788.937744140625,783.6996459960938
1373,790.1465454101562,794.1758422851562,792.967041015625,782.087890625
1374,788.5347900390625,794.981689453125,796.1904907226562,790.5494384765625
1375,790.5494384765625,791.3552856445312,794.1758422851562,793.7728881835938
1376,789.7435913085938,784.1025390625,792.967041015625,795.3846435546875
1377,783.2966918945312,786.5201416015625,792.967041015625,796.996337890625
1378,780.4761962890625,794.1758422851562,794.981689453125,794.1758422851562
1379,785.3113403320312,797.3992919921875,799.8168334960938,795.3846435546875
1380,786.1171875,792.967041015625,794.981689453125,793.7728881835938
1381,782.893798828125,793.7728881835938,794.5787353515625,790.5494384765625
1382,782.893798828125,794.1758422851562,791.3552856445312,788.5347900390625
1383,788.5347900390625,790.952392578125,787.3259887695312,787.3259887695312
1384,791.3552856445312,790.952392578125,792.1611938476562,784.908447265625
1385,794.5787353515625,797.8021850585938,792.5640869140625,785.3113403320312
1386,792.1611938476562,796.996337890625,789.7435913085938,790.952392578125
1387,788.5347900390625,793.3699340820312,787.3259887695312,791.3552856445312
1388,792.1611938476562,797.3992919921875,785.7142944335938,798.2051391601562
1389,792.967041015625,798.2051391601562,785.7142944335938,797.8021850585938
1390,793.7728881835938,792.5640869140625,790.5494384765625,790.5494384765625
1391,794.981689453125,789.3406372070312,790.1465454101562,790.952392578125
1392,797.8021850585938,795.7875366210938,788.937744140625,788.937744140625
1393,795.7875366210938,798.6080322265625,790.5494384765625,788.1318969726562
1394,791.3552856445312,798.2051391601562,788.937744140625,785.7142944335938
1395,795.7875366210938,792.5640869140625,791.3552856445312,786.1171875
1396,796.1904907226562,786.5201416015625,789.3406372070312,787.7289428710938
1397,791.3552856445312,782.893798828125,785.3113403320312,784.908447265625
1398,791.3552856445312,784.5054931640625,788.1318969726562,793.7728881835938
1399,790.5494384765625,789.7435913085938,787.7289428710938,801.025634765625
1400,789.3406372070312,789.7435913085938,789.3406372070312,796.996337890625
1401,793.7728881835938,794.1758422851562,794.981689453125,794.1758422851562
1402,786.923095703125,800.2197875976562,794.5787353515625,792.967041015625
1403,790.1465454101562,794.981689453125,793.7728881835938,803.4432373046875
1404,794.1758422851562,788.1318969726562,798.2051391601562,799.010986328125
1405,788.937744140625,787.3259887695312,799.8168334960938,786.5201416015625
1406,790.952392578125,790.1465454101562,795.7875366210938,788.1318969726562
1407,793.3699340820312,792.5640869140625,796.996337890625,796.5933837890625
1408,792.5640869140625,792.967041015625,794.5787353515625,803.040283203125
1409,793.7728881835938,795.7875366210938,795.3846435546875,800.2197875976562
1410,795.3846435546875,796.996337890625,798.6080322265625,794.5787353515625
1411,795.3846435546875,801.025634765625,795.7875366210938,793.3699340820312
1412,796.996337890625,797.8021850585938,802.6373901367188,796.1904907226562
1413,797.8021850585938,791.3552856445312,803.4432373046875,793.7728881835938
1414,798.6080322265625,789.3406372070312,791.7582397460938,794.5787353515625
1415,797.8021850585938,792.967041015625,786.5201416015625,794.5787353515625
1416,786.1171875,793.3699340820312,788.937744140625,779.6703491210938
1417,784.908447265625,786.1171875,788.937744140625,780.879150390625
1418,789.3406372070312,787.3259887695312,784.908447265625,792.1611938476562
1419,787.7289428710938,789.3406372070312,790.952392578125,792.967041015625
1420,789.7435913085938,790.5494384765625,793.7728881835938,790.952392578125
1421,789.3406372070312,789.3406372070312,789.3406372070312,795.7875366210938
1422,790.952392578125,788.1318969726562,787.7289428710938,798.2051391601562
1423,789.7435913085938,790.1465454101562,785.3113403320312,791.7582397460938
1424,787.7289428710938,796.996337890625,784.5054931640625,791.3552856445312
1425,786.1171875,798.2051391601562,788.5347900390625,793.3699340820312
1426,784.908447265625,789.7435913085938,790.5494384765625,799.010986328125
1427,788.5347900390625,787.7289428710938,793.3699340820312,798.6080322265625
1428,793.3699340820312,789.7435913085938,794.981689453125,788.1318969726562
1429,794.981689453125,789.3406372070312,793.7728881835938,785.3113403320312
1430,793.7728881835938,789.3406372070312,793.7728881835938,787.7289428710938
1431,790.1465454101562,796.1904907226562,792.5640869140625,788.1318969726562
1432,787.7289428710938,798.2051391601562,791.3552856445312,789.3406372070312
1433,789.3406372070312,798.2051391601562,793.3699340820312,789.3406372070312
1434,799.010986328125,801.4285888671875,797.3992919921875,794.5787353515625
1435,809.084228515625,796.5933837890625,797.3992919921875,795.3846435546875
1436,803.040283203125,793.3699340820312,796.5933837890625,790.1465454101562
1437,796.5933837890625,800.6226806640625,795.7875366210938,790.5494384765625
1438,796.5933837890625,801.4285888671875,801.4285888671875,796.5933837890625
1439,793.7728881835938,799.010986328125,803.040283203125,790.5494384765625
1440,798.6080322265625,798.6080322265625,795.3846435546875,786.5201416015625
1441,797.3992919921875,800.6226806640625,795.3846435546875,790.952392578125
1442,794.981689453125,799.010986328125,793.7728881835938,790.1465454101562
1443,797.3992919921875,799.8168334960938,794.5787353515625,786.1171875
1444,795.3846435546875,802.6373901367188,796.5933837890625,789.3406372070312
1445,792.967041015625,797.3992919921875,793.7728881835938,797.3992919921875
1446,796.996337890625,802.2344360351562,789.7435913085938,796.996337890625
1447,799.8168334960938,806.6666870117188,792.967041015625,792.1611938476562
1448,795.7875366210938,803.4432373046875,789.7435913085938,796.1904907226562
1449,794.981689453125,799.8168334960938,787.3259887695312,801.025634765625
1450,794.1758422851562,796.1904907226562,792.5640869140625,800.2197875976562
1451,798.6080322265625,800.2197875976562,796.1904907226562,801.4285888671875
1452,803.8461303710938,799.4139404296875,792.967041015625,803.4432373046875
1453,797.3992919921875,795.7875366210938,789.7435913085938,801.4285888671875
1454,794.1758422851562,792.5640869140625,792.1611938476562,796.996337890625
1455,797.8021850585938,796.996337890625,796.1904907226562,791.7582397460938
1456,798.6080322265625,804.2490844726562,800.2197875976562,792.1611938476562
1457,799.8168334960938,803.040283203125,799.010986328125,795.3846435546875
1458,800.2197875976562,796.996337890625,793.3699340820312,788.1318969726562
1459,799.010986328125,797.3992919921875,792.1611938476562,788.5347900390625
1460,795.7875366210938,795.7875366210938,794.1758422851562,794.1758422851562
1461,795.7875366210938,792.1611938476562,792.967041015625,801.4285888671875
1462,791.3552856445312,792.1611938476562,794.1758422851562,798.2051391601562
1463,790.1465454101562,793.7728881835938,802.2344360351562,789.7435913085938
1464,796.1904907226562,798.6080322265625,796.996337890625,787.7289428710938
1465,792.1611938476562,797.8021850585938,794.1758422851562,790.5494384765625
1466,787.3259887695312,795.7875366210938,799.010986328125,791.3552856445312
1467,791.7582397460938,793.3699340820312,792.5640869140625,787.7289428710938
1468,793.3699340820312,796.5933837890625,793.7728881835938,790.1465454101562
1469,798.2051391601562,805.054931640625,798.6080322265625,793.3699340820312
1470,803.8461303710938,801.8314819335938,801.025634765625,796.5933837890625
1471,796.5933837890625,790.952392578125,801.025634765625,798.2051391601562
1472,790.5494384765625,790.952392578125,798.6080322265625,804.2490844726562
1473,791.7582397460938,797.8021850585938,798.6080322265625,810.2930297851562
1474,794.1758422851562,799.010986328125,797.8021850585938,801.8314819335938
1475,792.1611938476562,797.3992919921875,798.2051391601562,796.1904907226562
1476,789.3406372070312,795.3846435546875,795.3846435546875,794.5787353515625
1477,794.981689453125,799.010986328125,797.8021850585938,795.3846435546875
1478,798.2051391601562,800.6226806640625,802.6373901367188,795.7875366210938
1479,798.2051391601562,789.3406372070312,795.7875366210938,794.5787353515625
1480,795.7875366210938,793.3699340820312,792.967041015625,794.1758422851562
1481,791.3552856445312,797.8021850585938,795.7875366210938,792.5640869140625
1482,789.7435913085938,786.923095703125,790.1465454101562,789.7435913085938
1483,790.5494384765625,785.7142944335938,787.3259887695312,789.7435913085938
1484,787.3259887695312,788.937744140625,788.5347900390625,792.5640869140625
1485,785.3113403320312,794.5787353515625,790.952392578125,786.923095703125
1486,786.1171875,794.5787353515625,786.923095703125,780.4761962890625
1487,788.937744140625,791.3552856445312,783.2966918945312,782.893798828125
1488,793.7728881835938,794.5787353515625,788.1318969726562,786.1171875
1489,791.3552856445312,798.2051391601562,792.967041015625,783.2966918945312
1490,788.1318969726562,793.7728881835938,794.981689453125,782.087890625
1491,793.3699340820312,790.952392578125,795.7875366210938,786.1171875
1492,792.1611938476562,794.1758422851562,796.1904907226562,787.3259887695312
1493,783.6996459960938,792.5640869140625,795.7875366210938,786.923095703125
1494,782.087890625,786.923095703125,794.981689453125,789.3406372070312
1495,783.6996459960938,784.908447265625,796.996337890625,790.952392578125
1496,786.923095703125,790.952392578125,800.2197875976562,801.8314819335938
1497,789.7435913085938,796.1904907226562,799.8168334960938,799.010986328125
1498,792.967041015625,798.6080322265625,796.996337890625,792.1611938476562
1499,793.7728881835938,798.2051391601562,787.7289428710938,797.8021850585938
1500,787.7289428710938,800.2197875976562,788.1318969726562,794.5787353515625
1501,787.3259887695312,796.5933837890625,792.967041015625,792.967041015625
1502,791.7582397460938,794.981689453125,788.937744140625,797.8021850585938
1503,786.5201416015625,798.2051391601562,791.7582397460938,794.981689453125
1504,790.952392578125,799.010986328125,798.2051391601562,792.1611938476562
1505,796.1904907226562,793.7728881835938,797.8021850585938,790.1465454101562
1506,792.5640869140625,787.7289428710938,795.3846435546875,788.1318969726562
1507,793.3699340820312,790.5494384765625,797.8021850585938,793.7728881835938
1508,790.1465454101562,795.7875366210938,798.2051391601562,790.5494384765625
1509,790.1465454101562,796.996337890625,794.5787353515625,783.6996459960938
1510,793.7728881835938,795.7875366210938,794.981689453125,792.1611938476562
1511,793.3699340820312,794.981689453125,796.5933837890625,795.3846435546875
1512,791.3552856445312,798.2051391601562,792.1611938476562,792.1611938476562
1513,788.937744140625,799.010986328125,796.5933837890625,791.3552856445312
1514,791.3552856445312,799.010986328125,798.2051391601562,795.7875366210938
1515,790.1465454101562,800.6226806640625,794.981689453125,794.1758422851562
1516,787.7289428710938,799.4139404296875,795.3846435546875,786.1171875
1517,788.937744140625,794.981689453125,794.1758422851562,788.5347900390625
1518,790.5494384765625,785.3113403320312,792.967041015625,799.4139404296875
1519,792.1611938476562,780.0732421875,789.3406372070312,807.069580078125
1520,783.6996459960938,782.087890625,792.1611938476562,796.5933837890625
1521,781.6849975585938,788.5347900390625,797.8021850585938,788.1318969726562
1522,789.7435913085938,794.5787353515625,793.3699340820312,799.8168334960938
1523,790.952392578125,797.8021850585938,786.5201416015625,800.6226806640625
1524,794.981689453125,798.6080322265625,789.7435913085938,790.952392578125
1525,801.4285888671875,796.1904907226562,790.1465454101562,797.3992919921875
1526,799.010986328125,788.1318969726562,784.908447265625,796.5933837890625
1527,788.5347900390625,782.087890625,783.6996459960938,791.7582397460938
1528,784.908447265625,782.087890625,786.5201416015625,799.4139404296875
1529,790.1465454101562,783.6996459960938,792.1611938476562,802.2344360351562
1530,790.952392578125,786.5201416015625,791.7582397460938,802.6373901367188
1531,790.5494384765625,789.7435913085938,790.1465454101562,801.025634765625
1532,787.7289428710938,784.5054931640625,793.3699340820312,795.7875366210938
1533,781.6849975585938,785.3113403320312,790.5494384765625,790.952392578125
1534,786.923095703125,788.937744140625,789.7435913085938,790.5494384765625
1535,792.967041015625,789.3406372070312,790.1465454101562,783.2966918945312
1536,790.1465454101562,794.1758422851562,785.3113403320312,780.4761962890625
1537,793.7728881835938,792.967041015625,785.7142944335938,785.7142944335938
1538,795.7875366210938,793.7728881835938,789.3406372070312,782.893798828125
1539,790.952392578125,794.5787353515625,781.6849975585938,776.8497924804688
1540,795.3846435546875,790.952392578125,780.879150390625,778.4615478515625
1541,798.6080322265625,782.4908447265625,786.5201416015625,781.6849975585938
1542,789.7435913085938,785.7142944335938,787.3259887695312,785.3113403320312
1543,782.893798828125,784.1025390625,782.893798828125,793.3699340820312
1544,788.5347900390625,781.2820434570312,786.5201416015625,795.7875366210938
1545,793.3699340820312,786.5201416015625,794.5787353515625,799.4139404296875
1546,789.3406372070312,789.7435913085938,792.967041015625,798.6080322265625
1547,790.952392578125,790.5494384765625,789.3406372070312,792.5640869140625
1548,792.5640869140625,795.3846435546875,789.7435913085938,793.7728881835938
1549,788.5347900390625,796.1904907226562,786.1171875,790.5494384765625
1550,789.3406372070312,790.1465454101562,782.087890625,791.3552856445312
1551,787.7289428710938,786.923095703125,784.908447265625,786.5201416015625
1552,786.1171875,788.5347900390625,782.893798828125,788.5347900390625
1553,794.981689453125,789.7435913085938,787.3259887695312,797.8021850585938
1554,796.5933837890625,796.1904907226562,790.1465454101562,790.952392578125
1555,794.5787353515625,799.4139404296875,788.5347900390625,794.981689453125
1556,798.2051391601562,793.3699340820312,786.923095703125,800.6226806640625
1557,796.1904907226562,788.5347900390625,784.1025390625,802.2344360351562
1558,790.5494384765625,788.937744140625,784.5054931640625,797.8021850585938
1559,791.3552856445312,796.5933837890625,787.3259887695312,796.5933837890625
1560,794.5787353515625,801.025634765625,790.5494384765625,801.8314819335938
1561,788.937744140625,802.6373901367188,786.923095703125,791.3552856445312
1562,786.923095703125,801.4285888671875,790.1465454101562,789.3406372070312
1563,790.952392578125,798.2051391601562,789.3406372070312,787.3259887695312
1564,788.937744140625,798.2051391601562,787.7289428710938,782.4908447265625
1565,780.0732421875,788.1318969726562,788.937744140625,785.7142944335938
1566,784.908447265625,788.1318969726562,787.3259887695312,789.7435913085938
1567,794.981689453125,789.7435913085938,791.3552856445312,796.1904907226562
1568,796.996337890625,787.7289428710938,797.8021850585938,799.8168334960938
1569,799.010986328125,793.3699340820312,800.6226806640625,799.4139404296875
1570,797.8021850585938,792.5640869140625,796.5933837890625,799.4139404296875
1571,793.7728881835938,790.952392578125,792.967041015625,797.3992919921875
1572,795.3846435546875,791.3552856445312,790.5494384765625,797.8021850585938
1573,795.7875366210938,786.5201416015625,791.7582397460938,796.1904907226562
1574,788.937744140625,790.1465454101562,793.7728881835938,794.5787353515625
1575,787.3259887695312,800.6226806640625,796.5933837890625,800.2197875976562
1576,787.3259887695312,797.3992919921875,794.1758422851562,798.6080322265625
1577,788.937744140625,786.923095703125,792.5640869140625,792.1611938476562
1578,794.1758422851562,791.3552856445312,796.5933837890625,794.5787353515625
1579,795.3846435546875,796.1904907226562,795.3846435546875,791.3552856445312
1580,795.3846435546875,790.952392578125,796.5933837890625,787.3259887695312
