timestamp,RAW_TP9,RAW_AF7,RAW_AF8,RAW_TP10
1,795.7875366210938,805.4578857421875,798.2051391601562,806.6666870117188
2,802.2344360351562,803.040283203125,790.952392578125,810.6959838867188
3,799.4139404296875,791.7582397460938,789.3406372070312,813.113525390625
4,790.1465454101562,786.923095703125,795.7875366210938,799.4139404296875
5,792.1611938476562,792.1611938476562,795.3846435546875,794.1758422851562
6,797.3992919921875,799.010986328125,797.3992919921875,797.8021850585938
7,790.5494384765625,795.7875366210938,794.5787353515625,795.7875366210938
8,787.3259887695312,795.7875366210938,792.967041015625,794.1758422851562
9,796.1904907226562,797.3992919921875,798.2051391601562,800.2197875976562
10,802.2344360351562,794.5787353515625,795.3846435546875,802.6373901367188
11,801.025634765625,790.5494384765625,795.3846435546875,801.8314819335938
12,801.025634765625,792.1611938476562,798.6080322265625,800.6226806640625
13,802.2344360351562,794.1758422851562,796.1904907226562,801.025634765625
14,799.4139404296875,792.967041015625,796.996337890625,807.069580078125
15,802.6373901367188,799.010986328125,801.025634765625,806.2637329101562
16,808.2783813476562,799.010986328125,800.2197875976562,796.996337890625
17,805.054931640625,795.7875366210938,801.4285888671875,795.7875366210938
18,802.6373901367188,794.981689453125,801.4285888671875,796.1904907226562
19,801.025634765625,795.3846435546875,801.8314819335938,789.7435913085938
20,796.996337890625,791.7582397460938,796.996337890625,780.0732421875
21,801.4285888671875,783.2966918945312,788.1318969726562,782.4908447265625
22,799.4139404296875,788.937744140625,789.7435913085938,786.5201416015625
23,794.1758422851562,789.7435913085938,793.7728881835938,789.3406372070312
24,797.8021850585938,787.7289428710938,794.5787353515625,790.952392578125
25,801.8314819335938,803.4432373046875,794.1758422851562,792.5640869140625
26,803.4432373046875,805.8607788085938,792.967041015625,793.3699340820312
27,804.6520385742188,797.3992919921875,792.1611938476562,790.1465454101562
28,799.4139404296875,790.5494384765625,793.7728881835938,796.1904907226562
29,802.6373901367188,787.7289428710938,796.5933837890625,803.4432373046875
30,805.054931640625,796.996337890625,799.010986328125,805.4578857421875
31,796.5933837890625,792.5640869140625,802.6373901367188,803.8461303710938
32,796.996337890625,788.5347900390625,799.010986328125,800.2197875976562
33,797.8021850585938,784.5054931640625,794.1758422851562,797.3992919921875
34,796.5933837890625,774.8351440429688,794.5787353515625,795.3846435546875
35,790.5494384765625,785.3113403320312,793.7728881835938,790.1465454101562
36,788.5347900390625,794.1758422851562,796.5933837890625,796.1904907226562
37,793.3699340820312,788.5347900390625,796.996337890625,803.8461303710938
38,787.7289428710938,782.893798828125,796.5933837890625,787.3259887695312
39,784.5054931640625,782.4908447265625,799.8168334960938,776.0439453125
40,785.3113403320312,784.1025390625,794.5787353515625,784.908447265625
41,793.7728881835938,790.1465454101562,792.1611938476562,790.952392578125
42,800.6226806640625,800.6226806640625,794.981689453125,790.5494384765625
43,796.5933837890625,800.2197875976562,793.7728881835938,786.1171875
44,794.5787353515625,796.5933837890625,790.1465454101562,787.7289428710938
45,799.4139404296875,799.8168334960938,790.952392578125,790.952392578125
46,805.8607788085938,799.010986328125,793.3699340820312,786.923095703125
47,806.6666870117188,791.3552856445312,790.952392578125,788.937744140625
48,806.6666870117188,790.5494384765625,792.967041015625,792.1611938476562
49,805.4578857421875,792.967041015625,795.7875366210938,791.7582397460938
50,801.4285888671875,797.3992919921875,796.5933837890625,796.1904907226562
51,798.2051391601562,802.2344360351562,796.5933837890625,788.1318969726562
52,792.967041015625,796.1904907226562,794.1758422851562,782.893798828125
53,792.967041015625,794.1758422851562,791.3552856445312,783.2966918945312
54,792.1611938476562,796.1904907226562,791.3552856445312,778.4615478515625
55,792.967041015625,792.967041015625,792.967041015625,779.2673950195312
56,797.3992919921875,790.1465454101562,789.7435913085938,787.3259887695312
57,796.1904907226562,790.5494384765625,791.3552856445312,799.010986328125
58,792.1611938476562,788.937744140625,792.5640869140625,796.1904907226562
59,784.5054931640625,786.923095703125,790.5494384765625,794.1758422851562
60,780.4761962890625,787.3259887695312,790.1465454101562,799.8168334960938
61,781.6849975585938,795.7875366210938,795.7875366210938,798.2051391601562
62,783.6996459960938,795.3846435546875,796.1904907226562,790.1465454101562
63,789.7435913085938,789.3406372070312,788.1318969726562,790.1465454101562
64,790.952392578125,793.7728881835938,789.3406372070312,799.8168334960938
65,784.1025390625,799.010986328125,796.1904907226562,797.3992919921875
66,785.7142944335938,795.7875366210938,794.5787353515625,794.981689453125
67,791.7582397460938,788.5347900390625,788.5347900390625,793.7728881835938
68,796.996337890625,782.087890625,788.5347900390625,788.1318969726562
69,799.8168334960938,780.4761962890625,792.1611938476562,782.893798828125
70,803.040283203125,787.7289428710938,792.1611938476562,786.923095703125
71,804.6520385742188,796.1904907226562,790.952392578125,792.967041015625
72,796.1904907226562,802.2344360351562,792.1611938476562,788.937744140625
73,796.1904907226562,801.025634765625,788.1318969726562,784.908447265625
74,803.040283203125,796.996337890625,788.937744140625,782.4908447265625
75,795.3846435546875,790.952392578125,790.952392578125,782.893798828125
76,791.7582397460938,792.5640869140625,793.3699340820312,780.879150390625
77,793.3699340820312,797.8021850585938,793.7728881835938,775.6410522460938
78,795.3846435546875,793.3699340820312,786.5201416015625,781.6849975585938
79,796.5933837890625,784.908447265625,790.5494384765625,789.3406372070312
80,787.3259887695312,787.7289428710938,795.7875366210938,789.7435913085938
81,783.2966918945312,790.1465454101562,793.7728881835938,786.1171875
82,786.1171875,784.908447265625,786.1171875,784.1025390625
83,782.893798828125,793.3699340820312,786.5201416015625,783.2966918945312
84,783.6996459960938,796.1904907226562,790.952392578125,787.7289428710938
85,782.893798828125,789.7435913085938,785.3113403320312,791.7582397460938
86,779.2673950195312,788.5347900390625,782.893798828125,797.3992919921875
87,780.0732421875,782.893798828125,789.7435913085938,803.4432373046875
88,780.4761962890625,783.2966918945312,798.6080322265625,796.1904907226562
89,780.0732421875,785.3113403320312,801.4285888671875,790.5494384765625
90,785.7142944335938,784.1025390625,803.8461303710938,797.3992919921875
91,792.1611938476562,791.3552856445312,798.6080322265625,803.8461303710938
92,789.3406372070312,799.8168334960938,794.5787353515625,803.8461303710938
93,790.1465454101562,788.937744140625,796.5933837890625,799.8168334960938
94,788.937744140625,779.6703491210938,798.2051391601562,792.967041015625
95,787.7289428710938,794.1758422851562,795.3846435546875,784.5054931640625
96,791.3552856445312,801.025634765625,791.3552856445312,784.1025390625
97,793.7728881835938,799.4139404296875,792.967041015625,784.1025390625
98,798.6080322265625,792.967041015625,794.1758422851562,786.923095703125
99,797.8021850585938,792.1611938476562,792.1611938476562,792.5640869140625
100,798.6080322265625,794.981689453125,791.7582397460938,788.1318969726562
101,799.4139404296875,794.1758422851562,791.7582397460938,777.6557006835938
102,802.2344360351562,800.6226806640625,793.7728881835938,778.05859375
103,803.4432373046875,797.8021850585938,799.4139404296875,780.0732421875
104,795.3846435546875,793.3699340820312,801.4285888671875,782.4908447265625
105,792.967041015625,794.1758422851562,792.967041015625,789.3406372070312
106,796.5933837890625,788.1318969726562,794.981689453125,788.5347900390625
107,792.967041015625,788.5347900390625,792.967041015625,786.923095703125
108,793.3699340820312,791.7582397460938,790.952392578125,792.5640869140625
109,797.8021850585938,789.7435913085938,789.7435913085938,801.4285888671875
110,795.3846435546875,790.5494384765625,788.5347900390625,811.5018310546875
111,790.5494384765625,795.3846435546875,799.010986328125,805.8607788085938
112,788.1318969726562,794.5787353515625,800.2197875976562,800.6226806640625
113,790.5494384765625,789.3406372070312,798.2051391601562,803.040283203125
114,791.3552856445312,783.2966918945312,799.8168334960938,796.5933837890625
115,788.1318969726562,786.1171875,799.8168334960938,792.1611938476562
116,783.6996459960938,796.1904907226562,799.010986328125,793.3699340820312
117,786.1171875,799.010986328125,798.6080322265625,792.5640869140625
118,794.5787353515625,796.1904907226562,797.8021850585938,795.7875366210938
119,801.4285888671875,796.5933837890625,801.025634765625,796.1904907226562
120,803.8461303710938,795.7875366210938,803.8461303710938,796.996337890625
121,803.8461303710938,793.3699340820312,798.6080322265625,803.8461303710938
122,803.040283203125,789.7435913085938,792.5640869140625,798.6080322265625
123,803.8461303710938,789.7435913085938,792.1611938476562,787.3259887695312
124,806.6666870117188,799.010986328125,793.7728881835938,787.3259887695312
125,805.054931640625,801.4285888671875,798.2051391601562,788.5347900390625
126,797.8021850585938,791.7582397460938,794.5787353515625,783.2966918945312
127,794.5787353515625,792.5640869140625,789.3406372070312,780.4761962890625
128,799.8168334960938,798.6080322265625,794.981689453125,786.5201416015625
129,797.8021850585938,793.3699340820312,795.7875366210938,788.1318969726562
130,795.3846435546875,796.1904907226562,792.967041015625,789.3406372070312
131,795.3846435546875,804.2490844726562,794.1758422851562,792.5640869140625
132,794.1758422851562,797.8021850585938,792.967041015625,794.1758422851562
133,794.1758422851562,794.5787353515625,794.981689453125,804.6520385742188
134,795.7875366210938,801.025634765625,801.8314819335938,805.054931640625
135,793.7728881835938,798.2051391601562,798.6080322265625,788.937744140625
136,789.7435913085938,795.3846435546875,793.7728881835938,785.3113403320312
137,793.7728881835938,794.5787353515625,801.025634765625,797.3992919921875
138,795.3846435546875,799.4139404296875,807.069580078125,790.952392578125
139,789.3406372070312,793.3699340820312,806.6666870117188,784.5054931640625
140,784.908447265625,783.2966918945312,799.8168334960938,787.7289428710938
141,782.4908447265625,790.952392578125,790.1465454101562,783.6996459960938
142,782.087890625,790.1465454101562,790.952392578125,780.0732421875
143,786.1171875,784.1025390625,790.5494384765625,787.3259887695312
144,795.3846435546875,788.1318969726562,792.1611938476562,802.6373901367188
145,793.3699340820312,790.952392578125,796.1904907226562,797.3992919921875
146,789.7435913085938,792.1611938476562,796.5933837890625,779.6703491210938
147,787.3259887695312,789.3406372070312,798.6080322265625,783.6996459960938
148,784.1025390625,786.5201416015625,792.1611938476562,791.3552856445312
149,788.5347900390625,789.7435913085938,785.7142944335938,787.3259887695312
150,786.1171875,794.5787353515625,789.7435913085938,787.7289428710938
151,785.7142944335938,794.1758422851562,791.7582397460938,795.3846435546875
152,790.5494384765625,788.5347900390625,792.967041015625,799.4139404296875
153,792.1611938476562,788.937744140625,797.3992919921875,796.996337890625
154,788.1318969726562,793.7728881835938,797.3992919921875,790.5494384765625
155,788.1318969726562,791.7582397460938,797.3992919921875,791.3552856445312
156,789.3406372070312,790.1465454101562,794.981689453125,796.5933837890625
157,787.3259887695312,789.7435913085938,785.7142944335938,794.5787353515625
158,792.5640869140625,790.1465454101562,786.5201416015625,785.3113403320312
159,795.3846435546875,794.1758422851562,787.7289428710938,786.1171875
160,800.2197875976562,795.7875366210938,789.3406372070312,794.5787353515625
161,803.4432373046875,792.5640869140625,795.3846435546875,790.1465454101562
162,796.1904907226562,792.1611938476562,797.8021850585938,789.7435913085938
163,796.5933837890625,796.1904907226562,794.1758422851562,784.908447265625
164,803.8461303710938,796.5933837890625,789.3406372070312,780.4761962890625
165,799.8168334960938,795.7875366210938,793.7728881835938,788.1318969726562
166,794.981689453125,791.7582397460938,795.3846435546875,791.3552856445312
167,795.3846435546875,789.3406372070312,788.1318969726562,786.1171875
168,796.1904907226562,793.3699340820312,787.3259887695312,784.1025390625
169,796.996337890625,795.7875366210938,790.952392578125,785.7142944335938
170,787.3259887695312,794.981689453125,798.6080322265625,781.6849975585938
171,784.908447265625,796.996337890625,796.996337890625,784.908447265625
172,789.7435913085938,800.2197875976562,793.3699340820312,794.5787353515625
173,790.5494384765625,800.2197875976562,796.1904907226562,791.7582397460938
174,797.8021850585938,799.4139404296875,796.1904907226562,790.5494384765625
175,799.4139404296875,796.1904907226562,800.6226806640625,787.3259887695312
176,791.7582397460938,790.5494384765625,802.6373901367188,792.967041015625
177,787.3259887695312,786.1171875,799.8168334960938,794.5787353515625
178,788.937744140625,788.1318969726562,800.2197875976562,790.1465454101562
179,790.1465454101562,795.7875366210938,800.6226806640625,792.5640869140625
180,793.7728881835938,796.5933837890625,794.5787353515625,797.8021850585938
181,800.2197875976562,793.3699340820312,796.5933837890625,801.4285888671875
182,803.4432373046875,795.7875366210938,803.040283203125,803.040283203125
183,803.040283203125,799.8168334960938,805.054931640625,810.2930297851562
184,796.5933837890625,794.5787353515625,805.4578857421875,804.6520385742188
185,791.3552856445312,788.1318969726562,801.025634765625,795.3846435546875
186,794.1758422851562,787.3259887695312,792.5640869140625,792.967041015625
187,795.3846435546875,789.7435913085938,794.1758422851562,792.967041015625
188,794.981689453125,800.6226806640625,800.2197875976562,796.996337890625
189,798.6080322265625,799.8168334960938,801.4285888671875,798.6080322265625
190,800.6226806640625,794.5787353515625,793.7728881835938,796.1904907226562
191,799.010986328125,796.5933837890625,785.7142944335938,795.3846435546875
192,796.1904907226562,797.3992919921875,792.1611938476562,791.7582397460938
193,794.981689453125,791.7582397460938,796.1904907226562,786.1171875
194,798.2051391601562,791.3552856445312,791.7582397460938,788.937744140625
195,796.5933837890625,797.8021850585938,790.5494384765625,790.952392578125
196,789.7435913085938,799.8168334960938,796.5933837890625,787.7289428710938
197,788.1318969726562,802.2344360351562,799.010986328125,790.5494384765625
198,790.5494384765625,797.8021850585938,796.1904907226562,792.967041015625
199,793.7728881835938,795.7875366210938,795.3846435546875,794.1758422851562
200,790.1465454101562,799.010986328125,794.981689453125,791.3552856445312
201,785.7142944335938,793.7728881835938,795.3846435546875,790.5494384765625
202,792.967041015625,791.7582397460938,796.996337890625,790.1465454101562
203,790.5494384765625,788.1318969726562,799.010986328125,784.908447265625
204,784.5054931640625,782.893798828125,800.6226806640625,788.5347900390625
205,787.7289428710938,785.3113403320312,797.8021850585938,800.2197875976562
206,791.3552856445312,791.7582397460938,794.1758422851562,804.2490844726562
207,792.1611938476562,794.5787353515625,794.5787353515625,798.2051391601562
208,792.1611938476562,788.5347900390625,791.3552856445312,791.3552856445312
209,791.7582397460938,788.1318969726562,786.5201416015625,791.3552856445312
210,792.5640869140625,784.5054931640625,791.3552856445312,790.952392578125
211,799.4139404296875,784.908447265625,792.5640869140625,788.937744140625
212,807.069580078125,791.7582397460938,795.3846435546875,798.2051391601562
213,804.2490844726562,791.7582397460938,803.040283203125,806.2637329101562
214,796.996337890625,794.981689453125,798.2051391601562,795.7875366210938
215,798.2051391601562,801.4285888671875,796.996337890625,790.1465454101562
216,802.2344360351562,809.084228515625,801.4285888671875,800.2197875976562
217,801.4285888671875,804.2490844726562,793.7728881835938,806.2637329101562
218,801.025634765625,800.2197875976562,788.1318969726562,805.054931640625
219,797.8021850585938,795.3846435546875,797.3992919921875,800.6226806640625
220,799.8168334960938,793.3699340820312,796.1904907226562,799.010986328125
221,804.6520385742188,801.025634765625,796.1904907226562,796.996337890625
222,801.8314819335938,795.3846435546875,796.1904907226562,796.996337890625
223,798.6080322265625,792.5640869140625,794.981689453125,791.3552856445312
224,797.8021850585938,801.025634765625,793.3699340820312,786.923095703125
225,799.010986328125,796.996337890625,792.5640869140625,799.010986328125
226,803.040283203125,788.5347900390625,796.1904907226562,810.6959838867188
227,801.4285888671875,790.5494384765625,797.8021850585938,805.054931640625
228,788.937744140625,795.3846435546875,802.6373901367188,788.5347900390625
229,786.923095703125,797.8021850585938,799.4139404296875,792.5640869140625
230,791.3552856445312,800.6226806640625,797.8021850585938,798.6080322265625
231,784.908447265625,798.2051391601562,796.996337890625,790.5494384765625
232,782.4908447265625,789.7435913085938,794.1758422851562,792.5640869140625
233,788.937744140625,787.3259887695312,798.2051391601562,795.3846435546875
234,788.1318969726562,788.5347900390625,792.5640869140625,787.7289428710938
235,793.7728881835938,799.4139404296875,794.981689453125,786.1171875
236,801.025634765625,801.8314819335938,800.6226806640625,792.1611938476562
237,795.7875366210938,793.3699340820312,802.2344360351562,795.3846435546875
238,792.967041015625,794.981689453125,801.4285888671875,790.5494384765625
239,794.5787353515625,796.5933837890625,797.3992919921875,786.5201416015625
240,798.6080322265625,798.2051391601562,796.996337890625,792.5640869140625
241,804.6520385742188,791.7582397460938,796.996337890625,793.3699340820312
242,801.8314819335938,783.6996459960938,791.7582397460938,789.7435913085938
243,797.8021850585938,794.5787353515625,792.1611938476562,792.1611938476562
244,806.2637329101562,796.5933837890625,797.3992919921875,804.6520385742188
245,805.054931640625,793.7728881835938,788.937744140625,810.2930297851562
246,801.8314819335938,802.6373901367188,782.4908447265625,801.4285888671875
247,803.8461303710938,799.010986328125,790.1465454101562,800.6226806640625
248,798.6080322265625,792.967041015625,796.5933837890625,797.8021850585938
249,792.967041015625,792.1611938476562,797.3992919921875,792.967041015625
250,794.1758422851562,789.3406372070312,796.996337890625,795.7875366210938
251,793.3699340820312,789.7435913085938,794.5787353515625,801.4285888671875
252,794.5787353515625,790.1465454101562,790.1465454101562,802.2344360351562
253,799.4139404296875,791.7582397460938,793.3699340820312,796.5933837890625
254,797.3992919921875,796.996337890625,796.996337890625,790.5494384765625
255,797.8021850585938,786.1171875,792.967041015625,794.981689453125
256,801.8314819335938,782.087890625,786.923095703125,805.4578857421875
257,800.6226806640625,791.3552856445312,790.1465454101562,800.2197875976562
258,798.6080322265625,791.7582397460938,796.5933837890625,788.937744140625
259,801.8314819335938,788.937744140625,791.7582397460938,788.1318969726562
260,799.4139404296875,788.5347900390625,791.3552856445312,786.1171875
261,794.1758422851562,786.5201416015625,800.2197875976562,784.5054931640625
262,797.8021850585938,788.1318969726562,802.6373901367188,784.908447265625
263,793.7728881835938,790.1465454101562,796.996337890625,786.923095703125
264,791.3552856445312,791.7582397460938,795.3846435546875,793.7728881835938
265,795.7875366210938,796.5933837890625,795.3846435546875,791.7582397460938
266,790.952392578125,787.7289428710938,796.5933837890625,788.1318969726562
267,792.1611938476562,783.2966918945312,795.7875366210938,788.5347900390625
268,790.5494384765625,795.3846435546875,791.7582397460938,788.5347900390625
269,790.1465454101562,800.2197875976562,794.5787353515625,792.967041015625
270,797.8021850585938,794.981689453125,795.7875366210938,797.8021850585938
271,797.3992919921875,788.5347900390625,794.981689453125,802.6373901367188
272,798.2051391601562,793.7728881835938,795.7875366210938,806.6666870117188
273,798.6080322265625,797.3992919921875,795.7875366210938,804.2490844726562
274,793.3699340820312,794.5787353515625,797.3992919921875,803.4432373046875
275,796.5933837890625,796.1904907226562,796.1904907226562,808.6813354492188
276,798.2051391601562,794.981689453125,789.3406372070312,800.2197875976562
277,792.5640869140625,792.5640869140625,786.5201416015625,786.923095703125
278,798.2051391601562,797.3992919921875,783.6996459960938,791.7582397460938
279,804.6520385742188,795.3846435546875,780.879150390625,803.8461303710938
280,797.8021850585938,785.7142944335938,788.5347900390625,794.981689453125
281,791.3552856445312,792.1611938476562,793.3699340820312,784.5054931640625
282,790.952392578125,801.4285888671875,794.5787353515625,787.3259887695312
283,792.1611938476562,798.6080322265625,791.7582397460938,783.6996459960938
284,792.5640869140625,795.3846435546875,793.7728881835938,790.1465454101562
285,792.1611938476562,792.967041015625,796.5933837890625,793.3699340820312
286,792.5640869140625,792.1611938476562,796.1904907226562,794.1758422851562
287,797.8021850585938,794.5787353515625,794.1758422851562,800.6226806640625
288,802.2344360351562,791.3552856445312,794.1758422851562,801.4285888671875
289,797.8021850585938,786.1171875,798.2051391601562,799.4139404296875
290,795.7875366210938,775.2380981445312,792.5640869140625,805.054931640625
291,789.3406372070312,777.2527465820312,789.3406372070312,801.8314819335938
292,789.7435913085938,792.1611938476562,792.967041015625,787.3259887695312
293,792.5640869140625,799.010986328125,794.981689453125,790.952392578125
294,790.5494384765625,801.025634765625,798.6080322265625,799.010986328125
295,794.981689453125,798.2051391601562,797.8021850585938,799.4139404296875
296,795.7875366210938,798.6080322265625,801.025634765625,797.8021850585938
297,795.3846435546875,796.1904907226562,804.6520385742188,804.6520385742188
298,792.1611938476562,793.7728881835938,797.3992919921875,807.4725341796875
299,785.3113403320312,790.952392578125,793.3699340820312,801.4285888671875
300,788.5347900390625,787.3259887695312,796.5933837890625,796.996337890625
301,796.5933837890625,787.7289428710938,796.5933837890625,795.3846435546875
302,796.996337890625,780.879150390625,791.7582397460938,796.996337890625
303,790.1465454101562,785.7142944335938,787.7289428710938,793.3699340820312
304,786.1171875,793.3699340820312,792.5640869140625,788.1318969726562
305,786.1171875,789.3406372070312,794.1758422851562,787.7289428710938
306,786.1171875,788.5347900390625,786.923095703125,786.923095703125
307,786.5201416015625,786.5201416015625,789.3406372070312,786.5201416015625
308,784.908447265625,778.8644409179688,792.5640869140625,788.5347900390625
309,784.908447265625,779.2673950195312,792.1611938476562,797.8021850585938
310,786.5201416015625,795.7875366210938,795.3846435546875,802.2344360351562
311,783.6996459960938,796.1904907226562,791.7582397460938,793.3699340820312
312,788.1318969726562,788.1318969726562,790.952392578125,787.3259887695312
313,797.3992919921875,786.923095703125,793.7728881835938,793.3699340820312
314,798.6080322265625,790.1465454101562,793.3699340820312,791.7582397460938
315,796.996337890625,796.5933837890625,794.1758422851562,783.6996459960938
316,801.025634765625,794.981689453125,790.5494384765625,787.3259887695312
317,798.6080322265625,793.3699340820312,791.7582397460938,788.937744140625
318,793.3699340820312,795.3846435546875,790.952392578125,788.937744140625
319,794.981689453125,798.6080322265625,788.1318969726562,789.7435913085938
320,794.5787353515625,792.5640869140625,796.5933837890625,789.7435913085938
321,790.952392578125,790.1465454101562,797.8021850585938,791.3552856445312
322,788.1318969726562,794.1758422851562,796.5933837890625,791.3552856445312
323,790.5494384765625,797.3992919921875,796.996337890625,784.5054931640625
324,796.1904907226562,791.7582397460938,798.2051391601562,786.923095703125
325,792.1611938476562,791.7582397460938,794.981689453125,790.5494384765625
326,787.7289428710938,802.2344360351562,794.5787353515625,793.3699340820312
327,790.952392578125,802.6373901367188,803.4432373046875,803.040283203125
328,792.1611938476562,806.6666870117188,801.8314819335938,809.4871826171875
329,792.1611938476562,797.8021850585938,797.8021850585938,810.2930297851562
330,788.1318969726562,786.923095703125,800.2197875976562,808.2783813476562
331,794.5787353515625,801.4285888671875,801.8314819335938,804.6520385742188
332,795.3846435546875,799.4139404296875,798.2051391601562,792.1611938476562
333,785.7142944335938,788.937744140625,792.1611938476562,787.3259887695312
334,796.996337890625,790.1465454101562,794.5787353515625,792.5640869140625
335,805.4578857421875,787.7289428710938,799.010986328125,788.1318969726562
336,798.2051391601562,788.5347900390625,793.7728881835938,780.879150390625
337,799.4139404296875,797.8021850585938,788.1318969726562,776.8497924804688
338,801.8314819335938,801.4285888671875,792.5640869140625,777.2527465820312
339,798.2051391601562,797.3992919921875,797.8021850585938,784.908447265625
340,790.5494384765625,789.7435913085938,797.8021850585938,793.3699340820312
341,781.6849975585938,787.7289428710938,795.7875366210938,792.967041015625
342,779.2673950195312,794.981689453125,796.5933837890625,789.3406372070312
343,780.4761962890625,796.5933837890625,797.3992919921875,796.1904907226562
344,781.2820434570312,796.1904907226562,794.1758422851562,796.1904907226562
345,778.4615478515625,790.5494384765625,791.7582397460938,794.1758422851562
346,777.6557006835938,787.3259887695312,789.3406372070312,789.3406372070312
347,780.0732421875,788.937744140625,786.5201416015625,785.7142944335938
348,786.1171875,787.3259887695312,790.5494384765625,792.967041015625
349,785.7142944335938,789.7435913085938,793.7728881835938,788.937744140625
350,783.6996459960938,791.7582397460938,793.7728881835938,782.4908447265625
351,790.1465454101562,786.923095703125,791.3552856445312,786.1171875
352,794.1758422851562,788.937744140625,790.952392578125,789.7435913085938
353,791.3552856445312,796.5933837890625,793.7728881835938,785.7142944335938
354,790.952392578125,796.1904907226562,794.981689453125,783.2966918945312
355,795.7875366210938,794.981689453125,796.1904907226562,794.981689453125
356,798.2051391601562,792.1611938476562,797.8021850585938,798.2051391601562
357,796.5933837890625,792.967041015625,796.996337890625,792.1611938476562
358,796.1904907226562,793.7728881835938,792.967041015625,789.7435913085938
359,803.4432373046875,790.5494384765625,790.1465454101562,791.3552856445312
360,809.084228515625,785.3113403320312,786.923095703125,792.967041015625
361,796.1904907226562,784.1025390625,787.3259887695312,790.5494384765625
362,792.967041015625,790.952392578125,789.7435913085938,788.937744140625
363,799.8168334960938,794.5787353515625,791.7582397460938,796.5933837890625
364,796.5933837890625,793.3699340820312,794.981689453125,799.4139404296875
365,792.1611938476562,794.1758422851562,798.6080322265625,788.5347900390625
366,786.1171875,793.7728881835938,794.981689453125,785.7142944335938
367,785.3113403320312,792.967041015625,793.7728881835938,789.3406372070312
368,788.937744140625,797.3992919921875,796.5933837890625,788.5347900390625
369,787.7289428710938,799.4139404296875,797.8021850585938,784.908447265625
370,785.7142944335938,798.6080322265625,796.1904907226562,790.5494384765625
371,783.6996459960938,796.5933837890625,796.5933837890625,797.3992919921875
372,785.3113403320312,795.3846435546875,795.7875366210938,793.7728881835938
373,784.5054931640625,800.2197875976562,794.1758422851562,786.5201416015625
374,787.7289428710938,798.6080322265625,794.5787353515625,785.3113403320312
375,793.7728881835938,786.1171875,790.1465454101562,792.967041015625
376,796.5933837890625,790.952392578125,792.1611938476562,795.7875366210938
377,794.5787353515625,803.4432373046875,794.1758422851562,788.1318969726562
378,792.5640869140625,803.4432373046875,790.1465454101562,793.7728881835938
379,793.7728881835938,794.5787353515625,792.1611938476562,798.6080322265625
380,796.996337890625,790.5494384765625,794.5787353515625,795.3846435546875
381,804.2490844726562,798.2051391601562,794.1758422851562,799.010986328125
382,807.069580078125,802.2344360351562,794.1758422851562,801.8314819335938
383,803.8461303710938,800.6226806640625,791.3552856445312,799.4139404296875
384,802.2344360351562,791.3552856445312,787.3259887695312,800.2197875976562
385,800.2197875976562,786.923095703125,788.5347900390625,796.996337890625
386,800.2197875976562,790.952392578125,788.937744140625,794.981689453125
387,799.8168334960938,786.5201416015625,786.923095703125,794.981689453125
388,799.4139404296875,784.5054931640625,787.3259887695312,787.7289428710938
389,798.2051391601562,787.7289428710938,789.3406372070312,789.3406372070312
390,789.7435913085938,788.1318969726562,791.3552856445312,792.1611938476562
391,786.5201416015625,789.7435913085938,788.5347900390625,786.5201416015625
392,794.5787353515625,796.5933837890625,786.923095703125,786.923095703125
393,801.4285888671875,803.4432373046875,788.5347900390625,790.5494384765625
394,804.2490844726562,801.025634765625,790.952392578125,799.010986328125
395,802.2344360351562,800.6226806640625,794.1758422851562,797.8021850585938
396,790.5494384765625,800.6226806640625,793.7728881835938,778.4615478515625
397,788.1318969726562,795.7875366210938,792.967041015625,778.4615478515625
398,792.5640869140625,792.1611938476562,794.1758422851562,793.7728881835938
399,790.1465454101562,793.7728881835938,794.1758422851562,796.996337890625
400,790.5494384765625,799.8168334960938,793.7728881835938,794.5787353515625
401,793.7728881835938,792.967041015625,794.5787353515625,792.967041015625
402,798.2051391601562,789.3406372070312,797.3992919921875,794.981689453125
403,802.2344360351562,800.6226806640625,796.1904907226562,799.010986328125
404,805.8607788085938,803.4432373046875,794.1758422851562,793.3699340820312
405,808.6813354492188,797.3992919921875,795.7875366210938,797.3992919921875
406,801.8314819335938,794.981689453125,798.2051391601562,802.2344360351562
407,796.996337890625,799.4139404296875,799.4139404296875,794.1758422851562
408,801.025634765625,803.4432373046875,794.5787353515625,790.1465454101562
409,807.4725341796875,799.010986328125,788.5347900390625,802.6373901367188
410,804.6520385742188,792.1611938476562,788.5347900390625,808.2783813476562
411,796.1904907226562,800.2197875976562,796.996337890625,805.4578857421875
412,792.967041015625,797.8021850585938,799.8168334960938,799.4139404296875
413,794.981689453125,781.6849975585938,793.3699340820312,793.7728881835938
414,801.4285888671875,787.3259887695312,796.1904907226562,801.8314819335938
415,802.2344360351562,800.2197875976562,797.8021850585938,805.4578857421875
416,799.8168334960938,799.010986328125,796.1904907226562,799.8168334960938
417,801.025634765625,796.996337890625,794.981689453125,799.4139404296875
418,801.8314819335938,794.5787353515625,797.8021850585938,796.1904907226562
419,800.2197875976562,793.3699340820312,800.6226806640625,794.1758422851562
420,797.8021850585938,792.967041015625,797.3992919921875,796.1904907226562
421,796.5933837890625,790.952392578125,796.1904907226562,795.3846435546875
422,793.3699340820312,792.1611938476562,794.981689453125,794.5787353515625
423,790.5494384765625,794.5787353515625,793.7728881835938,799.8168334960938
424,790.5494384765625,783.2966918945312,797.3992919921875,804.2490844726562
425,796.1904907226562,780.879150390625,797.3992919921875,803.040283203125
426,799.010986328125,799.010986328125,799.4139404296875,797.3992919921875
427,795.3846435546875,805.054931640625,801.8314819335938,796.5933837890625
428,794.981689453125,801.025634765625,796.5933837890625,799.8168334960938
429,798.2051391601562,801.4285888671875,791.3552856445312,796.5933837890625
430,803.4432373046875,801.4285888671875,790.1465454101562,789.3406372070312
431,808.2783813476562,795.3846435546875,791.7582397460938,794.5787353515625
432,805.054931640625,792.967041015625,792.1611938476562,799.010986328125
433,792.967041015625,791.7582397460938,788.937744140625,786.5201416015625
434,786.923095703125,792.5640869140625,784.908447265625,780.879150390625
435,792.967041015625,800.2197875976562,791.3552856445312,792.1611938476562
436,802.6373901367188,799.4139404296875,799.010986328125,805.054931640625
437,803.040283203125,789.7435913085938,800.6226806640625,799.010986328125
438,790.5494384765625,784.908447265625,797.8021850585938,787.7289428710938
439,792.1611938476562,792.5640869140625,798.2051391601562,788.937744140625
440,797.8021850585938,795.3846435546875,797.3992919921875,789.3406372070312
441,799.4139404296875,793.7728881835938,797.8021850585938,793.3699340820312
442,804.2490844726562,794.1758422851562,795.3846435546875,789.7435913085938
443,797.8021850585938,790.952392578125,786.923095703125,783.6996459960938
444,793.7728881835938,791.7582397460938,789.7435913085938,786.923095703125
445,796.996337890625,789.7435913085938,798.6080322265625,783.6996459960938
446,794.981689453125,785.3113403320312,799.8168334960938,781.6849975585938
447,794.981689453125,789.3406372070312,794.5787353515625,786.1171875
448,799.010986328125,798.6080322265625,794.5787353515625,792.5640869140625
449,801.025634765625,800.2197875976562,799.8168334960938,793.7728881835938
450,796.1904907226562,798.2051391601562,799.010986328125,795.3846435546875
451,792.967041015625,794.1758422851562,795.7875366210938,792.967041015625
452,797.3992919921875,794.1758422851562,796.1904907226562,788.1318969726562
453,794.5787353515625,794.981689453125,796.1904907226562,784.5054931640625
454,791.7582397460938,786.1171875,793.3699340820312,781.2820434570312
455,796.5933837890625,785.7142944335938,793.3699340820312,788.1318969726562
456,801.025634765625,790.952392578125,793.7728881835938,794.1758422851562
457,796.996337890625,785.3113403320312,792.1611938476562,791.7582397460938
458,790.1465454101562,782.893798828125,789.7435913085938,784.908447265625
459,788.1318969726562,786.5201416015625,792.1611938476562,784.1025390625
460,790.5494384765625,785.3113403320312,799.010986328125,788.1318969726562
461,788.5347900390625,786.1171875,794.5787353515625,785.7142944335938
462,786.923095703125,791.3552856445312,793.7728881835938,788.5347900390625
463,790.1465454101562,793.7728881835938,801.8314819335938,794.1758422851562
464,791.3552856445312,791.7582397460938,795.3846435546875,796.996337890625
465,791.7582397460938,784.1025390625,794.1758422851562,792.1611938476562
466,794.981689453125,785.7142944335938,796.996337890625,788.937744140625
467,797.8021850585938,795.3846435546875,791.7582397460938,790.952392578125
468,791.3552856445312,790.952392578125,791.7582397460938,784.908447265625
469,782.087890625,785.3113403320312,790.1465454101562,780.879150390625
470,786.923095703125,792.5640869140625,792.5640869140625,784.908447265625
471,794.981689453125,792.967041015625,792.1611938476562,793.7728881835938
472,795.7875366210938,789.7435913085938,791.7582397460938,796.5933837890625
473,792.967041015625,791.3552856445312,797.3992919921875,794.5787353515625
474,791.3552856445312,790.1465454101562,796.5933837890625,790.952392578125
475,791.7582397460938,788.1318969726562,794.1758422851562,784.5054931640625
476,790.952392578125,794.1758422851562,792.967041015625,786.1171875
477,788.5347900390625,800.2197875976562,793.7728881835938,790.5494384765625
478,789.7435913085938,792.967041015625,792.1611938476562,794.5787353515625
479,793.7728881835938,785.7142944335938,784.908447265625,801.025634765625
480,790.5494384765625,788.937744140625,790.1465454101562,792.1611938476562
481,786.923095703125,788.937744140625,797.8021850585938,784.5054931640625
482,789.3406372070312,793.7728881835938,786.923095703125,794.981689453125
483,795.7875366210938,794.1758422851562,790.5494384765625,801.025634765625
484,796.996337890625,794.981689453125,803.040283203125,794.5787353515625
485,796.5933837890625,796.1904907226562,800.2197875976562,792.967041015625
486,802.2344360351562,792.5640869140625,799.010986328125,788.5347900390625
487,806.2637329101562,796.5933837890625,803.4432373046875,785.7142944335938
488,795.3846435546875,799.8168334960938,794.5787353515625,790.952392578125
489,794.981689453125,801.025634765625,796.5933837890625,798.2051391601562
490,803.8461303710938,803.4432373046875,801.025634765625,802.2344360351562
491,805.4578857421875,798.2051391601562,796.996337890625,798.2051391601562
492,805.054931640625,791.3552856445312,796.5933837890625,797.8021850585938
493,801.025634765625,796.1904907226562,795.3846435546875,799.4139404296875
494,792.1611938476562,798.2051391601562,794.981689453125,803.4432373046875
495,790.1465454101562,790.1465454101562,795.7875366210938,801.8314819335938
496,792.1611938476562,785.3113403320312,791.7582397460938,792.5640869140625
497,790.5494384765625,788.937744140625,786.5201416015625,793.7728881835938
498,789.3406372070312,793.3699340820312,794.1758422851562,794.1758422851562
499,787.3259887695312,793.3699340820312,800.6226806640625,791.3552856445312
500,785.7142944335938,786.1171875,799.010986328125,788.5347900390625
501,785.3113403320312,782.4908447265625,798.2051391601562,799.4139404296875
502,783.6996459960938,788.5347900390625,795.7875366210938,806.6666870117188
503,779.2673950195312,790.5494384765625,793.3699340820312,790.5494384765625
504,782.893798828125,793.7728881835938,788.937744140625,784.5054931640625
505,789.7435913085938,791.3552856445312,788.937744140625,794.1758422851562
506,789.7435913085938,789.7435913085938,794.981689453125,795.3846435546875
507,800.6226806640625,800.6226806640625,795.3846435546875,795.3846435546875
508,806.2637329101562,799.4139404296875,793.7728881835938,799.8168334960938
509,786.5201416015625,787.7289428710938,793.7728881835938,787.3259887695312
510,780.4761962890625,786.1171875,786.5201416015625,776.8497924804688
511,785.7142944335938,786.923095703125,781.2820434570312,773.2234497070312
512,788.937744140625,789.3406372070312,787.7289428710938,772.4176025390625
513,793.7728881835938,787.3259887695312,796.5933837890625,781.2820434570312
514,794.981689453125,787.7289428710938,797.3992919921875,786.923095703125
515,792.967041015625,786.923095703125,796.5933837890625,782.4908447265625
516,800.2197875976562,791.3552856445312,796.1904907226562,784.1025390625
517,811.5018310546875,801.4285888671875,798.2051391601562,791.7582397460938
518,810.2930297851562,802.2344360351562,800.2197875976562,786.1171875
519,804.6520385742188,803.8461303710938,795.7875366210938,790.1465454101562
520,803.040283203125,797.3992919921875,789.7435913085938,786.5201416015625
521,801.025634765625,788.937744140625,788.937744140625,775.2380981445312
522,801.4285888671875,788.5347900390625,798.6080322265625,783.6996459960938
523,799.8168334960938,796.1904907226562,798.2051391601562,780.0732421875
524,793.7728881835938,797.3992919921875,788.937744140625,782.4908447265625
525,786.5201416015625,792.5640869140625,789.3406372070312,791.7582397460938
526,786.923095703125,797.8021850585938,791.3552856445312,788.1318969726562
527,797.3992919921875,796.1904907226562,795.3846435546875,790.1465454101562
528,805.8607788085938,792.5640869140625,795.7875366210938,796.5933837890625
529,795.3846435546875,794.5787353515625,796.5933837890625,794.981689453125
530,788.1318969726562,795.3846435546875,799.010986328125,789.7435913085938
531,784.5054931640625,793.3699340820312,798.6080322265625,787.3259887695312
532,782.4908447265625,790.1465454101562,791.3552856445312,792.5640869140625
533,788.937744140625,788.937744140625,791.3552856445312,794.5787353515625
534,787.7289428710938,790.1465454101562,795.7875366210938,791.7582397460938
535,789.7435913085938,791.3552856445312,792.1611938476562,795.7875366210938
536,799.010986328125,791.3552856445312,796.5933837890625,802.6373901367188
537,800.6226806640625,788.1318969726562,797.3992919921875,805.8607788085938
538,802.6373901367188,782.893798828125,792.1611938476562,802.6373901367188
539,802.6373901367188,783.2966918945312,793.3699340820312,798.6080322265625
540,797.3992919921875,786.923095703125,793.3699340820312,796.5933837890625
541,797.3992919921875,787.7289428710938,788.1318969726562,796.1904907226562
542,796.5933837890625,786.5201416015625,786.923095703125,793.3699340820312
543,802.2344360351562,787.3259887695312,788.5347900390625,796.1904907226562
544,805.8607788085938,783.6996459960938,787.3259887695312,797.3992919921875
545,797.3992919921875,779.2673950195312,788.5347900390625,786.923095703125
546,789.7435913085938,785.7142944335938,790.5494384765625,788.1318969726562
547,787.3259887695312,789.7435913085938,792.967041015625,786.1171875
548,791.3552856445312,788.937744140625,797.3992919921875,785.3113403320312
549,795.7875366210938,792.5640869140625,796.5933837890625,793.7728881835938
550,789.7435913085938,785.7142944335938,790.5494384765625,791.7582397460938
551,783.6996459960938,780.879150390625,795.7875366210938,793.3699340820312
552,786.5201416015625,792.5640869140625,801.8314819335938,801.8314819335938
553,791.3552856445312,799.4139404296875,796.1904907226562,801.4285888671875
554,790.1465454101562,796.1904907226562,790.5494384765625,796.996337890625
555,788.5347900390625,791.7582397460938,796.5933837890625,793.3699340820312
556,795.7875366210938,791.3552856445312,797.8021850585938,797.3992919921875
557,793.7728881835938,789.7435913085938,794.1758422851562,792.967041015625
558,791.7582397460938,790.1465454101562,789.7435913085938,782.4908447265625
559,798.2051391601562,793.3699340820312,791.7582397460938,783.6996459960938
560,795.3846435546875,798.6080322265625,795.3846435546875,781.2820434570312
561,794.1758422851562,804.2490844726562,788.5347900390625,779.6703491210938
562,797.3992919921875,798.2051391601562,791.3552856445312,782.4908447265625
563,801.025634765625,796.996337890625,798.2051391601562,788.937744140625
564,805.4578857421875,798.6080322265625,795.7875366210938,791.3552856445312
565,804.6520385742188,793.3699340820312,800.2197875976562,796.1904907226562
566,800.6226806640625,795.7875366210938,800.2197875976562,801.8314819335938
567,805.054931640625,792.5640869140625,791.7582397460938,805.4578857421875
568,806.2637329101562,791.3552856445312,794.5787353515625,811.098876953125
569,805.4578857421875,796.1904907226562,801.025634765625,807.4725341796875
570,804.6520385742188,792.5640869140625,799.8168334960938,801.025634765625
571,800.2197875976562,790.5494384765625,801.025634765625,793.7728881835938
572,793.7728881835938,796.5933837890625,800.2197875976562,791.7582397460938
573,791.7582397460938,792.967041015625,792.5640869140625,788.1318969726562
574,786.923095703125,786.923095703125,795.3846435546875,777.2527465820312
575,782.087890625,786.923095703125,793.7728881835938,772.4176025390625
576,782.893798828125,787.3259887695312,786.923095703125,772.4176025390625
577,777.6557006835938,785.7142944335938,789.3406372070312,768.3883056640625
578,781.2820434570312,788.1318969726562,787.7289428710938,778.05859375
579,788.1318969726562,793.3699340820312,788.937744140625,790.952392578125
580,785.7142944335938,791.7582397460938,796.1904907226562,786.1171875
581,791.7582397460938,790.952392578125,792.5640869140625,786.5201416015625
582,794.1758422851562,793.3699340820312,791.3552856445312,791.7582397460938
583,794.981689453125,795.7875366210938,794.1758422851562,792.1611938476562
584,797.8021850585938,792.1611938476562,793.3699340820312,787.7289428710938
585,798.2051391601562,784.908447265625,792.967041015625,790.1465454101562
586,795.7875366210938,792.967041015625,788.1318969726562,790.5494384765625
587,796.1904907226562,801.4285888671875,782.4908447265625,786.923095703125
588,793.3699340820312,790.5494384765625,786.5201416015625,792.967041015625
589,789.7435913085938,790.5494384765625,788.5347900390625,800.2197875976562
590,793.3699340820312,794.5787353515625,784.908447265625,807.069580078125
591,792.5640869140625,791.3552856445312,788.937744140625,799.4139404296875
592,792.1611938476562,795.7875366210938,790.1465454101562,784.908447265625
593,791.7582397460938,790.5494384765625,787.3259887695312,786.1171875
594,789.3406372070312,790.5494384765625,789.3406372070312,792.967041015625
595,791.3552856445312,794.5787353515625,790.5494384765625,796.5933837890625
596,796.1904907226562,788.1318969726562,786.1171875,785.7142944335938
597,790.5494384765625,784.908447265625,791.3552856445312,776.8497924804688
598,788.5347900390625,793.3699340820312,798.2051391601562,789.3406372070312
599,790.952392578125,795.7875366210938,794.5787353515625,793.3699340820312
600,782.087890625,794.5787353515625,792.1611938476562,785.7142944335938
601,783.2966918945312,794.1758422851562,792.1611938476562,787.7289428710938
602,790.952392578125,792.1611938476562,796.1904907226562,792.1611938476562
603,789.7435913085938,794.981689453125,796.1904907226562,788.5347900390625
604,790.1465454101562,793.3699340820312,792.967041015625,786.923095703125
605,788.1318969726562,788.937744140625,794.981689453125,782.893798828125
606,782.893798828125,789.7435913085938,797.8021850585938,781.2820434570312
607,792.1611938476562,787.3259887695312,798.2051391601562,785.3113403320312
608,795.7875366210938,788.1318969726562,794.981689453125,791.7582397460938
609,792.5640869140625,790.952392578125,788.5347900390625,794.5787353515625
610,790.1465454101562,787.7289428710938,792.967041015625,792.967041015625
611,795.7875366210938,788.937744140625,797.8021850585938,794.1758422851562
612,803.4432373046875,788.5347900390625,791.7582397460938,800.6226806640625
613,802.6373901367188,782.4908447265625,793.7728881835938,807.069580078125
614,801.4285888671875,782.087890625,801.4285888671875,798.6080322265625
615,801.025634765625,784.5054931640625,800.2197875976562,791.7582397460938
616,800.2197875976562,782.4908447265625,799.8168334960938,801.8314819335938
617,792.5640869140625,785.3113403320312,802.2344360351562,801.8314819335938
618,782.4908447265625,791.3552856445312,799.4139404296875,791.7582397460938
619,784.1025390625,786.5201416015625,793.7728881835938,785.7142944335938
620,796.5933837890625,787.7289428710938,790.1465454101562,788.1318969726562
621,799.8168334960938,794.5787353515625,790.5494384765625,783.6996459960938
622,798.2051391601562,793.3699340820312,792.5640869140625,780.0732421875
623,801.4285888671875,792.5640869140625,786.923095703125,790.1465454101562
624,803.4432373046875,796.1904907226562,786.5201416015625,799.8168334960938
625,794.981689453125,794.1758422851562,797.3992919921875,787.7289428710938
626,783.2966918945312,786.5201416015625,797.3992919921875,768.3883056640625
627,779.6703491210938,784.1025390625,794.1758422851562,769.5970458984375
628,788.5347900390625,788.5347900390625,795.3846435546875,781.2820434570312
629,795.7875366210938,791.3552856445312,795.3846435546875,784.908447265625
630,796.1904907226562,793.3699340820312,796.5933837890625,787.7289428710938
631,796.996337890625,792.1611938476562,795.7875366210938,796.5933837890625
632,792.1611938476562,791.3552856445312,795.3846435546875,797.3992919921875
633,791.7582397460938,795.7875366210938,794.981689453125,798.6080322265625
634,799.010986328125,799.010986328125,794.5787353515625,800.6226806640625
635,803.4432373046875,799.8168334960938,798.2051391601562,799.8168334960938
636,803.8461303710938,791.7582397460938,799.4139404296875,804.6520385742188
637,796.996337890625,788.1318969726562,796.5933837890625,804.2490844726562
638,791.7582397460938,794.1758422851562,794.981689453125,798.6080322265625
639,794.1758422851562,796.1904907226562,795.3846435546875,803.4432373046875
640,803.4432373046875,792.967041015625,794.981689453125,813.5164794921875
641,805.054931640625,791.3552856445312,798.6080322265625,806.2637329101562
642,803.8461303710938,797.3992919921875,796.996337890625,803.4432373046875
643,801.4285888671875,801.8314819335938,794.981689453125,803.040283203125
644,796.996337890625,800.2197875976562,788.1318969726562,796.5933837890625
645,800.2197875976562,796.5933837890625,784.1025390625,794.981689453125
646,798.2051391601562,794.981689453125,796.5933837890625,794.1758422851562
647,786.5201416015625,796.996337890625,799.4139404296875,788.5347900390625
648,782.893798828125,796.996337890625,796.996337890625,782.4908447265625
649,790.1465454101562,798.6080322265625,796.996337890625,784.1025390625
650,796.1904907226562,802.2344360351562,798.2051391601562,791.3552856445312
651,800.6226806640625,797.3992919921875,796.5933837890625,793.3699340820312
652,801.025634765625,801.025634765625,799.010986328125,794.1758422851562
653,798.6080322265625,807.4725341796875,801.8314819335938,795.3846435546875
654,796.996337890625,799.010986328125,791.7582397460938,790.1465454101562
655,800.2197875976562,798.6080322265625,792.1611938476562,785.7142944335938
656,801.025634765625,799.010986328125,795.3846435546875,784.908447265625
657,797.3992919921875,795.3846435546875,796.1904907226562,790.952392578125
658,796.1904907226562,801.8314819335938,800.6226806640625,796.5933837890625
659,795.3846435546875,803.8461303710938,798.6080322265625,805.8607788085938
660,794.5787353515625,798.6080322265625,794.1758422851562,811.90478515625
661,794.5787353515625,798.2051391601562,794.981689453125,804.2490844726562
662,792.1611938476562,790.952392578125,799.4139404296875,800.6226806640625
663,797.8021850585938,786.1171875,799.4139404296875,811.5018310546875
664,800.6226806640625,791.7582397460938,801.8314819335938,813.91943359375
665,799.010986328125,798.2051391601562,802.2344360351562,803.8461303710938
666,799.4139404296875,797.8021850585938,796.5933837890625,806.6666870117188
667,796.996337890625,797.3992919921875,790.952392578125,798.2051391601562
668,797.3992919921875,800.2197875976562,789.7435913085938,780.0732421875
669,792.5640869140625,798.6080322265625,792.5640869140625,780.0732421875
670,786.5201416015625,798.2051391601562,795.7875366210938,783.2966918945312
671,788.1318969726562,797.8021850585938,798.6080322265625,784.1025390625
672,795.3846435546875,792.5640869140625,800.2197875976562,791.3552856445312
673,792.5640869140625,792.1611938476562,800.6226806640625,794.1758422851562
674,792.5640869140625,793.7728881835938,803.4432373046875,800.6226806640625
675,795.7875366210938,790.952392578125,805.4578857421875,804.2490844726562
676,791.3552856445312,786.5201416015625,798.2051391601562,795.3846435546875
677,798.2051391601562,790.952392578125,796.1904907226562,796.996337890625
678,801.4285888671875,796.996337890625,802.6373901367188,796.996337890625
679,798.2051391601562,797.8021850585938,796.996337890625,792.5640869140625
680,795.7875366210938,799.4139404296875,798.2051391601562,791.7582397460938
681,800.2197875976562,796.1904907226562,802.6373901367188,795.3846435546875
682,805.8607788085938,792.967041015625,798.2051391601562,801.025634765625
683,801.4285888671875,793.7728881835938,796.5933837890625,801.8314819335938
684,799.8168334960938,793.7728881835938,799.010986328125,797.3992919921875
685,804.2490844726562,791.7582397460938,801.4285888671875,799.4139404296875
686,810.2930297851562,787.3259887695312,797.8021850585938,815.93408203125
687,805.8607788085938,786.923095703125,798.6080322265625,813.91943359375
688,803.4432373046875,791.7582397460938,799.010986328125,793.3699340820312
689,801.8314819335938,790.952392578125,792.5640869140625,784.5054931640625
690,792.5640869140625,784.1025390625,793.7728881835938,782.4908447265625
691,792.5640869140625,785.3113403320312,794.981689453125,780.4761962890625
692,795.3846435546875,792.1611938476562,789.7435913085938,783.2966918945312
693,791.3552856445312,791.7582397460938,789.7435913085938,789.7435913085938
694,791.7582397460938,788.5347900390625,789.3406372070312,789.3406372070312
695,792.5640869140625,788.937744140625,792.5640869140625,783.2966918945312
696,788.5347900390625,790.5494384765625,795.3846435546875,776.8497924804688
697,788.5347900390625,788.5347900390625,788.5347900390625,783.6996459960938
698,782.893798828125,788.1318969726562,788.5347900390625,794.981689453125
699,781.2820434570312,788.937744140625,798.6080322265625,796.5933837890625
700,791.3552856445312,794.1758422851562,800.2197875976562,798.2051391601562
701,789.7435913085938,794.1758422851562,801.025634765625,794.5787353515625
702,785.7142944335938,783.6996459960938,801.4285888671875,793.3699340820312
703,785.7142944335938,786.5201416015625,799.010986328125,797.3992919921875
704,784.908447265625,799.8168334960938,799.010986328125,795.7875366210938
705,788.937744140625,801.4285888671875,797.8021850585938,794.1758422851562
706,792.967041015625,797.3992919921875,797.8021850585938,790.952392578125
707,792.5640869140625,796.1904907226562,796.996337890625,785.3113403320312
708,792.967041015625,792.5640869140625,794.1758422851562,794.5787353515625
709,793.7728881835938,792.967041015625,801.4285888671875,803.8461303710938
710,791.7582397460938,796.996337890625,803.8461303710938,793.3699340820312
711,791.3552856445312,798.6080322265625,801.4285888671875,786.923095703125
712,795.3846435546875,795.3846435546875,800.6226806640625,794.5787353515625
713,794.5787353515625,787.3259887695312,796.996337890625,796.5933837890625
714,792.1611938476562,791.7582397460938,794.981689453125,792.1611938476562
715,796.1904907226562,801.8314819335938,793.7728881835938,794.1758422851562
716,795.7875366210938,799.010986328125,792.5640869140625,789.7435913085938
717,796.996337890625,801.025634765625,795.3846435546875,794.5787353515625
718,795.7875366210938,800.2197875976562,797.3992919921875,792.5640869140625
719,783.2966918945312,790.5494384765625,794.1758422851562,789.7435913085938
720,778.05859375,788.5347900390625,790.5494384765625,799.8168334960938
721,782.087890625,790.1465454101562,786.923095703125,794.5787353515625
722,781.2820434570312,790.1465454101562,786.5201416015625,780.879150390625
723,777.6557006835938,787.3259887695312,787.3259887695312,781.2820434570312
724,780.0732421875,786.5201416015625,788.1318969726562,790.1465454101562
725,785.3113403320312,788.1318969726562,794.5787353515625,792.967041015625
726,787.3259887695312,786.5201416015625,799.8168334960938,786.5201416015625
727,795.3846435546875,790.5494384765625,799.8168334960938,785.7142944335938
728,801.8314819335938,803.040283203125,802.6373901367188,790.952392578125
729,803.4432373046875,806.6666870117188,801.4285888671875,788.5347900390625
730,799.8168334960938,798.6080322265625,796.1904907226562,782.893798828125
731,801.4285888671875,788.937744140625,794.5787353515625,786.5201416015625
732,808.2783813476562,789.7435913085938,792.5640869140625,797.8021850585938
733,807.069580078125,798.6080322265625,790.5494384765625,801.8314819335938
734,801.8314819335938,805.054931640625,794.5787353515625,796.996337890625
735,793.7728881835938,799.8168334960938,792.967041015625,791.7582397460938
736,786.923095703125,796.1904907226562,793.3699340820312,798.2051391601562
737,789.3406372070312,802.2344360351562,797.8021850585938,799.4139404296875
738,794.5787353515625,799.010986328125,798.6080322265625,797.3992919921875
739,789.3406372070312,792.5640869140625,794.1758422851562,794.981689453125
740,777.6557006835938,793.3699340820312,788.937744140625,789.7435913085938
741,779.2673950195312,796.5933837890625,792.967041015625,785.3113403320312
742,786.1171875,797.3992919921875,799.010986328125,782.4908447265625
743,788.937744140625,800.2197875976562,793.7728881835938,788.937744140625
744,787.3259887695312,795.3846435546875,787.7289428710938,789.7435913085938
745,780.879150390625,786.1171875,791.7582397460938,786.1171875
746,782.893798828125,789.7435913085938,790.1465454101562,790.1465454101562
747,790.1465454101562,793.3699340820312,786.923095703125,801.4285888671875
748,795.7875366210938,794.5787353515625,792.1611938476562,800.6226806640625
749,794.981689453125,795.7875366210938,797.3992919921875,791.7582397460938
750,792.967041015625,790.952392578125,798.6080322265625,797.3992919921875
751,793.7728881835938,784.1025390625,798.6080322265625,794.5787353515625
752,798.2051391601562,789.7435913085938,800.2197875976562,793.3699340820312
753,801.4285888671875,793.3699340820312,799.8168334960938,796.1904907226562
754,801.8314819335938,794.1758422851562,797.3992919921875,797.3992919921875
755,799.4139404296875,797.8021850585938,795.7875366210938,800.2197875976562
756,799.8168334960938,799.8168334960938,795.3846435546875,798.2051391601562
757,800.6226806640625,796.5933837890625,795.7875366210938,799.4139404296875
758,805.054931640625,791.7582397460938,792.5640869140625,803.040283203125
759,805.4578857421875,796.5933837890625,791.3552856445312,803.040283203125
760,797.3992919921875,800.6226806640625,795.3846435546875,792.967041015625
761,794.981689453125,787.7289428710938,793.3699340820312,785.7142944335938
762,797.3992919921875,781.6849975585938,790.952392578125,780.879150390625
763,795.3846435546875,790.952392578125,794.5787353515625,779.2673950195312
764,790.952392578125,795.7875366210938,791.3552856445312,778.05859375
765,784.5054931640625,798.2051391601562,790.952392578125,776.0439453125
766,784.5054931640625,795.3846435546875,794.981689453125,780.879150390625
767,788.1318969726562,796.1904907226562,794.1758422851562,781.2820434570312
768,785.3113403320312,794.1758422851562,795.3846435546875,781.6849975585938
769,784.1025390625,787.7289428710938,793.7728881835938,786.5201416015625
770,789.3406372070312,789.3406372070312,795.7875366210938,797.8021850585938
771,793.7728881835938,789.7435913085938,799.8168334960938,803.040283203125
772,793.3699340820312,788.5347900390625,799.4139404296875,799.4139404296875
773,799.4139404296875,785.3113403320312,795.7875366210938,797.8021850585938
774,802.2344360351562,786.1171875,794.5787353515625,792.967041015625
775,801.8314819335938,794.1758422851562,793.7728881835938,795.7875366210938
776,801.8314819335938,793.3699340820312,795.3846435546875,794.981689453125
777,798.2051391601562,792.1611938476562,795.3846435546875,789.7435913085938
778,800.2197875976562,795.3846435546875,791.3552856445312,786.5201416015625
779,803.8461303710938,788.5347900390625,787.3259887695312,788.5347900390625
780,807.4725341796875,788.1318969726562,792.967041015625,796.5933837890625
781,809.89013671875,794.981689453125,797.3992919921875,801.4285888671875
782,812.3076782226562,798.6080322265625,795.7875366210938,808.6813354492188
783,807.069580078125,801.025634765625,798.2051391601562,805.054931640625
784,794.5787353515625,797.8021850585938,792.967041015625,791.7582397460938
785,787.3259887695312,799.010986328125,786.923095703125,785.3113403320312
786,787.3259887695312,796.1904907226562,784.1025390625,780.4761962890625
787,785.3113403320312,790.5494384765625,785.3113403320312,778.4615478515625
788,786.5201416015625,792.1611938476562,785.7142944335938,782.087890625
789,796.1904907226562,786.5201416015625,786.5201416015625,788.937744140625
790,792.1611938476562,786.1171875,790.952392578125,786.5201416015625
791,785.3113403320312,790.952392578125,790.952392578125,780.0732421875
792,783.6996459960938,788.1318969726562,795.3846435546875,775.2380981445312
793,781.2820434570312,782.4908447265625,790.5494384765625,782.4908447265625
794,780.0732421875,782.087890625,787.7289428710938,790.952392578125
795,776.8497924804688,781.2820434570312,795.7875366210938,784.1025390625
796,775.2380981445312,780.4761962890625,792.967041015625,781.6849975585938
797,779.2673950195312,784.908447265625,787.3259887695312,787.7289428710938
798,783.2966918945312,789.7435913085938,790.5494384765625,786.923095703125
799,782.893798828125,784.5054931640625,794.981689453125,787.3259887695312
800,788.1318969726562,776.8497924804688,796.1904907226562,795.3846435546875
801,786.5201416015625,781.6849975585938,794.1758422851562,794.981689453125
802,788.1318969726562,785.7142944335938,792.1611938476562,795.3846435546875
803,798.6080322265625,782.087890625,789.3406372070312,802.6373901367188
804,795.3846435546875,781.2820434570312,790.952392578125,803.8461303710938
805,792.1611938476562,780.879150390625,796.1904907226562,807.069580078125
806,789.3406372070312,781.6849975585938,794.1758422851562,802.2344360351562
807,784.908447265625,786.5201416015625,789.7435913085938,790.5494384765625
808,788.5347900390625,790.1465454101562,788.1318969726562,787.3259887695312
809,793.7728881835938,791.3552856445312,785.3113403320312,791.3552856445312
810,796.1904907226562,792.967041015625,790.5494384765625,796.5933837890625
811,798.6080322265625,795.7875366210938,792.1611938476562,795.7875366210938
812,796.1904907226562,793.3699340820312,791.3552856445312,795.3846435546875
813,800.2197875976562,794.1758422851562,795.3846435546875,796.996337890625
814,807.87548828125,794.981689453125,793.3699340820312,793.7728881835938
815,804.2490844726562,794.1758422851562,788.5347900390625,794.981689453125
816,790.952392578125,798.6080322265625,787.7289428710938,787.7289428710938
817,786.1171875,797.3992919921875,794.981689453125,774.8351440429688
818,793.3699340820312,794.1758422851562,798.6080322265625,779.2673950195312
819,792.5640869140625,797.3992919921875,792.5640869140625,785.7142944335938
820,789.3406372070312,801.025634765625,796.1904907226562,794.1758422851562
821,788.5347900390625,800.6226806640625,802.2344360351562,801.8314819335938
822,790.5494384765625,800.6226806640625,795.3846435546875,794.981689453125
823,788.1318969726562,797.8021850585938,797.3992919921875,791.3552856445312
824,786.923095703125,793.3699340820312,802.6373901367188,792.967041015625
825,793.3699340820312,790.1465454101562,800.2197875976562,796.5933837890625
826,795.3846435546875,784.5054931640625,798.6080322265625,801.4285888671875
827,796.5933837890625,786.1171875,798.6080322265625,801.025634765625
828,799.8168334960938,790.1465454101562,799.8168334960938,800.6226806640625
829,800.6226806640625,790.1465454101562,797.8021850585938,800.2197875976562
830,795.3846435546875,791.3552856445312,796.5933837890625,795.3846435546875
831,790.1465454101562,788.1318969726562,797.3992919921875,800.2197875976562
832,789.7435913085938,789.3406372070312,794.981689453125,811.5018310546875
833,788.1318969726562,798.2051391601562,794.5787353515625,805.8607788085938
834,788.937744140625,796.5933837890625,791.7582397460938,795.3846435546875
835,796.996337890625,790.952392578125,795.7875366210938,794.981689453125
836,798.6080322265625,791.7582397460938,800.2197875976562,793.3699340820312
837,799.010986328125,788.1318969726562,796.1904907226562,787.7289428710938
838,811.90478515625,776.4468994140625,794.5787353515625,784.5054931640625
839,813.5164794921875,780.879150390625,791.7582397460938,792.5640869140625
840,804.6520385742188,795.7875366210938,792.967041015625,796.996337890625
841,801.4285888671875,797.8021850585938,793.3699340820312,789.7435913085938
842,794.981689453125,797.8021850585938,791.3552856445312,789.7435913085938
843,796.996337890625,794.1758422851562,786.923095703125,792.5640869140625
844,802.6373901367188,790.5494384765625,785.3113403320312,788.5347900390625
845,798.6080322265625,795.3846435546875,794.5787353515625,778.05859375
846,796.1904907226562,796.996337890625,796.5933837890625,779.6703491210938
847,794.981689453125,795.3846435546875,795.3846435546875,783.2966918945312
848,788.937744140625,790.1465454101562,791.7582397460938,782.893798828125
849,788.5347900390625,791.3552856445312,790.5494384765625,783.6996459960938
850,796.1904907226562,790.952392578125,793.7728881835938,790.952392578125
851,798.2051391601562,787.7289428710938,794.981689453125,794.1758422851562
852,792.5640869140625,793.3699340820312,796.1904907226562,791.7582397460938
853,787.7289428710938,786.1171875,799.010986328125,785.7142944335938
854,786.923095703125,783.2966918945312,798.6080322265625,783.6996459960938
855,784.5054931640625,794.1758422851562,793.7728881835938,792.1611938476562
856,782.4908447265625,794.1758422851562,796.5933837890625,793.3699340820312
857,786.923095703125,789.7435913085938,799.4139404296875,787.3259887695312
858,785.7142944335938,790.5494384765625,801.025634765625,789.7435913085938
859,780.0732421875,792.967041015625,796.1904907226562,784.908447265625
860,782.087890625,790.5494384765625,788.1318969726562,786.923095703125
861,792.1611938476562,790.5494384765625,792.967041015625,797.3992919921875
862,789.3406372070312,792.967041015625,796.5933837890625,789.7435913085938
863,781.2820434570312,792.5640869140625,796.1904907226562,783.6996459960938
864,786.5201416015625,795.3846435546875,791.3552856445312,790.1465454101562
865,786.1171875,784.5054931640625,787.3259887695312,788.5347900390625
866,788.5347900390625,775.6410522460938,790.5494384765625,791.7582397460938
867,793.3699340820312,783.6996459960938,790.952392578125,798.2051391601562
868,793.3699340820312,791.3552856445312,793.3699340820312,790.5494384765625
869,796.996337890625,792.5640869140625,796.5933837890625,781.6849975585938
870,802.6373901367188,788.937744140625,795.3846435546875,774.4322509765625
871,805.8607788085938,792.5640869140625,792.5640869140625,776.8497924804688
872,802.2344360351562,798.2051391601562,786.923095703125,780.879150390625
873,804.2490844726562,803.8461303710938,785.3113403320312,785.3113403320312
874,801.4285888671875,803.040283203125,790.952392578125,789.7435913085938
875,800.6226806640625,802.2344360351562,786.923095703125,788.5347900390625
876,803.4432373046875,795.7875366210938,781.6849975585938,784.5054931640625
877,803.040283203125,790.952392578125,789.3406372070312,791.3552856445312
878,799.8168334960938,792.5640869140625,793.3699340820312,806.2637329101562
879,795.3846435546875,787.7289428710938,794.1758422851562,799.4139404296875
880,797.8021850585938,788.937744140625,796.5933837890625,790.952392578125
881,799.4139404296875,791.3552856445312,794.981689453125,798.2051391601562
882,797.3992919921875,790.5494384765625,796.5933837890625,807.069580078125
883,794.981689453125,793.3699340820312,796.1904907226562,801.8314819335938
884,788.937744140625,789.7435913085938,792.967041015625,796.5933837890625
885,788.5347900390625,786.923095703125,795.7875366210938,801.4285888671875
886,790.952392578125,785.3113403320312,801.4285888671875,801.025634765625
887,787.7289428710938,779.2673950195312,807.87548828125,803.4432373046875
888,787.7289428710938,774.8351440429688,804.6520385742188,802.2344360351562
889,780.879150390625,772.0146484375,794.5787353515625,799.8168334960938
890,778.05859375,777.2527465820312,793.3699340820312,794.1758422851562
891,780.879150390625,781.2820434570312,796.996337890625,782.087890625
892,788.1318969726562,785.3113403320312,795.3846435546875,781.6849975585938
893,795.3846435546875,790.952392578125,794.1758422851562,781.6849975585938
894,791.7582397460938,792.5640869140625,794.1758422851562,778.4615478515625
895,785.7142944335938,790.1465454101562,791.7582397460938,778.05859375
896,787.7289428710938,789.3406372070312,792.967041015625,782.087890625
897,796.1904907226562,788.937744140625,789.7435913085938,784.5054931640625
898,800.2197875976562,792.1611938476562,787.3259887695312,783.6996459960938
899,801.4285888671875,794.981689453125,794.1758422851562,786.1171875
900,801.025634765625,790.1465454101562,793.7728881835938,791.3552856445312
901,804.2490844726562,790.952392578125,791.7582397460938,804.6520385742188
902,801.8314819335938,789.3406372070312,794.1758422851562,805.4578857421875
903,795.7875366210938,790.952392578125,795.3846435546875,796.1904907226562
904,797.3992919921875,795.3846435546875,797.3992919921875,795.3846435546875
905,789.7435913085938,793.7728881835938,793.7728881835938,792.967041015625
906,791.7582397460938,796.996337890625,793.3699340820312,792.1611938476562
907,799.8168334960938,793.7728881835938,793.7728881835938,796.1904907226562
908,799.010986328125,790.1465454101562,792.5640869140625,801.4285888671875
909,793.7728881835938,790.952392578125,789.3406372070312,800.6226806640625
910,793.7728881835938,790.5494384765625,790.952392578125,797.8021850585938
911,797.8021850585938,787.7289428710938,791.7582397460938,794.981689453125
912,792.967041015625,783.6996459960938,796.1904907226562,794.981689453125
913,794.1758422851562,783.2966918945312,799.010986328125,796.996337890625
914,798.2051391601562,785.7142944335938,798.6080322265625,791.7582397460938
915,800.2197875976562,785.3113403320312,801.025634765625,788.5347900390625
916,806.6666870117188,787.7289428710938,795.3846435546875,791.7582397460938
917,809.89013671875,796.1904907226562,791.7582397460938,792.967041015625
918,810.6959838867188,798.2051391601562,795.3846435546875,786.923095703125
919,805.8607788085938,796.1904907226562,791.7582397460938,787.7289428710938
920,799.4139404296875,794.1758422851562,786.5201416015625,780.0732421875
921,804.2490844726562,794.981689453125,787.3259887695312,774.8351440429688
922,809.084228515625,800.2197875976562,791.7582397460938,786.923095703125
923,808.2783813476562,799.4139404296875,789.3406372070312,782.4908447265625
924,810.6959838867188,800.6226806640625,786.1171875,776.4468994140625
925,807.87548828125,801.8314819335938,791.7582397460938,777.2527465820312
926,808.6813354492188,796.5933837890625,791.3552856445312,775.6410522460938
927,809.89013671875,791.3552856445312,787.3259887695312,776.8497924804688
928,801.4285888671875,796.1904907226562,791.7582397460938,788.1318969726562
929,799.010986328125,808.2783813476562,792.967041015625,788.5347900390625
930,790.1465454101562,805.4578857421875,790.5494384765625,785.7142944335938
931,782.4908447265625,797.8021850585938,796.1904907226562,796.996337890625
932,779.6703491210938,802.2344360351562,800.6226806640625,802.6373901367188
933,773.2234497070312,797.3992919921875,803.4432373046875,798.6080322265625
934,774.8351440429688,790.952392578125,807.4725341796875,801.025634765625
935,776.8497924804688,796.1904907226562,804.6520385742188,801.8314819335938
936,769.5970458984375,786.5201416015625,800.2197875976562,800.2197875976562
937,772.0146484375,783.2966918945312,798.6080322265625,810.2930297851562
938,782.893798828125,794.981689453125,801.025634765625,811.5018310546875
939,788.5347900390625,800.2197875976562,803.4432373046875,817.5457763671875
940,794.981689453125,797.3992919921875,802.6373901367188,815.93408203125
941,803.040283203125,796.996337890625,799.010986328125,794.5787353515625
942,812.7106323242188,803.040283203125,792.967041015625,788.937744140625
943,821.97802734375,803.040283203125,794.1758422851562,788.937744140625
944,816.3369750976562,799.010986328125,794.1758422851562,782.4908447265625
945,813.5164794921875,799.8168334960938,790.1465454101562,784.5054931640625
946,815.1282348632812,796.996337890625,785.7142944335938,785.7142944335938
947,813.91943359375,803.040283203125,786.5201416015625,790.5494384765625
948,821.5750732421875,813.5164794921875,782.4908447265625,794.1758422851562
949,822.7838745117188,810.6959838867188,775.6410522460938,783.6996459960938
950,815.93408203125,807.4725341796875,779.2673950195312,772.0146484375
951,815.93408203125,803.8461303710938,782.893798828125,773.2234497070312
952,819.5604248046875,803.4432373046875,782.4908447265625,772.4176025390625
953,816.3369750976562,805.054931640625,779.6703491210938,765.970703125
954,804.6520385742188,796.996337890625,780.4761962890625,761.94140625
955,801.025634765625,797.3992919921875,783.6996459960938,768.3883056640625
956,794.1758422851562,807.4725341796875,783.6996459960938,767.1795043945312
957,782.087890625,802.2344360351562,785.7142944335938,760.7326049804688
958,780.4761962890625,799.4139404296875,794.5787353515625,773.2234497070312
959,778.8644409179688,799.010986328125,797.8021850585938,778.05859375
960,782.087890625,796.5933837890625,794.5787353515625,780.4761962890625
961,788.5347900390625,800.6226806640625,802.2344360351562,796.1904907226562
962,785.7142944335938,795.7875366210938,807.069580078125,813.113525390625
963,782.893798828125,790.5494384765625,801.025634765625,819.96337890625
964,787.3259887695312,793.7728881835938,801.025634765625,813.113525390625
965,795.3846435546875,796.996337890625,803.040283203125,811.5018310546875
966,792.5640869140625,796.5933837890625,809.084228515625,815.93408203125
967,789.3406372070312,795.7875366210938,809.89013671875,811.90478515625
968,797.8021850585938,800.6226806640625,805.054931640625,807.069580078125
969,803.040283203125,798.6080322265625,799.010986328125,807.4725341796875
970,801.4285888671875,799.8168334960938,792.5640869140625,807.87548828125
971,803.040283203125,802.2344360351562,801.8314819335938,812.7106323242188
972,802.2344360351562,794.1758422851562,802.6373901367188,808.6813354492188
973,805.4578857421875,793.7728881835938,793.7728881835938,802.6373901367188
974,811.5018310546875,798.2051391601562,793.7728881835938,809.084228515625
975,808.2783813476562,796.1904907226562,790.5494384765625,805.054931640625
976,805.8607788085938,796.996337890625,787.7289428710938,796.996337890625
977,807.87548828125,800.6226806640625,789.7435913085938,797.8021850585938
978,803.4432373046875,805.8607788085938,792.1611938476562,801.4285888671875
979,803.8461303710938,803.040283203125,793.3699340820312,801.8314819335938
980,810.2930297851562,800.2197875976562,793.7728881835938,797.8021850585938
981,811.5018310546875,803.040283203125,797.3992919921875,800.2197875976562
982,810.2930297851562,806.2637329101562,799.4139404296875,796.5933837890625
983,805.8607788085938,809.084228515625,798.2051391601562,787.3259887695312
984,802.6373901367188,804.2490844726562,797.3992919921875,784.5054931640625
985,799.010986328125,796.1904907226562,793.3699340820312,790.1465454101562
986,788.5347900390625,784.908447265625,792.5640869140625,794.1758422851562
987,786.5201416015625,786.923095703125,798.6080322265625,787.3259887695312
988,784.1025390625,794.981689453125,796.996337890625,786.923095703125
989,782.087890625,793.7728881835938,801.4285888671875,789.3406372070312
990,786.5201416015625,794.981689453125,805.4578857421875,788.937744140625
991,783.6996459960938,789.7435913085938,802.6373901367188,785.3113403320312
992,781.6849975585938,781.2820434570312,801.025634765625,782.087890625
993,788.1318969726562,788.5347900390625,802.2344360351562,783.6996459960938
994,792.1611938476562,792.5640869140625,805.4578857421875,790.1465454101562
995,791.7582397460938,789.7435913085938,807.069580078125,791.7582397460938
996,792.5640869140625,791.3552856445312,802.6373901367188,791.3552856445312
997,792.967041015625,788.5347900390625,798.6080322265625,799.4139404296875
998,794.981689453125,785.3113403320312,798.2051391601562,794.5787353515625
999,798.2051391601562,788.1318969726562,801.4285888671875,786.1171875
1000,798.6080322265625,791.7582397460938,797.8021850585938,792.5640869140625
1001,794.1758422851562,793.3699340820312,790.952392578125,795.3846435546875
1002,790.952392578125,791.3552856445312,790.5494384765625,796.996337890625
1003,793.7728881835938,786.5201416015625,796.1904907226562,803.8461303710938
1004,794.981689453125,790.1465454101562,795.3846435546875,802.6373901367188
1005,799.4139404296875,802.2344360351562,796.996337890625,798.6080322265625
1006,798.6080322265625,801.4285888671875,799.8168334960938,794.1758422851562
1007,787.3259887695312,795.3846435546875,796.5933837890625,792.1611938476562
1008,788.1318969726562,795.7875366210938,791.7582397460938,799.8168334960938
1009,788.937744140625,794.1758422851562,790.5494384765625,804.6520385742188
1010,787.3259887695312,789.7435913085938,788.5347900390625,792.5640869140625
1011,788.1318969726562,791.7582397460938,789.7435913085938,789.3406372070312
1012,782.087890625,795.3846435546875,789.7435913085938,790.5494384765625
1013,779.2673950195312,800.2197875976562,786.5201416015625,784.1025390625
1014,786.1171875,799.4139404296875,785.7142944335938,784.908447265625
1015,796.996337890625,795.7875366210938,785.7142944335938,790.5494384765625
1016,801.4285888671875,790.5494384765625,785.7142944335938,793.7728881835938
1017,806.6666870117188,793.3699340820312,787.3259887695312,797.8021850585938
1018,804.6520385742188,796.996337890625,788.1318969726562,796.1904907226562
1019,802.6373901367188,794.1758422851562,791.7582397460938,796.5933837890625
1020,808.2783813476562,795.3846435546875,793.3699340820312,801.4285888671875
1021,804.6520385742188,791.3552856445312,789.3406372070312,796.996337890625
1022,803.040283203125,790.1465454101562,794.981689453125,798.6080322265625
1023,805.8607788085938,792.5640869140625,795.3846435546875,803.8461303710938
1024,795.3846435546875,783.6996459960938,790.1465454101562,795.7875366210938
1025,789.3406372070312,778.8644409179688,793.3699340820312,793.7728881835938
1026,799.4139404296875,784.1025390625,796.1904907226562,799.8168334960938
1027,796.996337890625,785.3113403320312,792.967041015625,799.4139404296875
1028,787.3259887695312,780.0732421875,793.7728881835938,801.025634765625
1029,783.2966918945312,785.3113403320312,789.7435913085938,794.1758422851562
1030,787.3259887695312,792.1611938476562,789.3406372070312,787.7289428710938
1031,786.5201416015625,789.7435913085938,795.7875366210938,787.7289428710938
1032,784.5054931640625,788.5347900390625,792.1611938476562,792.1611938476562
1033,788.5347900390625,790.5494384765625,794.1758422851562,796.5933837890625
1034,787.3259887695312,793.3699340820312,793.7728881835938,790.1465454101562
1035,788.1318969726562,792.1611938476562,789.7435913085938,789.3406372070312
1036,792.1611938476562,784.908447265625,794.1758422851562,800.2197875976562
1037,790.952392578125,783.2966918945312,795.7875366210938,793.3699340820312
1038,796.1904907226562,789.7435913085938,792.1611938476562,791.3552856445312
1039,800.6226806640625,792.5640869140625,795.7875366210938,796.5933837890625
1040,803.4432373046875,795.3846435546875,801.4285888671875,804.2490844726562
1041,808.6813354492188,804.2490844726562,799.8168334960938,803.8461303710938
1042,811.5018310546875,803.8461303710938,799.8168334960938,803.040283203125
1043,807.069580078125,797.8021850585938,796.5933837890625,804.6520385742188
1044,804.2490844726562,794.981689453125,793.7728881835938,802.6373901367188
1045,805.054931640625,792.5640869140625,793.3699340820312,797.3992919921875
1046,802.6373901367188,792.967041015625,790.5494384765625,790.1465454101562
1047,800.6226806640625,799.8168334960938,782.087890625,785.3113403320312
1048,797.8021850585938,802.6373901367188,779.2673950195312,786.1171875
1049,793.7728881835938,798.6080322265625,790.1465454101562,794.981689453125
1050,792.967041015625,792.5640869140625,786.5201416015625,795.3846435546875
1051,794.5787353515625,791.7582397460938,784.5054931640625,800.2197875976562
1052,799.010986328125,796.5933837890625,795.3846435546875,809.89013671875
1053,800.6226806640625,796.1904907226562,799.4139404296875,803.040283203125
1054,798.2051391601562,796.996337890625,799.4139404296875,794.1758422851562
1055,801.8314819335938,797.8021850585938,799.4139404296875,799.4139404296875
1056,797.8021850585938,794.1758422851562,799.8168334960938,803.4432373046875
1057,794.5787353515625,794.1758422851562,799.010986328125,798.2051391601562
1058,797.8021850585938,799.4139404296875,794.5787353515625,797.3992919921875
1059,796.5933837890625,799.4139404296875,790.1465454101562,798.2051391601562
1060,795.3846435546875,800.6226806640625,792.1611938476562,788.937744140625
1061,795.7875366210938,794.5787353515625,789.3406372070312,787.3259887695312
1062,796.996337890625,789.7435913085938,786.1171875,788.5347900390625
1063,794.1758422851562,793.7728881835938,790.952392578125,784.5054931640625
1064,791.7582397460938,787.3259887695312,792.967041015625,786.1171875
1065,793.3699340820312,781.6849975585938,791.7582397460938,788.1318969726562
1066,787.7289428710938,786.923095703125,792.5640869140625,785.7142944335938
1067,784.1025390625,790.5494384765625,794.981689453125,781.2820434570312
1068,787.3259887695312,792.5640869140625,794.5787353515625,789.7435913085938
1069,791.7582397460938,792.5640869140625,800.6226806640625,800.6226806640625
1070,793.3699340820312,786.1171875,799.010986328125,799.8168334960938
1071,790.5494384765625,788.1318969726562,795.3846435546875,792.1611938476562
1072,790.1465454101562,792.1611938476562,804.6520385742188,793.7728881835938
1073,786.923095703125,788.1318969726562,803.8461303710938,797.3992919921875
1074,792.1611938476562,787.3259887695312,796.996337890625,799.4139404296875
1075,793.3699340820312,780.879150390625,790.952392578125,803.8461303710938
1076,784.908447265625,786.5201416015625,794.1758422851562,799.8168334960938
1077,789.7435913085938,793.7728881835938,797.8021850585938,796.1904907226562
1078,788.937744140625,794.5787353515625,793.7728881835938,791.3552856445312
1079,784.5054931640625,792.1611938476562,798.2051391601562,783.2966918945312
1080,796.1904907226562,788.5347900390625,795.3846435546875,791.3552856445312
1081,803.8461303710938,789.3406372070312,793.7728881835938,807.069580078125
1082,802.2344360351562,788.937744140625,802.2344360351562,807.069580078125
1083,799.4139404296875,795.3846435546875,802.2344360351562,796.996337890625
1084,796.996337890625,801.4285888671875,796.5933837890625,793.3699340820312
1085,797.8021850585938,799.8168334960938,795.3846435546875,788.937744140625
1086,797.3992919921875,791.7582397460938,794.5787353515625,788.5347900390625
1087,787.7289428710938,793.7728881835938,787.3259887695312,786.1171875
1088,788.937744140625,797.3992919921875,785.3113403320312,789.3406372070312
1089,796.5933837890625,795.7875366210938,793.3699340820312,796.1904907226562
1090,795.7875366210938,796.5933837890625,793.3699340820312,790.5494384765625
1091,795.7875366210938,795.3846435546875,786.1171875,787.7289428710938
1092,801.4285888671875,790.952392578125,788.5347900390625,795.7875366210938
1093,793.3699340820312,791.7582397460938,791.7582397460938,797.8021850585938
1094,778.4615478515625,796.1904907226562,786.923095703125,790.952392578125
1095,776.8497924804688,794.5787353515625,789.3406372070312,787.7289428710938
1096,779.6703491210938,785.7142944335938,794.981689453125,782.087890625
1097,781.6849975585938,784.5054931640625,793.3699340820312,782.4908447265625
1098,783.6996459960938,792.5640869140625,792.967041015625,786.923095703125
1099,784.908447265625,793.7728881835938,792.5640869140625,783.2966918945312
1100,782.893798828125,791.3552856445312,793.3699340820312,784.1025390625
1101,784.1025390625,796.1904907226562,796.1904907226562,784.908447265625
1102,784.908447265625,791.7582397460938,798.6080322265625,780.879150390625
1103,791.3552856445312,790.5494384765625,799.8168334960938,783.2966918945312
1104,800.2197875976562,799.4139404296875,793.3699340820312,791.3552856445312
1105,801.4285888671875,799.8168334960938,794.1758422851562,797.3992919921875
1106,795.7875366210938,794.1758422851562,799.4139404296875,794.5787353515625
1107,786.1171875,786.923095703125,797.3992919921875,784.908447265625
1108,784.5054931640625,786.5201416015625,792.5640869140625,784.908447265625
1109,790.1465454101562,788.5347900390625,792.1611938476562,792.1611938476562
1110,784.5054931640625,790.1465454101562,795.7875366210938,791.3552856445312
1111,784.1025390625,794.5787353515625,794.981689453125,793.3699340820312
1112,789.7435913085938,785.3113403320312,794.5787353515625,793.7728881835938
1113,791.7582397460938,782.893798828125,793.3699340820312,795.3846435546875
1114,790.1465454101562,793.3699340820312,790.952392578125,797.3992919921875
1115,788.1318969726562,790.952392578125,792.967041015625,792.967041015625
1116,788.1318969726562,787.3259887695312,790.1465454101562,792.1611938476562
1117,792.1611938476562,782.893798828125,788.1318969726562,792.1611938476562
1118,792.1611938476562,787.3259887695312,788.1318969726562,785.3113403320312
1119,785.7142944335938,792.1611938476562,790.5494384765625,782.893798828125
1120,785.3113403320312,790.952392578125,793.3699340820312,798.2051391601562
1121,787.7289428710938,786.1171875,793.7728881835938,798.2051391601562
1122,791.3552856445312,784.908447265625,792.5640869140625,787.3259887695312
1123,788.1318969726562,791.3552856445312,792.967041015625,787.7289428710938
1124,783.2966918945312,794.981689453125,791.7582397460938,784.908447265625
1125,787.7289428710938,796.996337890625,796.996337890625,789.7435913085938
1126,791.3552856445312,793.7728881835938,794.5787353515625,792.1611938476562
1127,794.981689453125,800.6226806640625,792.1611938476562,784.908447265625
1128,800.6226806640625,804.6520385742188,798.2051391601562,782.087890625
1129,798.2051391601562,798.2051391601562,797.3992919921875,786.5201416015625
1130,791.7582397460938,799.010986328125,794.981689453125,789.3406372070312
1131,794.981689453125,794.981689453125,792.1611938476562,796.1904907226562
1132,796.1904907226562,789.3406372070312,792.1611938476562,802.6373901367188
1133,790.5494384765625,790.1465454101562,792.967041015625,790.1465454101562
1134,786.5201416015625,791.3552856445312,792.5640869140625,779.6703491210938
1135,780.879150390625,790.5494384765625,791.3552856445312,776.4468994140625
1136,778.4615478515625,792.1611938476562,793.3699340820312,778.05859375
1137,780.4761962890625,796.996337890625,794.1758422851562,782.087890625
1138,783.2966918945312,797.8021850585938,792.1611938476562,788.937744140625
1139,788.1318969726562,794.5787353515625,793.7728881835938,798.2051391601562
1140,784.908447265625,787.7289428710938,792.967041015625,801.025634765625
1141,782.087890625,786.5201416015625,790.952392578125,804.2490844726562
1142,784.5054931640625,784.908447265625,790.952392578125,804.2490844726562
1143,791.7582397460938,784.5054931640625,787.3259887695312,798.6080322265625
1144,792.967041015625,792.1611938476562,783.2966918945312,792.1611938476562
1145,788.937744140625,799.4139404296875,790.5494384765625,788.5347900390625
1146,798.2051391601562,799.4139404296875,799.8168334960938,794.981689453125
1147,794.981689453125,796.996337890625,799.4139404296875,800.2197875976562
1148,794.5787353515625,804.2490844726562,791.7582397460938,796.1904907226562
1149,803.4432373046875,806.2637329101562,794.1758422851562,799.010986328125
1150,805.054931640625,798.6080322265625,795.3846435546875,803.8461303710938
1151,802.2344360351562,798.6080322265625,789.7435913085938,798.2051391601562
1152,794.5787353515625,794.981689453125,787.7289428710938,784.5054931640625
1153,792.5640869140625,788.937744140625,791.3552856445312,785.3113403320312
1154,793.7728881835938,787.7289428710938,792.967041015625,792.1611938476562
1155,793.7728881835938,788.937744140625,792.1611938476562,790.952392578125
1156,796.1904907226562,798.2051391601562,792.1611938476562,786.1171875
1157,799.010986328125,804.6520385742188,792.5640869140625,788.5347900390625
1158,800.2197875976562,807.069580078125,797.3992919921875,796.1904907226562
1159,805.4578857421875,802.2344360351562,796.5933837890625,796.5933837890625
1160,807.87548828125,797.3992919921875,801.4285888671875,796.996337890625
1161,801.4285888671875,796.1904907226562,805.4578857421875,800.6226806640625
1162,795.7875366210938,799.8168334960938,799.8168334960938,804.6520385742188
1163,790.952392578125,799.8168334960938,791.7582397460938,797.8021850585938
1164,791.7582397460938,794.1758422851562,790.1465454101562,788.5347900390625
1165,789.7435913085938,794.1758422851562,796.1904907226562,790.952392578125
1166,784.908447265625,791.3552856445312,800.6226806640625,803.4432373046875
1167,790.5494384765625,790.5494384765625,804.6520385742188,808.6813354492188
1168,793.7728881835938,795.7875366210938,800.6226806640625,799.4139404296875
1169,790.952392578125,792.5640869140625,794.5787353515625,788.5347900390625
1170,788.1318969726562,788.5347900390625,793.7728881835938,783.6996459960938
1171,790.952392578125,792.967041015625,797.8021850585938,788.1318969726562
1172,788.937744140625,800.6226806640625,795.7875366210938,786.5201416015625
1173,789.7435913085938,793.7728881835938,783.2966918945312,786.1171875
1174,798.6080322265625,788.5347900390625,782.4908447265625,789.3406372070312
1175,792.967041015625,788.1318969726562,788.937744140625,784.1025390625
1176,785.7142944335938,781.2820434570312,790.5494384765625,780.0732421875
1177,789.7435913085938,782.893798828125,788.5347900390625,786.5201416015625
1178,792.5640869140625,787.7289428710938,785.3113403320312,789.3406372070312
1179,793.7728881835938,791.3552856445312,784.1025390625,789.3406372070312
1180,795.7875366210938,794.5787353515625,790.952392578125,797.3992919921875
1181,795.3846435546875,794.5787353515625,788.937744140625,798.2051391601562
1182,796.1904907226562,793.7728881835938,788.937744140625,798.6080322265625
1183,799.8168334960938,794.1758422851562,798.2051391601562,794.981689453125
1184,792.967041015625,794.981689453125,790.1465454101562,790.952392578125
1185,794.1758422851562,793.7728881835938,788.5347900390625,794.981689453125
1186,802.2344360351562,801.4285888671875,798.6080322265625,798.6080322265625
1187,793.7728881835938,801.8314819335938,795.3846435546875,793.7728881835938
1188,791.7582397460938,790.1465454101562,790.952392578125,793.3699340820312
1189,795.7875366210938,787.7289428710938,790.1465454101562,806.6666870117188
1190,794.981689453125,789.3406372070312,796.996337890625,807.069580078125
1191,794.981689453125,795.3846435546875,801.025634765625,802.6373901367188
1192,797.3992919921875,804.2490844726562,795.3846435546875,805.4578857421875
1193,799.8168334960938,804.6520385742188,793.3699340820312,811.098876953125
1194,800.2197875976562,796.5933837890625,796.5933837890625,807.87548828125
1195,800.6226806640625,794.1758422851562,801.025634765625,797.8021850585938
1196,792.967041015625,792.1611938476562,801.4285888671875,789.7435913085938
1197,787.7289428710938,784.1025390625,797.3992919921875,783.2966918945312
1198,788.1318969726562,791.7582397460938,794.981689453125,782.4908447265625
1199,784.908447265625,795.7875366210938,794.5787353515625,780.879150390625
1200,789.7435913085938,792.1611938476562,793.3699340820312,786.5201416015625
1201,790.952392578125,789.3406372070312,794.1758422851562,787.7289428710938
1202,788.937744140625,790.5494384765625,796.1904907226562,784.1025390625
1203,791.7582397460938,794.1758422851562,792.967041015625,784.5054931640625
1204,798.6080322265625,791.3552856445312,792.5640869140625,792.967041015625
1205,801.025634765625,790.1465454101562,795.7875366210938,795.3846435546875
1206,795.3846435546875,796.5933837890625,793.3699340820312,792.967041015625
1207,797.3992919921875,792.1611938476562,790.1465454101562,799.010986328125
1208,796.996337890625,788.1318969726562,789.7435913085938,795.7875366210938
1209,797.3992919921875,799.010986328125,790.952392578125,793.3699340820312
1210,789.7435913085938,801.8314819335938,794.5787353515625,789.7435913085938
1211,785.7142944335938,801.025634765625,792.5640869140625,790.1465454101562
1212,798.2051391601562,796.996337890625,785.7142944335938,801.025634765625
1213,801.4285888671875,788.937744140625,792.967041015625,802.6373901367188
1214,796.5933837890625,795.7875366210938,798.2051391601562,799.010986328125
1215,793.7728881835938,798.6080322265625,794.1758422851562,791.7582397460938
1216,793.3699340820312,794.5787353515625,792.1611938476562,790.952392578125
1217,792.5640869140625,799.010986328125,796.5933837890625,789.7435913085938
1218,794.5787353515625,799.4139404296875,795.7875366210938,792.1611938476562
1219,794.1758422851562,796.996337890625,790.952392578125,795.7875366210938
1220,790.1465454101562,801.8314819335938,792.1611938476562,788.5347900390625
1221,784.5054931640625,800.2197875976562,789.7435913085938,782.893798828125
1222,780.0732421875,793.7728881835938,789.3406372070312,780.4761962890625
1223,784.1025390625,794.1758422851562,786.5201416015625,783.2966918945312
1224,793.7728881835938,794.1758422851562,783.2966918945312,788.1318969726562
1225,793.3699340820312,789.7435913085938,792.1611938476562,784.908447265625
1226,785.7142944335938,783.2966918945312,799.4139404296875,778.8644409179688
1227,788.1318969726562,778.05859375,796.996337890625,782.4908447265625
1228,793.7728881835938,780.4761962890625,792.1611938476562,783.6996459960938
1229,790.1465454101562,796.1904907226562,793.3699340820312,786.1171875
1230,788.937744140625,792.1611938476562,790.5494384765625,796.996337890625
1231,798.6080322265625,783.6996459960938,788.5347900390625,802.2344360351562
1232,805.8607788085938,786.5201416015625,793.7728881835938,797.8021850585938
1233,799.8168334960938,786.1171875,799.4139404296875,788.5347900390625
1234,797.8021850585938,787.7289428710938,797.8021850585938,789.7435913085938
1235,796.5933837890625,785.3113403320312,796.1904907226562,799.010986328125
1236,792.967041015625,781.2820434570312,798.6080322265625,796.5933837890625
1237,800.2197875976562,782.893798828125,798.2051391601562,794.5787353515625
1238,801.8314819335938,789.7435913085938,796.5933837890625,800.6226806640625
1239,800.2197875976562,793.3699340820312,796.5933837890625,807.069580078125
1240,801.8314819335938,793.3699340820312,804.6520385742188,803.4432373046875
1241,796.996337890625,797.8021850585938,805.8607788085938,792.967041015625
1242,798.6080322265625,794.1758422851562,796.996337890625,794.1758422851562
1243,796.1904907226562,794.981689453125,796.1904907226562,799.4139404296875
1244,788.5347900390625,804.2490844726562,796.5933837890625,795.7875366210938
1245,791.7582397460938,803.040283203125,797.3992919921875,796.1904907226562
1246,796.1904907226562,795.3846435546875,799.4139404296875,796.1904907226562
1247,796.1904907226562,795.3846435546875,794.5787353515625,793.7728881835938
1248,794.5787353515625,801.8314819335938,793.3699340820312,795.7875366210938
1249,796.996337890625,807.069580078125,792.1611938476562,792.967041015625
1250,800.2197875976562,804.6520385742188,790.5494384765625,795.3846435546875
1251,801.4285888671875,804.2490844726562,796.1904907226562,801.4285888671875
1252,797.8021850585938,800.6226806640625,798.6080322265625,791.3552856445312
1253,792.967041015625,790.952392578125,795.7875366210938,783.6996459960938
1254,789.3406372070312,799.8168334960938,791.3552856445312,787.3259887695312
1255,790.952392578125,804.6520385742188,795.7875366210938,786.923095703125
1256,793.3699340820312,800.6226806640625,803.040283203125,789.3406372070312
1257,787.7289428710938,800.2197875976562,796.5933837890625,788.5347900390625
1258,786.1171875,797.8021850585938,790.952392578125,784.1025390625
1259,792.5640869140625,800.2197875976562,792.967041015625,785.3113403320312
1260,797.8021850585938,801.8314819335938,791.3552856445312,781.6849975585938
1261,795.7875366210938,796.1904907226562,792.5640869140625,782.4908447265625
1262,784.1025390625,791.7582397460938,793.3699340820312,788.937744140625
1263,777.6557006835938,799.010986328125,792.1611938476562,785.7142944335938
1264,781.6849975585938,794.5787353515625,792.5640869140625,786.923095703125
1265,780.0732421875,784.908447265625,791.3552856445312,791.3552856445312
1266,781.2820434570312,792.967041015625,790.1465454101562,796.996337890625
1267,787.7289428710938,796.5933837890625,790.952392578125,800.6226806640625
1268,789.7435913085938,794.981689453125,793.3699340820312,792.5640869140625
1269,792.967041015625,795.7875366210938,792.1611938476562,786.1171875
1270,799.4139404296875,794.1758422851562,794.5787353515625,789.7435913085938
1271,803.040283203125,792.967041015625,792.967041015625,792.967041015625
1272,793.7728881835938,792.967041015625,788.937744140625,791.3552856445312
1273,786.1171875,790.1465454101562,789.3406372070312,787.3259887695312
1274,785.7142944335938,790.5494384765625,792.1611938476562,791.7582397460938
1275,786.1171875,794.981689453125,794.5787353515625,792.5640869140625
1276,790.5494384765625,792.5640869140625,795.3846435546875,795.7875366210938
1277,793.7728881835938,790.1465454101562,799.4139404296875,807.4725341796875
1278,795.3846435546875,784.5054931640625,798.6080322265625,805.8607788085938
1279,794.5787353515625,787.3259887695312,798.2051391601562,795.7875366210938
1280,791.3552856445312,796.1904907226562,799.4139404296875,796.1904907226562
1281,786.1171875,796.1904907226562,796.5933837890625,799.010986328125
1282,784.908447265625,792.5640869140625,796.996337890625,799.8168334960938
1283,782.893798828125,789.3406372070312,796.5933837890625,800.6226806640625
1284,777.2527465820312,787.7289428710938,793.7728881835938,795.3846435546875
1285,784.908447265625,791.7582397460938,797.3992919921875,795.3846435546875
1286,793.7728881835938,794.1758422851562,796.5933837890625,795.3846435546875
1287,788.1318969726562,789.3406372070312,789.3406372070312,783.6996459960938
1288,784.5054931640625,785.7142944335938,785.7142944335938,780.879150390625
1289,788.1318969726562,788.1318969726562,786.5201416015625,788.5347900390625
1290,791.3552856445312,792.967041015625,791.3552856445312,802.2344360351562
1291,793.7728881835938,792.5640869140625,793.7728881835938,803.4432373046875
1292,795.7875366210938,794.5787353515625,792.967041015625,797.8021850585938
1293,799.4139404296875,792.967041015625,790.5494384765625,798.2051391601562
1294,800.2197875976562,794.5787353515625,792.1611938476562,796.5933837890625
1295,802.6373901367188,799.4139404296875,788.5347900390625,796.996337890625
1296,809.4871826171875,799.8168334960938,787.3259887695312,808.2783813476562
1297,811.098876953125,802.2344360351562,790.1465454101562,820.3662719726562
1298,803.040283203125,800.2197875976562,790.5494384765625,812.7106323242188
1299,801.025634765625,796.996337890625,791.3552856445312,804.2490844726562
1300,809.084228515625,799.8168334960938,793.7728881835938,801.8314819335938
1301,810.6959838867188,799.4139404296875,799.4139404296875,797.3992919921875
1302,805.054931640625,790.5494384765625,794.1758422851562,799.8168334960938
1303,801.025634765625,791.3552856445312,787.3259887695312,798.6080322265625
1304,794.981689453125,796.5933837890625,790.5494384765625,795.3846435546875
1305,793.3699340820312,793.3699340820312,797.3992919921875,797.8021850585938
1306,793.3699340820312,791.7582397460938,798.2051391601562,794.981689453125
1307,790.1465454101562,795.7875366210938,792.967041015625,794.1758422851562
1308,796.1904907226562,800.2197875976562,792.967041015625,802.6373901367188
1309,795.3846435546875,798.6080322265625,795.7875366210938,801.8314819335938
1310,792.5640869140625,793.7728881835938,797.8021850585938,794.981689453125
1311,799.4139404296875,790.1465454101562,799.010986328125,798.2051391601562
1312,798.2051391601562,787.3259887695312,801.8314819335938,802.6373901367188
1313,790.1465454101562,794.1758422851562,801.025634765625,796.996337890625
1314,789.7435913085938,798.2051391601562,795.3846435546875,787.7289428710938
1315,797.8021850585938,797.3992919921875,799.8168334960938,791.3552856445312
1316,798.6080322265625,796.996337890625,801.4285888671875,794.5787353515625
1317,799.4139404296875,792.1611938476562,796.1904907226562,793.7728881835938
1318,801.8314819335938,788.5347900390625,796.5933837890625,792.5640869140625
1319,800.6226806640625,787.7289428710938,798.2051391601562,793.7728881835938
1320,802.2344360351562,786.5201416015625,795.3846435546875,795.3846435546875
1321,804.6520385742188,789.3406372070312,796.996337890625,796.5933837890625
1322,806.6666870117188,792.5640869140625,799.010986328125,799.010986328125
1323,805.054931640625,784.908447265625,793.3699340820312,810.2930297851562
1324,801.8314819335938,781.6849975585938,792.5640869140625,812.7106323242188
1325,800.6226806640625,799.4139404296875,796.996337890625,799.4139404296875
1326,799.4139404296875,808.2783813476562,791.3552856445312,790.952392578125
1327,801.025634765625,807.4725341796875,792.967041015625,796.1904907226562
1328,807.87548828125,804.2490844726562,800.6226806640625,805.054931640625
1329,804.6520385742188,799.4139404296875,798.2051391601562,793.7728881835938
1330,793.7728881835938,798.2051391601562,795.7875366210938,791.7582397460938
1331,798.2051391601562,795.7875366210938,797.8021850585938,799.010986328125
1332,804.2490844726562,794.5787353515625,798.2051391601562,799.8168334960938
1333,801.8314819335938,793.3699340820312,793.7728881835938,799.8168334960938
1334,808.2783813476562,796.996337890625,794.1758422851562,795.7875366210938
1335,810.6959838867188,803.4432373046875,793.3699340820312,798.2051391601562
1336,802.6373901367188,806.6666870117188,795.7875366210938,801.8314819335938
1337,799.8168334960938,804.2490844726562,797.3992919921875,791.7582397460938
1338,794.981689453125,805.8607788085938,797.8021850585938,788.937744140625
1339,788.1318969726562,800.2197875976562,795.7875366210938,788.5347900390625
1340,792.1611938476562,794.1758422851562,794.1758422851562,792.1611938476562
1341,796.996337890625,793.7728881835938,796.1904907226562,796.996337890625
1342,795.7875366210938,792.1611938476562,793.7728881835938,794.981689453125
1343,799.010986328125,796.1904907226562,791.7582397460938,796.996337890625
1344,803.040283203125,796.1904907226562,792.1611938476562,798.6080322265625
1345,795.7875366210938,793.3699340820312,792.1611938476562,792.967041015625
1346,796.1904907226562,795.7875366210938,797.8021850585938,798.6080322265625
1347,794.1758422851562,795.3846435546875,799.8168334960938,799.8168334960938
1348,788.1318969726562,793.7728881835938,791.7582397460938,788.1318969726562
1349,790.952392578125,801.8314819335938,788.937744140625,788.1318969726562
1350,793.7728881835938,806.6666870117188,793.3699340820312,787.7289428710938
1351,792.1611938476562,796.1904907226562,793.3699340820312,787.7289428710938
1352,787.7289428710938,790.952392578125,792.1611938476562,782.4908447265625
1353,790.1465454101562,796.996337890625,792.967041015625,784.5054931640625
1354,792.967041015625,797.8021850585938,793.3699340820312,788.5347900390625
1355,789.3406372070312,792.5640869140625,795.7875366210938,790.1465454101562
1356,789.7435913085938,797.3992919921875,798.2051391601562,792.1611938476562
1357,793.3699340820312,803.4432373046875,798.2051391601562,790.1465454101562
1358,797.8021850585938,800.6226806640625,800.2197875976562,791.3552856445312
1359,794.981689453125,804.6520385742188,800.2197875976562,787.3259887695312
1360,787.3259887695312,802.6373901367188,795.3846435546875,782.087890625
1361,791.7582397460938,793.3699340820312,795.3846435546875,786.5201416015625
1362,790.952392578125,792.5640869140625,796.5933837890625,791.3552856445312
1363,791.3552856445312,795.3846435546875,788.937744140625,790.952392578125
1364,795.7875366210938,800.2197875976562,786.5201416015625,792.5640869140625
1365,785.3113403320312,796.996337890625,790.1465454101562,790.952392578125
1366,786.1171875,792.5640869140625,790.1465454101562,786.1171875
1367,796.1904907226562,796.996337890625,789.3406372070312,786.5201416015625
1368,796.5933837890625,800.2197875976562,789.7435913085938,791.3552856445312
1369,793.7728881835938,799.010986328125,794.981689453125,795.3846435546875
1370,793.7728881835938,796.1904907226562,803.8461303710938,797.8021850585938
1371,796.1904907226562,796.1904907226562,802.2344360351562,792.5640869140625
1372,799.010986328125,785.3113403320312,796.996337890625,792.1611938476562
1373,799.010986328125,785.7142944335938,802.6373901367188,798.6080322265625
1374,801.4285888671875,802.2344360351562,801.4285888671875,800.2197875976562
1375,799.8168334960938,803.4432373046875,800.6226806640625,796.996337890625
1376,796.996337890625,803.040283203125,800.2197875976562,790.1465454101562
1377,795.3846435546875,799.8168334960938,789.3406372070312,779.6703491210938
1378,799.4139404296875,795.7875366210938,788.5347900390625,779.2673950195312
1379,799.4139404296875,797.8021850585938,792.5640869140625,783.2966918945312
1380,792.967041015625,794.5787353515625,787.3259887695312,788.1318969726562
1381,789.3406372070312,784.908447265625,790.952392578125,785.7142944335938
1382,787.7289428710938,787.7289428710938,801.4285888671875,784.908447265625
1383,794.1758422851562,797.8021850585938,800.6226806640625,796.5933837890625
1384,806.6666870117188,796.996337890625,794.5787353515625,799.4139404296875
1385,808.2783813476562,794.5787353515625,798.6080322265625,800.2197875976562
1386,795.7875366210938,800.6226806640625,803.4432373046875,795.7875366210938
1387,787.7289428710938,803.040283203125,799.010986328125,788.5347900390625
1388,788.937744140625,802.2344360351562,794.981689453125,797.3992919921875
1389,794.5787353515625,805.8607788085938,795.3846435546875,802.2344360351562
1390,794.5787353515625,803.040283203125,791.3552856445312,800.2197875976562
1391,789.7435913085938,797.8021850585938,789.3406372070312,801.4285888671875
1392,792.967041015625,801.025634765625,790.5494384765625,805.8607788085938
1393,794.981689453125,803.8461303710938,791.7582397460938,811.098876953125
1394,791.7582397460938,801.4285888671875,790.1465454101562,799.8168334960938
1395,792.967041015625,795.7875366210938,787.7289428710938,795.7875366210938
1396,793.3699340820312,789.7435913085938,792.1611938476562,795.7875366210938
1397,785.7142944335938,785.3113403320312,795.3846435546875,786.923095703125
1398,784.5054931640625,793.7728881835938,793.3699340820312,785.3113403320312
1399,792.1611938476562,800.2197875976562,788.937744140625,787.7289428710938
1400,793.7728881835938,792.967041015625,788.1318969726562,783.6996459960938
1401,792.5640869140625,794.981689453125,784.908447265625,778.05859375
1402,794.1758422851562,801.4285888671875,786.5201416015625,780.0732421875
1403,800.6226806640625,799.8168334960938,788.1318969726562,786.1171875
1404,800.2197875976562,792.5640869140625,787.3259887695312,787.3259887695312
1405,795.3846435546875,792.967041015625,790.952392578125,790.952392578125
1406,796.1904907226562,792.967041015625,792.1611938476562,788.1318969726562
1407,794.1758422851562,785.7142944335938,792.1611938476562,779.2673950195312
1408,789.7435913085938,784.908447265625,789.3406372070312,782.4908447265625
1409,786.5201416015625,786.5201416015625,788.937744140625,787.7289428710938
1410,780.4761962890625,792.1611938476562,792.1611938476562,785.7142944335938
1411,776.0439453125,796.5933837890625,795.3846435546875,785.7142944335938
1412,781.6849975585938,795.3846435546875,798.2051391601562,790.5494384765625
1413,782.087890625,790.5494384765625,800.6226806640625,789.7435913085938
1414,780.879150390625,786.923095703125,793.7728881835938,789.3406372070312
1415,783.2966918945312,784.5054931640625,788.1318969726562,788.5347900390625
1416,784.908447265625,786.923095703125,795.7875366210938,788.5347900390625
1417,784.5054931640625,786.5201416015625,798.2051391601562,788.1318969726562
1418,794.5787353515625,785.7142944335938,801.025634765625,793.7728881835938
1419,801.025634765625,790.1465454101562,799.010986328125,800.6226806640625
1420,792.1611938476562,788.1318969726562,794.5787353515625,796.996337890625
1421,794.981689453125,788.937744140625,792.5640869140625,802.2344360351562
1422,801.025634765625,795.3846435546875,792.5640869140625,807.4725341796875
1423,801.025634765625,795.7875366210938,796.1904907226562,811.5018310546875
1424,803.4432373046875,795.7875366210938,798.2051391601562,808.2783813476562
1425,805.054931640625,802.2344360351562,798.2051391601562,795.7875366210938
1426,806.2637329101562,804.2490844726562,795.7875366210938,796.996337890625
1427,806.6666870117188,799.010986328125,795.3846435546875,794.981689453125
1428,803.040283203125,796.1904907226562,794.5787353515625,788.937744140625
1429,797.8021850585938,796.996337890625,793.7728881835938,788.5347900390625
1430,795.3846435546875,794.981689453125,794.1758422851562,787.3259887695312
1431,797.8021850585938,788.5347900390625,794.1758422851562,797.3992919921875
1432,798.2051391601562,785.3113403320312,795.3846435546875,796.1904907226562
1433,794.981689453125,789.7435913085938,795.3846435546875,786.923095703125
1434,789.3406372070312,795.7875366210938,794.1758422851562,791.3552856445312
1435,781.6849975585938,795.3846435546875,789.7435913085938,789.3406372070312
1436,788.1318969726562,793.7728881835938,784.908447265625,791.7582397460938
1437,794.5787353515625,795.7875366210938,787.3259887695312,801.025634765625
1438,789.3406372070312,791.3552856445312,790.1465454101562,793.7728881835938
1439,779.2673950195312,788.1318969726562,793.7728881835938,785.3113403320312
1440,776.4468994140625,791.3552856445312,795.7875366210938,791.3552856445312
1441,781.6849975585938,795.3846435546875,787.7289428710938,791.7582397460938
1442,783.2966918945312,794.1758422851562,786.5201416015625,794.1758422851562
1443,784.908447265625,791.7582397460938,786.5201416015625,802.6373901367188
1444,790.1465454101562,796.996337890625,789.7435913085938,796.1904907226562
1445,792.5640869140625,793.3699340820312,796.5933837890625,796.1904907226562
1446,792.5640869140625,786.5201416015625,797.8021850585938,796.1904907226562
1447,798.2051391601562,796.5933837890625,800.2197875976562,790.1465454101562
1448,800.2197875976562,802.6373901367188,801.025634765625,791.7582397460938
1449,797.3992919921875,798.2051391601562,796.5933837890625,792.5640869140625
1450,801.4285888671875,794.981689453125,798.6080322265625,798.2051391601562
1451,800.6226806640625,800.6226806640625,793.3699340820312,800.2197875976562
1452,792.1611938476562,803.040283203125,783.2966918945312,788.5347900390625
1453,789.3406372070312,800.6226806640625,790.1465454101562,783.6996459960938
1454,794.1758422851562,797.8021850585938,799.010986328125,790.952392578125
1455,796.5933837890625,796.5933837890625,797.3992919921875,784.908447265625
1456,795.3846435546875,801.025634765625,801.025634765625,775.2380981445312
1457,790.5494384765625,792.5640869140625,801.8314819335938,780.879150390625
1458,786.923095703125,783.6996459960938,797.8021850585938,785.3113403320312
1459,784.5054931640625,796.996337890625,798.2051391601562,783.2966918945312
1460,783.6996459960938,803.040283203125,796.996337890625,783.2966918945312
1461,786.923095703125,799.8168334960938,792.5640869140625,790.5494384765625
1462,784.5054931640625,800.6226806640625,793.3699340820312,790.5494384765625
1463,784.908447265625,803.8461303710938,796.5933837890625,783.2966918945312
1464,791.7582397460938,800.6226806640625,797.8021850585938,787.7289428710938
1465,803.4432373046875,794.5787353515625,798.2051391601562,798.6080322265625
1466,803.4432373046875,794.981689453125,792.5640869140625,795.7875366210938
1467,795.3846435546875,792.967041015625,797.8021850585938,785.7142944335938
1468,791.7582397460938,787.3259887695312,801.025634765625,787.3259887695312
1469,789.3406372070312,784.1025390625,799.010986328125,792.5640869140625
1470,797.8021850585938,785.7142944335938,801.4285888671875,793.3699340820312
1471,800.6226806640625,794.5787353515625,797.8021850585938,790.952392578125
1472,795.7875366210938,796.996337890625,793.7728881835938,790.5494384765625
1473,801.025634765625,791.3552856445312,794.5787353515625,793.7728881835938
1474,803.040283203125,793.3699340820312,794.981689453125,792.1611938476562
1475,801.025634765625,794.981689453125,794.5787353515625,790.5494384765625
1476,800.6226806640625,792.967041015625,797.3992919921875,792.5640869140625
1477,803.040283203125,786.1171875,799.4139404296875,799.010986328125
1478,793.7728881835938,784.908447265625,795.3846435546875,793.7728881835938
1479,784.1025390625,792.1611938476562,795.7875366210938,785.7142944335938
1480,792.5640869140625,794.5787353515625,795.7875366210938,793.7728881835938
1481,795.3846435546875,801.8314819335938,795.3846435546875,796.5933837890625
1482,787.7289428710938,795.3846435546875,792.967041015625,792.967041015625
1483,785.7142944335938,791.3552856445312,785.3113403320312,792.967041015625
1484,786.1171875,792.967041015625,790.1465454101562,785.7142944335938
1485,781.6849975585938,790.5494384765625,795.7875366210938,773.2234497070312
1486,782.087890625,792.967041015625,794.5787353515625,776.4468994140625
1487,786.1171875,793.7728881835938,792.967041015625,782.087890625
1488,788.937744140625,796.996337890625,793.3699340820312,786.923095703125
1489,792.1611938476562,796.5933837890625,790.952392578125,788.5347900390625
1490,795.3846435546875,796.996337890625,790.1465454101562,787.7289428710938
1491,795.3846435546875,799.4139404296875,794.5787353515625,785.7142944335938
1492,799.010986328125,800.2197875976562,790.1465454101562,790.1465454101562
1493,801.8314819335938,802.6373901367188,786.1171875,805.8607788085938
1494,803.8461303710938,799.010986328125,791.3552856445312,805.4578857421875
1495,805.4578857421875,793.3699340820312,792.1611938476562,798.6080322265625
1496,804.6520385742188,791.7582397460938,792.5640869140625,798.6080322265625
1497,805.8607788085938,796.1904907226562,788.5347900390625,799.4139404296875
1498,806.2637329101562,803.8461303710938,790.5494384765625,799.8168334960938
1499,805.4578857421875,802.2344360351562,800.2197875976562,799.4139404296875
1500,806.2637329101562,798.6080322265625,797.8021850585938,802.6373901367188
1501,804.6520385742188,796.996337890625,794.981689453125,806.2637329101562
1502,803.4432373046875,801.025634765625,801.025634765625,807.87548828125
1503,805.8607788085938,799.8168334960938,803.4432373046875,808.2783813476562
1504,805.8607788085938,793.7728881835938,800.2197875976562,807.069580078125
1505,798.6080322265625,786.1171875,799.8168334960938,798.2051391601562
1506,796.5933837890625,780.4761962890625,801.8314819335938,796.996337890625
1507,796.5933837890625,783.6996459960938,800.2197875976562,795.7875366210938
1508,786.923095703125,783.6996459960938,797.8021850585938,786.1171875
1509,778.8644409179688,779.6703491210938,797.3992919921875,785.3113403320312
1510,781.6849975585938,783.6996459960938,795.3846435546875,784.5054931640625
1511,785.7142944335938,788.5347900390625,798.2051391601562,785.7142944335938
1512,780.4761962890625,786.923095703125,798.6080322265625,787.3259887695312
1513,777.6557006835938,778.8644409179688,796.996337890625,782.893798828125
1514,788.5347900390625,777.6557006835938,796.1904907226562,781.2820434570312
1515,790.1465454101562,784.908447265625,790.952392578125,787.3259887695312
1516,780.879150390625,787.7289428710938,794.5787353515625,787.7289428710938
1517,782.087890625,782.087890625,798.6080322265625,780.4761962890625
1518,790.952392578125,789.7435913085938,799.010986328125,786.5201416015625
1519,785.7142944335938,796.996337890625,792.967041015625,790.1465454101562
1520,782.4908447265625,791.3552856445312,786.5201416015625,782.4908447265625
1521,789.3406372070312,790.952392578125,790.952392578125,780.0732421875
1522,794.5787353515625,789.7435913085938,794.981689453125,784.5054931640625
1523,792.1611938476562,788.937744140625,792.1611938476562,786.923095703125
1524,789.3406372070312,792.1611938476562,789.7435913085938,784.1025390625
1525,788.1318969726562,790.5494384765625,788.937744140625,777.6557006835938
1526,789.3406372070312,789.7435913085938,783.6996459960938,777.6557006835938
1527,794.5787353515625,792.5640869140625,787.3259887695312,792.1611938476562
1528,790.952392578125,794.5787353515625,794.5787353515625,791.7582397460938
1529,787.7289428710938,792.5640869140625,790.5494384765625,782.087890625
1530,788.937744140625,790.5494384765625,790.952392578125,784.908447265625
1531,788.5347900390625,790.5494384765625,788.1318969726562,780.4761962890625
1532,785.7142944335938,789.7435913085938,788.5347900390625,777.6557006835938
1533,784.5054931640625,787.7289428710938,788.937744140625,777.2527465820312
1534,785.7142944335938,793.3699340820312,779.2673950195312,779.2673950195312
1535,782.893798828125,793.7728881835938,784.908447265625,789.7435913085938
1536,782.087890625,790.1465454101562,791.7582397460938,789.7435913085938
1537,783.6996459960938,798.6080322265625,786.1171875,785.3113403320312
1538,792.967041015625,798.2051391601562,784.5054931640625,794.5787353515625
1539,797.3992919921875,795.3846435546875,789.3406372070312,800.2197875976562
1540,791.3552856445312,798.6080322265625,793.3699340820312,792.967041015625
1541,794.5787353515625,798.6080322265625,790.952392578125,799.010986328125
1542,794.1758422851562,798.6080322265625,787.7289428710938,800.2197875976562
1543,790.5494384765625,796.996337890625,790.952392578125,792.967041015625
1544,792.1611938476562,790.1465454101562,790.5494384765625,791.7582397460938
1545,797.8021850585938,776.0439453125,782.893798828125,795.7875366210938
1546,803.040283203125,777.6557006835938,781.6849975585938,804.6520385742188
1547,799.8168334960938,795.7875366210938,787.3259887695312,803.4432373046875
1548,791.7582397460938,799.010986328125,796.1904907226562,797.8021850585938
1549,792.967041015625,790.1465454101562,796.996337890625,795.3846435546875
1550,791.7582397460938,796.5933837890625,792.967041015625,801.4285888671875
1551,790.1465454101562,803.4432373046875,793.7728881835938,795.7875366210938
1552,794.981689453125,791.7582397460938,788.5347900390625,786.1171875
1553,798.6080322265625,789.3406372070312,785.3113403320312,794.5787353515625
1554,793.3699340820312,798.2051391601562,792.5640869140625,797.3992919921875
1555,788.937744140625,799.4139404296875,791.3552856445312,797.3992919921875
1556,789.3406372070312,788.937744140625,786.1171875,796.996337890625
1557,790.5494384765625,783.2966918945312,788.937744140625,794.1758422851562
1558,787.7289428710938,790.5494384765625,790.1465454101562,791.3552856445312
1559,786.1171875,789.3406372070312,789.7435913085938,792.967041015625
1560,788.1318969726562,791.3552856445312,790.1465454101562,794.1758422851562
1561,789.7435913085938,799.4139404296875,792.967041015625,801.4285888671875
1562,789.3406372070312,798.2051391601562,794.981689453125,800.6226806640625
1563,789.3406372070312,794.1758422851562,794.5787353515625,795.3846435546875
1564,790.1465454101562,792.967041015625,792.967041015625,798.6080322265625
1565,790.952392578125,788.937744140625,795.3846435546875,796.996337890625
1566,792.5640869140625,788.937744140625,799.8168334960938,799.8168334960938
1567,791.3552856445312,789.7435913085938,794.1758422851562,802.2344360351562
1568,794.1758422851562,788.937744140625,790.1465454101562,793.7728881835938
1569,795.7875366210938,788.5347900390625,792.967041015625,798.2051391601562
1570,794.981689453125,790.1465454101562,797.8021850585938,799.4139404296875
1571,796.1904907226562,797.8021850585938,801.8314819335938,789.3406372070312
1572,797.8021850585938,797.8021850585938,791.7582397460938,793.3699340820312
1573,799.010986328125,790.952392578125,784.908447265625,803.8461303710938
1574,804.2490844726562,793.3699340820312,794.981689453125,811.5018310546875
1575,795.7875366210938,794.981689453125,796.1904907226562,799.8168334960938
1576,790.1465454101562,794.981689453125,792.5640869140625,793.7728881835938
1577,797.3992919921875,800.2197875976562,794.5787353515625,800.6226806640625
1578,799.4139404296875,802.2344360351562,795.3846435546875,800.6226806640625
