timestamp,RAW_TP9,RAW_AF7,RAW_AF8,RAW_TP10
1,786.5201416015625,795.7875366210938,801.025634765625,789.7435913085938
2,785.7142944335938,801.8314819335938,803.8461303710938,799.010986328125
3,788.1318969726562,799.8168334960938,799.010986328125,794.5787353515625
4,792.5640869140625,792.1611938476562,799.010986328125,792.1611938476562
5,794.1758422851562,788.937744140625,802.2344360351562,797.8021850585938
6,796.5933837890625,787.7289428710938,800.6226806640625,798.2051391601562
7,792.5640869140625,788.937744140625,800.6226806640625,796.1904907226562
8,794.5787353515625,790.5494384765625,800.6226806640625,796.5933837890625
9,805.4578857421875,794.5787353515625,799.4139404296875,803.8461303710938
10,799.4139404296875,792.5640869140625,795.3846435546875,800.6226806640625
11,793.7728881835938,790.5494384765625,792.967041015625,788.937744140625
12,794.1758422851562,792.5640869140625,793.3699340820312,788.1318969726562
13,795.3846435546875,791.7582397460938,796.1904907226562,790.5494384765625
14,795.7875366210938,792.5640869140625,792.1611938476562,793.7728881835938
15,791.7582397460938,792.5640869140625,786.1171875,784.5054931640625
16,789.7435913085938,794.981689453125,786.5201416015625,777.2527465820312
17,788.1318969726562,795.3846435546875,788.1318969726562,780.0732421875
18,789.3406372070312,792.5640869140625,789.7435913085938,781.2820434570312
19,791.3552856445312,793.7728881835938,793.7728881835938,783.6996459960938
20,791.7582397460938,794.981689453125,794.1758422851562,780.4761962890625
21,810.2930297851562,802.2344360351562,784.5054931640625,798.6080322265625
22,828.02197265625,802.6373901367188,785.7142944335938,820.3662719726562
23,803.4432373046875,790.1465454101562,807.069580078125,793.7728881835938
24,778.4615478515625,784.5054931640625,814.3223266601562,769.5970458984375
25,775.2380981445312,783.6996459960938,811.098876953125,766.7765502929688
26,786.1171875,777.2527465820312,810.2930297851562,780.0732421875
27,795.7875366210938,770.8058471679688,817.1428833007812,797.3992919921875
28,791.3552856445312,764.3589477539062,822.3809814453125,800.2197875976562
29,787.7289428710938,757.912109375,826.8131713867188,801.025634765625
30,788.5347900390625,755.4945068359375,828.02197265625,804.6520385742188
31,796.5933837890625,756.3003540039062,830.03662109375,813.5164794921875
32,802.2344360351562,753.076904296875,836.08056640625,825.2014770507812
33,811.098876953125,751.062255859375,834.8717651367188,840.915771484375
34,821.5750732421875,751.4652099609375,835.2747192382812,843.7362670898438
35,823.5897216796875,747.032958984375,836.886474609375,843.7362670898438
36,817.5457763671875,744.6153564453125,840.5128173828125,848.5714111328125
37,816.7399291992188,744.6153564453125,845.3479614257812,849.3773193359375
38,829.6337280273438,745.018310546875,842.930419921875,848.974365234375
39,833.2600708007812,743.4066162109375,845.3479614257812,846.959716796875
40,830.8424682617188,744.2124633789062,845.7509155273438,848.5714111328125
41,838.901123046875,745.8241577148438,841.3186645507812,853.003662109375
42,843.3333129882812,742.1978149414062,841.3186645507812,855.018310546875
43,835.2747192382812,736.5567626953125,840.10986328125,859.4505615234375
44,828.8278198242188,732.12451171875,835.2747192382812,864.6886596679688
45,830.8424682617188,728.09521484375,831.2454223632812,858.6447143554688
46,829.2307739257812,725.6776733398438,834.8717651367188,844.945068359375
47,832.4542236328125,725.6776733398438,837.6923217773438,851.7948608398438
48,839.3040161132812,728.09521484375,838.09521484375,861.8681030273438
49,841.3186645507812,728.901123046875,842.5274658203125,862.2710571289062
50,846.959716796875,730.10986328125,842.930419921875,865.4945068359375
51,844.1392211914062,732.930419921875,837.2893676757812,859.4505615234375
52,835.6776733398438,737.7655639648438,834.4688720703125,857.4359130859375
53,831.6483764648438,742.6007080078125,833.2600708007812,853.003662109375
54,823.99267578125,742.6007080078125,830.4395751953125,842.5274658203125
55,821.97802734375,739.3773193359375,827.2161254882812,837.2893676757812
56,822.3809814453125,740.989013671875,825.2014770507812,839.3040161132812
57,813.113525390625,745.4212646484375,821.1721801757812,832.05126953125
58,807.87548828125,742.1978149414062,815.5311279296875,823.5897216796875
59,814.3223266601562,744.6153564453125,817.5457763671875,825.2014770507812
60,814.7252807617188,751.4652099609375,819.96337890625,821.97802734375
61,820.3662719726562,751.062255859375,817.5457763671875,823.5897216796875
62,816.7399291992188,753.8828125,815.93408203125,831.6483764648438
63,812.7106323242188,764.3589477539062,817.5457763671875,831.2454223632812
64,816.7399291992188,766.3735961914062,817.94873046875,821.97802734375
65,816.7399291992188,766.7765502929688,818.3516235351562,821.97802734375
66,819.1575317382812,766.7765502929688,817.5457763671875,827.2161254882812
67,816.3369750976562,763.5531005859375,809.89013671875,828.02197265625
68,814.7252807617188,767.5823974609375,807.87548828125,826.4102783203125
69,817.5457763671875,774.029296875,807.069580078125,822.3809814453125
70,815.5311279296875,773.2234497070312,806.2637329101562,824.7985229492188
71,813.91943359375,773.2234497070312,803.040283203125,823.1868286132812
72,815.5311279296875,772.8204956054688,793.3699340820312,817.1428833007812
73,814.3223266601562,765.970703125,795.3846435546875,810.2930297851562
74,807.069580078125,767.5823974609375,805.8607788085938,805.054931640625
75,807.069580078125,771.6116943359375,813.91943359375,807.4725341796875
76,801.025634765625,775.6410522460938,816.3369750976562,804.6520385742188
77,799.010986328125,776.0439453125,811.90478515625,808.6813354492188
78,810.2930297851562,771.2088012695312,815.1282348632812,821.1721801757812
79,819.1575317382812,772.0146484375,818.3516235351562,826.00732421875
80,819.5604248046875,776.8497924804688,816.7399291992188,824.7985229492188
81,812.3076782226562,782.087890625,818.7545776367188,819.96337890625
82,809.084228515625,779.6703491210938,816.7399291992188,818.7545776367188
83,805.4578857421875,776.4468994140625,811.098876953125,815.5311279296875
84,811.90478515625,778.05859375,807.87548828125,809.89013671875
85,811.098876953125,777.2527465820312,810.2930297851562,811.5018310546875
86,806.2637329101562,773.6264038085938,807.069580078125,810.2930297851562
87,806.2637329101562,772.8204956054688,799.8168334960938,802.2344360351562
88,799.4139404296875,776.4468994140625,801.4285888671875,800.2197875976562
89,798.2051391601562,777.2527465820312,805.4578857421875,803.4432373046875
90,804.2490844726562,779.2673950195312,808.6813354492188,800.2197875976562
91,805.054931640625,782.893798828125,807.4725341796875,797.3992919921875
92,798.2051391601562,782.087890625,804.6520385742188,797.8021850585938
93,801.8314819335938,781.2820434570312,802.6373901367188,803.4432373046875
94,806.6666870117188,782.893798828125,803.040283203125,816.7399291992188
95,801.025634765625,783.2966918945312,807.4725341796875,813.5164794921875
96,801.025634765625,782.087890625,803.8461303710938,804.6520385742188
97,799.010986328125,783.2966918945312,798.6080322265625,807.87548828125
98,804.2490844726562,785.3113403320312,800.6226806640625,809.89013671875
99,808.2783813476562,787.7289428710938,803.4432373046875,808.6813354492188
100,800.2197875976562,784.908447265625,803.4432373046875,808.6813354492188
101,807.4725341796875,791.3552856445312,805.4578857421875,814.3223266601562
102,808.6813354492188,794.981689453125,804.2490844726562,815.5311279296875
103,799.010986328125,790.1465454101562,802.2344360351562,813.113525390625
104,803.040283203125,789.7435913085938,806.2637329101562,811.5018310546875
105,799.010986328125,785.3113403320312,802.2344360351562,810.2930297851562
106,794.1758422851562,784.908447265625,793.3699340820312,806.6666870117188
107,794.5787353515625,788.5347900390625,793.7728881835938,799.010986328125
108,795.3846435546875,787.3259887695312,795.7875366210938,797.3992919921875
109,792.1611938476562,791.3552856445312,796.1904907226562,796.996337890625
110,790.952392578125,794.981689453125,800.2197875976562,798.2051391601562
111,790.1465454101562,795.3846435546875,797.3992919921875,798.2051391601562
112,787.7289428710938,798.6080322265625,795.3846435546875,797.3992919921875
113,789.7435913085938,796.1904907226562,793.3699340820312,794.5787353515625
114,790.1465454101562,791.3552856445312,791.3552856445312,787.7289428710938
115,793.3699340820312,792.1611938476562,796.996337890625,790.5494384765625
116,796.1904907226562,793.7728881835938,798.6080322265625,796.996337890625
117,795.7875366210938,789.3406372070312,796.1904907226562,798.2051391601562
118,789.3406372070312,785.7142944335938,792.5640869140625,793.3699340820312
119,788.5347900390625,786.5201416015625,790.1465454101562,790.952392578125
120,800.6226806640625,790.1465454101562,794.1758422851562,793.7728881835938
121,806.2637329101562,794.1758422851562,794.5787353515625,792.1611938476562
122,802.2344360351562,790.952392578125,790.952392578125,790.1465454101562
123,798.6080322265625,782.4908447265625,786.5201416015625,787.7289428710938
124,797.3992919921875,782.4908447265625,786.923095703125,788.1318969726562
125,793.3699340820312,786.1171875,790.1465454101562,788.1318969726562
126,793.7728881835938,782.087890625,786.5201416015625,792.967041015625
127,801.025634765625,785.3113403320312,788.5347900390625,793.7728881835938
128,800.2197875976562,790.5494384765625,792.5640869140625,790.952392578125
129,796.5933837890625,791.3552856445312,793.7728881835938,793.7728881835938
130,799.4139404296875,787.7289428710938,792.967041015625,786.923095703125
131,798.2051391601562,786.5201416015625,788.937744140625,785.7142944335938
132,792.5640869140625,791.3552856445312,788.1318969726562,789.7435913085938
133,803.040283203125,791.3552856445312,788.937744140625,797.8021850585938
134,799.010986328125,789.3406372070312,790.952392578125,799.4139404296875
135,789.3406372070312,790.5494384765625,801.025634765625,789.7435913085938
136,787.3259887695312,790.952392578125,803.040283203125,789.7435913085938
137,782.893798828125,785.7142944335938,796.1904907226562,796.5933837890625
138,785.3113403320312,782.087890625,796.996337890625,793.7728881835938
139,788.1318969726562,786.1171875,803.040283203125,797.8021850585938
140,792.5640869140625,787.3259887695312,804.2490844726562,807.069580078125
141,796.996337890625,787.7289428710938,801.025634765625,801.025634765625
142,799.4139404296875,788.5347900390625,804.2490844726562,791.3552856445312
143,801.025634765625,786.923095703125,800.6226806640625,793.7728881835938
144,796.5933837890625,784.1025390625,792.5640869140625,791.7582397460938
145,788.937744140625,782.893798828125,796.5933837890625,789.7435913085938
146,792.967041015625,783.6996459960938,801.4285888671875,797.3992919921875
147,793.7728881835938,786.923095703125,796.1904907226562,797.3992919921875
148,791.7582397460938,791.7582397460938,792.967041015625,792.1611938476562
149,790.5494384765625,791.3552856445312,791.7582397460938,788.5347900390625
150,791.7582397460938,789.7435913085938,794.981689453125,789.7435913085938
151,796.1904907226562,792.1611938476562,800.2197875976562,796.996337890625
152,795.3846435546875,793.7728881835938,793.7728881835938,796.996337890625
153,796.1904907226562,788.5347900390625,793.3699340820312,788.1318969726562
154,798.2051391601562,787.7289428710938,797.3992919921875,790.1465454101562
155,792.967041015625,793.7728881835938,796.5933837890625,795.3846435546875
156,798.6080322265625,793.3699340820312,797.3992919921875,792.1611938476562
157,801.4285888671875,790.952392578125,798.6080322265625,794.1758422851562
158,795.3846435546875,796.5933837890625,798.6080322265625,800.2197875976562
159,792.967041015625,797.3992919921875,799.8168334960938,794.1758422851562
160,792.967041015625,792.5640869140625,801.8314819335938,788.937744140625
161,791.3552856445312,787.7289428710938,799.8168334960938,793.3699340820312
162,789.3406372070312,785.3113403320312,797.3992919921875,796.1904907226562
163,797.3992919921875,788.5347900390625,799.4139404296875,800.2197875976562
164,790.952392578125,788.5347900390625,799.4139404296875,799.010986328125
165,790.1465454101562,790.5494384765625,797.8021850585938,793.3699340820312
166,794.1758422851562,792.1611938476562,794.981689453125,788.5347900390625
167,793.7728881835938,794.1758422851562,794.5787353515625,788.5347900390625
168,798.2051391601562,791.7582397460938,797.8021850585938,791.7582397460938
169,790.5494384765625,787.7289428710938,795.3846435546875,789.3406372070312
170,784.1025390625,789.7435913085938,794.1758422851562,781.2820434570312
171,784.908447265625,793.7728881835938,790.952392578125,778.8644409179688
172,789.7435913085938,799.8168334960938,789.3406372070312,782.087890625
173,790.5494384765625,797.8021850585938,791.3552856445312,780.4761962890625
174,789.7435913085938,789.3406372070312,790.952392578125,779.6703491210938
175,788.1318969726562,786.923095703125,790.952392578125,779.2673950195312
176,788.1318969726562,789.3406372070312,790.1465454101562,777.2527465820312
177,789.7435913085938,788.1318969726562,790.952392578125,776.4468994140625
178,792.1611938476562,788.5347900390625,791.7582397460938,784.908447265625
179,799.010986328125,793.3699340820312,792.5640869140625,791.3552856445312
180,793.7728881835938,792.1611938476562,790.1465454101562,780.0732421875
181,795.7875366210938,793.3699340820312,785.3113403320312,780.0732421875
182,797.8021850585938,796.996337890625,785.7142944335938,783.6996459960938
183,787.3259887695312,794.5787353515625,786.5201416015625,782.893798828125
184,783.6996459960938,786.5201416015625,784.5054931640625,785.7142944335938
185,783.2966918945312,780.4761962890625,787.3259887695312,785.3113403320312
186,776.4468994140625,784.5054931640625,786.1171875,780.4761962890625
187,770.0,784.1025390625,779.2673950195312,776.0439453125
188,773.6264038085938,782.087890625,781.2820434570312,780.879150390625
189,780.0732421875,786.5201416015625,783.6996459960938,782.893798828125
190,786.923095703125,790.952392578125,789.7435913085938,786.5201416015625
191,787.7289428710938,789.7435913085938,793.3699340820312,790.5494384765625
192,788.1318969726562,788.937744140625,788.937744140625,787.3259887695312
193,795.3846435546875,793.3699340820312,793.3699340820312,790.5494384765625
194,798.6080322265625,799.8168334960938,799.010986328125,792.5640869140625
195,799.010986328125,800.2197875976562,804.2490844726562,797.3992919921875
196,796.996337890625,799.8168334960938,803.4432373046875,795.7875366210938
197,790.1465454101562,801.8314819335938,801.025634765625,791.7582397460938
198,792.967041015625,799.8168334960938,803.040283203125,793.3699340820312
199,798.6080322265625,796.5933837890625,802.2344360351562,790.1465454101562
200,793.3699340820312,794.5787353515625,797.8021850585938,778.8644409179688
201,792.5640869140625,791.3552856445312,792.5640869140625,784.1025390625
202,795.3846435546875,792.967041015625,792.5640869140625,795.3846435546875
203,798.2051391601562,792.967041015625,792.5640869140625,789.7435913085938
204,804.2490844726562,791.3552856445312,794.981689453125,792.1611938476562
205,803.8461303710938,789.7435913085938,798.2051391601562,797.8021850585938
206,798.6080322265625,782.893798828125,795.7875366210938,794.5787353515625
207,793.3699340820312,783.6996459960938,787.7289428710938,787.3259887695312
208,784.1025390625,784.1025390625,783.6996459960938,785.3113403320312
209,786.5201416015625,787.3259887695312,790.1465454101562,789.3406372070312
210,788.937744140625,788.937744140625,790.952392578125,790.5494384765625
211,777.6557006835938,782.893798828125,788.937744140625,780.879150390625
212,776.0439453125,780.4761962890625,792.5640869140625,776.4468994140625
213,780.879150390625,779.6703491210938,793.3699340820312,783.6996459960938
214,780.879150390625,781.2820434570312,794.1758422851562,785.3113403320312
215,775.2380981445312,780.4761962890625,794.981689453125,778.4615478515625
216,773.6264038085938,778.4615478515625,794.1758422851562,775.6410522460938
217,780.4761962890625,786.1171875,796.5933837890625,777.6557006835938
218,784.908447265625,792.967041015625,793.3699340820312,783.2966918945312
219,786.923095703125,788.1318969726562,788.937744140625,785.3113403320312
220,788.5347900390625,782.4908447265625,788.937744140625,778.4615478515625
221,787.3259887695312,784.5054931640625,793.7728881835938,780.0732421875
222,786.1171875,786.5201416015625,796.1904907226562,784.1025390625
223,791.3552856445312,785.3113403320312,791.7582397460938,783.2966918945312
224,797.3992919921875,786.5201416015625,788.937744140625,783.2966918945312
225,795.3846435546875,786.1171875,788.937744140625,785.3113403320312
226,797.8021850585938,784.908447265625,788.937744140625,779.6703491210938
227,799.8168334960938,786.5201416015625,789.3406372070312,780.0732421875
228,799.010986328125,788.1318969726562,788.937744140625,784.5054931640625
229,800.2197875976562,790.1465454101562,790.1465454101562,790.1465454101562
230,792.967041015625,789.3406372070312,794.981689453125,788.937744140625
231,786.923095703125,789.3406372070312,792.967041015625,784.908447265625
232,787.7289428710938,791.3552856445312,790.5494384765625,783.6996459960938
233,784.908447265625,787.3259887695312,790.1465454101562,782.087890625
234,785.7142944335938,784.908447265625,786.923095703125,781.2820434570312
235,792.1611938476562,789.7435913085938,787.7289428710938,784.908447265625
236,788.937744140625,792.1611938476562,789.7435913085938,789.3406372070312
237,785.3113403320312,790.1465454101562,792.5640869140625,785.7142944335938
238,784.908447265625,786.1171875,794.981689453125,784.908447265625
239,786.923095703125,788.5347900390625,795.3846435546875,790.5494384765625
240,788.937744140625,789.3406372070312,790.952392578125,790.5494384765625
241,789.3406372070312,786.923095703125,787.7289428710938,788.5347900390625
242,782.893798828125,782.087890625,785.3113403320312,785.3113403320312
243,775.2380981445312,778.4615478515625,786.1171875,781.6849975585938
244,780.4761962890625,782.893798828125,787.3259887695312,782.087890625
245,787.3259887695312,785.3113403320312,786.5201416015625,782.893798828125
246,782.4908447265625,786.1171875,786.5201416015625,778.05859375
247,778.8644409179688,788.1318969726562,788.1318969726562,785.3113403320312
248,779.2673950195312,787.3259887695312,788.5347900390625,790.952392578125
249,791.3552856445312,789.3406372070312,786.1171875,783.2966918945312
250,796.1904907226562,792.967041015625,790.1465454101562,784.908447265625
251,787.7289428710938,795.7875366210938,794.1758422851562,789.3406372070312
252,784.908447265625,795.3846435546875,793.7728881835938,789.7435913085938
253,788.1318969726562,796.1904907226562,793.7728881835938,792.1611938476562
254,791.3552856445312,792.1611938476562,793.3699340820312,791.3552856445312
255,791.7582397460938,786.5201416015625,790.5494384765625,784.5054931640625
256,790.952392578125,783.2966918945312,788.5347900390625,780.0732421875
257,786.923095703125,785.7142944335938,791.7582397460938,780.4761962890625
258,788.937744140625,792.1611938476562,793.3699340820312,780.879150390625
259,792.1611938476562,794.1758422851562,788.937744140625,781.2820434570312
260,795.3846435546875,793.3699340820312,789.7435913085938,781.2820434570312
261,792.1611938476562,790.5494384765625,792.1611938476562,775.6410522460938
262,784.908447265625,790.952392578125,793.3699340820312,774.4322509765625
263,787.7289428710938,799.4139404296875,793.7728881835938,783.2966918945312
264,797.3992919921875,800.2197875976562,796.996337890625,785.3113403320312
265,802.6373901367188,794.981689453125,800.2197875976562,781.6849975585938
266,795.7875366210938,796.5933837890625,796.1904907226562,781.2820434570312
267,792.5640869140625,796.1904907226562,794.1758422851562,781.2820434570312
268,791.7582397460938,793.3699340820312,791.7582397460938,782.087890625
269,788.5347900390625,796.1904907226562,790.1465454101562,783.2966918945312
270,790.1465454101562,798.2051391601562,790.1465454101562,789.3406372070312
271,788.937744140625,796.1904907226562,793.7728881835938,793.7728881835938
272,778.8644409179688,794.1758422851562,797.3992919921875,792.5640869140625
273,772.0146484375,790.5494384765625,794.1758422851562,794.981689453125
274,778.4615478515625,792.967041015625,798.2051391601562,805.8607788085938
275,784.1025390625,797.3992919921875,804.2490844726562,803.040283203125
276,781.6849975585938,789.7435913085938,798.6080322265625,792.967041015625
277,782.893798828125,787.7289428710938,799.010986328125,794.1758422851562
278,786.1171875,789.7435913085938,801.4285888671875,789.3406372070312
279,780.879150390625,785.7142944335938,791.3552856445312,780.0732421875
280,784.908447265625,785.3113403320312,788.937744140625,787.3259887695312
281,795.3846435546875,787.3259887695312,792.967041015625,794.5787353515625
282,791.3552856445312,785.7142944335938,794.981689453125,791.3552856445312
283,790.5494384765625,787.3259887695312,800.6226806640625,792.1611938476562
284,792.5640869140625,792.967041015625,805.4578857421875,793.3699340820312
285,785.7142944335938,792.5640869140625,801.4285888671875,793.3699340820312
286,783.6996459960938,789.7435913085938,798.2051391601562,797.8021850585938
287,786.1171875,789.3406372070312,798.6080322265625,793.3699340820312
288,788.5347900390625,792.967041015625,792.967041015625,786.923095703125
289,784.908447265625,789.7435913085938,788.1318969726562,786.5201416015625
290,782.893798828125,789.3406372070312,786.923095703125,792.1611938476562
291,781.6849975585938,792.967041015625,786.1171875,789.7435913085938
292,772.8204956054688,790.952392578125,788.1318969726562,781.2820434570312
293,772.0146484375,788.937744140625,790.952392578125,781.2820434570312
294,778.05859375,791.7582397460938,793.7728881835938,784.5054931640625
295,776.4468994140625,793.7728881835938,794.5787353515625,782.893798828125
296,777.2527465820312,789.3406372070312,795.7875366210938,782.4908447265625
297,774.4322509765625,787.7289428710938,797.8021850585938,788.937744140625
298,767.1795043945312,790.1465454101562,795.3846435546875,792.1611938476562
299,771.6116943359375,790.1465454101562,793.7728881835938,787.7289428710938
300,780.0732421875,785.7142944335938,795.3846435546875,784.5054931640625
301,783.2966918945312,785.3113403320312,797.8021850585938,786.5201416015625
302,790.1465454101562,788.5347900390625,801.025634765625,794.5787353515625
303,792.967041015625,791.3552856445312,800.2197875976562,794.1758422851562
304,792.1611938476562,792.967041015625,798.6080322265625,793.3699340820312
305,795.3846435546875,792.5640869140625,798.2051391601562,801.025634765625
306,798.6080322265625,791.3552856445312,796.996337890625,799.4139404296875
307,794.981689453125,797.8021850585938,801.4285888671875,792.967041015625
308,791.7582397460938,799.010986328125,800.6226806640625,792.5640869140625
309,798.2051391601562,797.8021850585938,800.2197875976562,798.6080322265625
310,804.2490844726562,800.6226806640625,801.025634765625,798.2051391601562
311,804.2490844726562,803.4432373046875,798.6080322265625,795.3846435546875
312,805.8607788085938,801.4285888671875,795.3846435546875,800.6226806640625
313,800.2197875976562,798.6080322265625,795.7875366210938,795.3846435546875
314,791.7582397460938,796.1904907226562,792.1611938476562,787.3259887695312
315,791.7582397460938,789.7435913085938,788.1318969726562,788.5347900390625
316,789.7435913085938,786.1171875,790.952392578125,792.5640869140625
317,784.5054931640625,785.3113403320312,792.967041015625,791.7582397460938
318,782.893798828125,781.6849975585938,796.1904907226562,796.5933837890625
319,785.3113403320312,780.0732421875,795.3846435546875,802.2344360351562
320,778.4615478515625,784.5054931640625,790.952392578125,795.7875366210938
321,764.3589477539062,782.893798828125,786.923095703125,782.4908447265625
322,761.1355590820312,775.2380981445312,785.7142944335938,774.8351440429688
323,757.106201171875,774.4322509765625,787.7289428710938,773.2234497070312
324,751.062255859375,783.6996459960938,788.1318969726562,774.8351440429688
325,748.2417602539062,782.893798828125,789.3406372070312,774.029296875
326,753.4798583984375,780.879150390625,791.3552856445312,772.8204956054688
327,761.1355590820312,782.087890625,790.5494384765625,772.8204956054688
328,758.3150024414062,784.5054931640625,791.7582397460938,772.0146484375
329,759.5238037109375,788.1318969726562,793.3699340820312,778.8644409179688
330,764.7619018554688,788.1318969726562,795.7875366210938,782.893798828125
331,777.6557006835938,790.1465454101562,793.7728881835938,786.5201416015625
332,788.937744140625,790.952392578125,792.967041015625,798.6080322265625
333,787.7289428710938,793.3699340820312,797.3992919921875,796.996337890625
334,785.7142944335938,796.996337890625,794.5787353515625,782.893798828125
335,799.010986328125,797.8021850585938,794.981689453125,787.7289428710938
336,811.90478515625,800.6226806640625,796.5933837890625,794.1758422851562
337,807.4725341796875,796.996337890625,794.1758422851562,792.967041015625
338,805.054931640625,790.1465454101562,790.1465454101562,790.1465454101562
339,809.084228515625,794.5787353515625,790.1465454101562,796.1904907226562
340,806.6666870117188,796.996337890625,791.3552856445312,793.3699340820312
341,805.8607788085938,792.967041015625,789.3406372070312,790.1465454101562
342,811.90478515625,794.981689453125,788.1318969726562,792.1611938476562
343,813.5164794921875,797.8021850585938,787.7289428710938,792.1611938476562
344,808.2783813476562,794.5787353515625,788.5347900390625,798.6080322265625
345,805.8607788085938,792.1611938476562,794.1758422851562,801.8314819335938
346,809.084228515625,794.5787353515625,798.6080322265625,801.025634765625
347,812.7106323242188,793.7728881835938,798.2051391601562,799.4139404296875
348,808.2783813476562,791.7582397460938,798.6080322265625,802.6373901367188
349,794.981689453125,790.952392578125,797.8021850585938,796.5933837890625
350,787.7289428710938,788.937744140625,795.3846435546875,796.996337890625
351,790.5494384765625,787.3259887695312,794.1758422851562,801.025634765625
352,787.3259887695312,784.5054931640625,794.1758422851562,792.1611938476562
353,778.8644409179688,784.908447265625,792.967041015625,785.3113403320312
354,778.05859375,785.3113403320312,794.981689453125,790.1465454101562
355,768.3883056640625,778.4615478515625,798.6080322265625,794.1758422851562
356,760.7326049804688,776.8497924804688,792.1611938476562,790.1465454101562
357,768.3883056640625,785.3113403320312,788.5347900390625,790.1465454101562
358,773.6264038085938,787.3259887695312,789.3406372070312,786.5201416015625
359,780.0732421875,791.3552856445312,790.952392578125,784.1025390625
360,787.7289428710938,794.5787353515625,796.1904907226562,783.6996459960938
361,797.8021850585938,794.1758422851562,796.5933837890625,785.3113403320312
362,805.8607788085938,798.2051391601562,796.5933837890625,793.7728881835938
363,803.8461303710938,798.6080322265625,790.952392578125,791.3552856445312
364,809.084228515625,794.981689453125,787.3259887695312,786.1171875
365,814.3223266601562,800.2197875976562,789.3406372070312,790.5494384765625
366,815.5311279296875,806.6666870117188,790.952392578125,800.6226806640625
367,827.6190185546875,805.4578857421875,793.3699340820312,801.025634765625
368,829.2307739257812,807.4725341796875,791.7582397460938,794.5787353515625
369,816.3369750976562,808.2783813476562,790.952392578125,801.025634765625
370,815.5311279296875,805.8607788085938,791.7582397460938,813.113525390625
371,815.1282348632812,805.4578857421875,792.1611938476562,814.7252807617188
372,813.113525390625,803.8461303710938,791.3552856445312,807.4725341796875
373,812.7106323242188,794.981689453125,791.7582397460938,809.4871826171875
374,804.2490844726562,787.7289428710938,790.952392578125,809.084228515625
375,790.952392578125,789.7435913085938,792.967041015625,806.6666870117188
376,782.4908447265625,786.1171875,792.967041015625,803.8461303710938
377,789.3406372070312,784.5054931640625,799.010986328125,810.6959838867188
378,789.7435913085938,790.1465454101562,806.2637329101562,812.3076782226562
379,784.908447265625,789.7435913085938,803.8461303710938,800.2197875976562
380,776.4468994140625,788.937744140625,803.040283203125,798.2051391601562
381,773.6264038085938,783.6996459960938,799.8168334960938,795.3846435546875
382,782.087890625,786.1171875,796.5933837890625,795.7875366210938
383,786.1171875,792.1611938476562,802.2344360351562,797.8021850585938
384,789.3406372070312,790.952392578125,802.6373901367188,796.1904907226562
385,785.3113403320312,790.5494384765625,794.981689453125,788.1318969726562
386,789.3406372070312,798.2051391601562,797.8021850585938,790.5494384765625
387,794.5787353515625,806.6666870117188,798.2051391601562,793.3699340820312
388,794.1758422851562,805.8607788085938,796.1904907226562,785.7142944335938
389,795.7875366210938,800.6226806640625,795.7875366210938,782.893798828125
390,790.5494384765625,792.5640869140625,791.3552856445312,774.4322509765625
391,794.5787353515625,794.5787353515625,789.7435913085938,769.5970458984375
392,797.8021850585938,801.8314819335938,794.1758422851562,776.4468994140625
393,795.3846435546875,795.3846435546875,793.3699340820312,784.1025390625
394,795.3846435546875,790.952392578125,789.3406372070312,790.1465454101562
395,790.5494384765625,796.1904907226562,792.5640869140625,787.3259887695312
396,789.7435913085938,797.8021850585938,795.7875366210938,786.923095703125
397,789.3406372070312,796.996337890625,792.967041015625,792.967041015625
398,790.5494384765625,795.3846435546875,794.5787353515625,798.6080322265625
399,790.1465454101562,794.981689453125,796.5933837890625,790.952392578125
400,788.937744140625,793.3699340820312,798.6080322265625,790.952392578125
401,788.937744140625,790.1465454101562,800.2197875976562,798.2051391601562
402,784.5054931640625,786.1171875,799.8168334960938,797.3992919921875
403,784.908447265625,787.7289428710938,796.5933837890625,799.4139404296875
404,782.893798828125,782.087890625,792.967041015625,788.5347900390625
405,776.4468994140625,775.6410522460938,795.3846435546875,783.6996459960938
406,779.6703491210938,778.8644409179688,794.981689453125,787.3259887695312
407,779.6703491210938,782.893798828125,790.952392578125,780.0732421875
408,782.4908447265625,786.5201416015625,788.937744140625,779.2673950195312
409,787.7289428710938,783.2966918945312,787.7289428710938,778.8644409179688
410,783.6996459960938,779.2673950195312,786.5201416015625,774.4322509765625
411,785.3113403320312,783.6996459960938,787.3259887695312,772.8204956054688
412,782.087890625,782.4908447265625,783.6996459960938,772.4176025390625
413,777.2527465820312,783.6996459960938,782.4908447265625,774.029296875
414,785.3113403320312,789.3406372070312,785.3113403320312,774.4322509765625
415,786.923095703125,791.7582397460938,785.7142944335938,774.029296875
416,786.923095703125,790.952392578125,781.6849975585938,774.029296875
417,787.3259887695312,790.5494384765625,780.4761962890625,776.8497924804688
418,782.893798828125,790.952392578125,783.6996459960938,777.6557006835938
419,784.5054931640625,788.5347900390625,784.1025390625,790.1465454101562
420,785.7142944335938,787.7289428710938,786.5201416015625,791.3552856445312
421,779.6703491210938,787.7289428710938,785.7142944335938,774.8351440429688
422,775.2380981445312,790.952392578125,784.1025390625,777.2527465820312
423,779.6703491210938,793.7728881835938,785.7142944335938,782.087890625
424,784.1025390625,792.967041015625,789.3406372070312,792.1611938476562
425,780.0732421875,790.1465454101562,787.7289428710938,790.5494384765625
426,781.6849975585938,794.1758422851562,788.1318969726562,786.1171875
427,791.3552856445312,803.040283203125,793.7728881835938,792.967041015625
428,805.8607788085938,797.3992919921875,795.7875366210938,798.6080322265625
429,805.8607788085938,793.7728881835938,792.5640869140625,795.7875366210938
430,802.2344360351562,796.5933837890625,790.1465454101562,791.3552856445312
431,804.6520385742188,794.5787353515625,795.3846435546875,795.3846435546875
432,800.6226806640625,793.7728881835938,797.3992919921875,797.3992919921875
433,802.2344360351562,791.3552856445312,794.5787353515625,797.8021850585938
434,809.4871826171875,792.1611938476562,796.996337890625,798.2051391601562
435,812.3076782226562,792.1611938476562,796.1904907226562,798.2051391601562
436,799.8168334960938,788.937744140625,793.7728881835938,790.952392578125
437,793.7728881835938,790.1465454101562,793.3699340820312,784.1025390625
438,795.7875366210938,787.7289428710938,791.7582397460938,785.7142944335938
439,793.7728881835938,784.1025390625,794.1758422851562,790.1465454101562
440,800.6226806640625,788.1318969726562,796.5933837890625,792.967041015625
441,791.7582397460938,789.3406372070312,792.5640869140625,781.2820434570312
442,785.7142944335938,786.923095703125,788.937744140625,778.8644409179688
443,786.5201416015625,788.5347900390625,788.937744140625,784.5054931640625
444,789.3406372070312,789.7435913085938,786.1171875,788.937744140625
445,794.5787353515625,786.1171875,785.3113403320312,788.5347900390625
446,788.937744140625,787.3259887695312,785.3113403320312,791.3552856445312
447,779.2673950195312,787.7289428710938,784.1025390625,789.3406372070312
448,778.4615478515625,786.1171875,786.1171875,777.6557006835938
449,791.7582397460938,786.5201416015625,788.937744140625,777.2527465820312
450,796.1904907226562,784.908447265625,789.3406372070312,786.1171875
451,793.3699340820312,787.3259887695312,792.5640869140625,793.3699340820312
452,788.1318969726562,790.5494384765625,792.967041015625,792.1611938476562
453,786.5201416015625,789.3406372070312,793.3699340820312,786.923095703125
454,789.7435913085938,789.3406372070312,793.7728881835938,785.7142944335938
455,794.981689453125,794.1758422851562,794.1758422851562,788.937744140625
456,796.1904907226562,796.1904907226562,798.2051391601562,791.7582397460938
457,797.8021850585938,792.1611938476562,802.2344360351562,794.981689453125
458,801.4285888671875,785.3113403320312,798.6080322265625,799.4139404296875
459,801.4285888671875,783.2966918945312,799.010986328125,799.010986328125
460,801.4285888671875,786.1171875,803.040283203125,795.7875366210938
461,799.4139404296875,789.3406372070312,801.8314819335938,795.3846435546875
462,793.3699340820312,788.1318969726562,803.040283203125,790.1465454101562
463,796.5933837890625,791.7582397460938,799.8168334960938,786.923095703125
464,798.2051391601562,793.3699340820312,792.967041015625,781.6849975585938
465,788.937744140625,790.952392578125,788.937744140625,783.2966918945312
466,790.5494384765625,791.3552856445312,791.3552856445312,788.5347900390625
467,791.7582397460938,784.1025390625,792.967041015625,783.2966918945312
468,790.1465454101562,783.2966918945312,788.937744140625,780.879150390625
469,790.5494384765625,790.5494384765625,786.923095703125,778.4615478515625
470,788.1318969726562,792.967041015625,788.937744140625,778.8644409179688
471,790.1465454101562,793.3699340820312,788.1318969726562,779.6703491210938
472,790.1465454101562,792.967041015625,792.1611938476562,778.8644409179688
473,785.7142944335938,790.5494384765625,791.7582397460938,782.893798828125
474,780.879150390625,787.7289428710938,789.3406372070312,788.5347900390625
475,782.893798828125,791.3552856445312,791.3552856445312,786.1171875
476,783.2966918945312,790.952392578125,788.1318969726562,786.923095703125
477,777.2527465820312,786.1171875,790.1465454101562,789.7435913085938
478,777.2527465820312,787.7289428710938,792.967041015625,787.3259887695312
479,783.6996459960938,788.5347900390625,794.1758422851562,788.1318969726562
480,788.937744140625,789.3406372070312,795.7875366210938,791.3552856445312
481,783.6996459960938,785.7142944335938,795.7875366210938,792.1611938476562
482,787.3259887695312,788.937744140625,795.3846435546875,790.5494384765625
483,792.967041015625,796.1904907226562,797.8021850585938,792.967041015625
484,783.6996459960938,797.8021850585938,799.010986328125,788.5347900390625
485,788.5347900390625,802.2344360351562,800.6226806640625,791.3552856445312
486,800.6226806640625,804.6520385742188,801.8314819335938,801.025634765625
487,802.6373901367188,804.6520385742188,801.8314819335938,796.5933837890625
488,796.5933837890625,803.8461303710938,803.040283203125,792.967041015625
489,794.5787353515625,801.4285888671875,798.2051391601562,793.3699340820312
490,805.8607788085938,801.8314819335938,794.5787353515625,792.5640869140625
491,814.3223266601562,801.025634765625,794.981689453125,792.967041015625
492,807.4725341796875,800.2197875976562,802.2344360351562,801.025634765625
493,797.3992919921875,798.2051391601562,800.2197875976562,792.5640869140625
494,797.3992919921875,794.1758422851562,796.996337890625,784.1025390625
495,796.1904907226562,792.5640869140625,794.1758422851562,786.923095703125
496,796.996337890625,796.1904907226562,788.937744140625,787.7289428710938
497,798.6080322265625,795.7875366210938,791.7582397460938,786.923095703125
498,791.7582397460938,793.3699340820312,796.1904907226562,796.1904907226562
499,782.087890625,793.7728881835938,794.1758422851562,796.1904907226562
500,781.2820434570312,789.7435913085938,787.3259887695312,783.2966918945312
501,788.1318969726562,785.7142944335938,786.923095703125,792.5640869140625
502,785.7142944335938,790.5494384765625,789.7435913085938,796.5933837890625
503,783.2966918945312,792.967041015625,784.908447265625,782.893798828125
504,788.5347900390625,788.1318969726562,783.6996459960938,779.6703491210938
505,792.1611938476562,788.5347900390625,787.7289428710938,784.908447265625
506,794.5787353515625,795.3846435546875,791.3552856445312,786.1171875
507,793.3699340820312,794.981689453125,794.1758422851562,784.5054931640625
508,788.5347900390625,790.1465454101562,796.5933837890625,786.923095703125
509,791.7582397460938,791.7582397460938,801.025634765625,788.937744140625
510,794.5787353515625,788.5347900390625,803.040283203125,785.7142944335938
511,794.981689453125,785.3113403320312,807.069580078125,788.1318969726562
512,800.6226806640625,788.5347900390625,806.6666870117188,801.4285888671875
513,794.981689453125,787.7289428710938,805.4578857421875,798.2051391601562
514,786.5201416015625,788.1318969726562,805.8607788085938,787.3259887695312
515,788.5347900390625,788.937744140625,804.2490844726562,794.981689453125
516,789.3406372070312,786.1171875,801.4285888671875,791.3552856445312
517,789.3406372070312,787.3259887695312,794.981689453125,786.5201416015625
518,784.1025390625,790.5494384765625,792.1611938476562,785.3113403320312
519,783.6996459960938,796.1904907226562,794.5787353515625,787.7289428710938
520,788.1318969726562,796.5933837890625,796.996337890625,787.7289428710938
521,792.1611938476562,794.1758422851562,797.8021850585938,780.879150390625
522,788.937744140625,790.952392578125,792.1611938476562,778.4615478515625
523,782.087890625,784.908447265625,790.1465454101562,780.4761962890625
524,787.7289428710938,789.3406372070312,789.3406372070312,792.967041015625
525,786.1171875,794.1758422851562,784.1025390625,791.3552856445312
526,779.6703491210938,790.5494384765625,785.3113403320312,783.6996459960938
527,783.2966918945312,789.7435913085938,784.1025390625,784.908447265625
528,786.1171875,790.5494384765625,782.893798828125,785.3113403320312
529,778.4615478515625,788.5347900390625,783.2966918945312,785.3113403320312
530,778.4615478515625,788.5347900390625,786.1171875,784.1025390625
531,784.908447265625,790.952392578125,785.3113403320312,786.1171875
532,784.908447265625,790.5494384765625,781.6849975585938,786.1171875
533,784.908447265625,792.967041015625,786.5201416015625,791.3552856445312
534,786.5201416015625,792.1611938476562,788.5347900390625,789.3406372070312
535,789.7435913085938,786.1171875,785.3113403320312,790.1465454101562
536,791.7582397460938,782.4908447265625,784.908447265625,792.967041015625
537,797.3992919921875,783.6996459960938,782.4908447265625,785.3113403320312
538,801.025634765625,786.5201416015625,784.908447265625,792.1611938476562
539,793.7728881835938,785.7142944335938,791.3552856445312,792.5640869140625
540,793.7728881835938,788.937744140625,791.7582397460938,786.5201416015625
541,794.1758422851562,794.981689453125,791.7582397460938,788.1318969726562
542,799.010986328125,795.3846435546875,792.5640869140625,793.7728881835938
543,799.010986328125,792.967041015625,793.3699340820312,789.3406372070312
544,790.1465454101562,790.1465454101562,788.937744140625,782.4908447265625
545,793.3699340820312,788.1318969726562,789.7435913085938,787.7289428710938
546,797.3992919921875,794.5787353515625,791.3552856445312,792.967041015625
547,794.1758422851562,798.2051391601562,788.937744140625,794.1758422851562
548,793.7728881835938,796.5933837890625,788.937744140625,794.1758422851562
549,791.3552856445312,798.6080322265625,792.1611938476562,795.7875366210938
550,793.3699340820312,799.010986328125,795.3846435546875,796.996337890625
551,792.1611938476562,797.3992919921875,794.5787353515625,786.923095703125
552,792.5640869140625,795.7875366210938,792.5640869140625,784.1025390625
553,805.4578857421875,796.996337890625,796.5933837890625,790.5494384765625
554,803.4432373046875,791.7582397460938,795.3846435546875,786.5201416015625
555,796.5933837890625,784.1025390625,789.3406372070312,789.7435913085938
556,805.054931640625,789.7435913085938,790.952392578125,792.967041015625
557,802.6373901367188,792.1611938476562,789.7435913085938,793.3699340820312
558,797.3992919921875,788.1318969726562,787.3259887695312,798.2051391601562
559,787.3259887695312,788.5347900390625,788.1318969726562,792.1611938476562
560,775.6410522460938,788.5347900390625,787.3259887695312,780.0732421875
561,776.8497924804688,787.7289428710938,787.3259887695312,780.0732421875
562,781.2820434570312,783.6996459960938,790.5494384765625,788.1318969726562
563,786.5201416015625,784.5054931640625,796.996337890625,787.7289428710938
564,785.7142944335938,786.5201416015625,796.1904907226562,782.4908447265625
565,784.5054931640625,784.908447265625,796.996337890625,784.1025390625
566,785.3113403320312,785.7142944335938,796.5933837890625,783.2966918945312
567,788.1318969726562,786.923095703125,789.7435913085938,780.0732421875
568,787.7289428710938,788.5347900390625,790.1465454101562,780.4761962890625
569,788.937744140625,790.5494384765625,790.952392578125,781.2820434570312
570,790.1465454101562,794.1758422851562,795.3846435546875,783.2966918945312
571,786.5201416015625,794.981689453125,800.2197875976562,785.7142944335938
572,791.7582397460938,792.967041015625,802.2344360351562,787.3259887695312
573,796.996337890625,794.1758422851562,802.6373901367188,791.3552856445312
574,799.010986328125,796.996337890625,803.8461303710938,803.4432373046875
575,797.3992919921875,796.5933837890625,799.8168334960938,801.025634765625
576,795.7875366210938,793.3699340820312,792.5640869140625,789.3406372070312
577,793.7728881835938,793.7728881835938,793.3699340820312,788.5347900390625
578,791.3552856445312,791.7582397460938,790.5494384765625,788.937744140625
579,789.7435913085938,788.5347900390625,786.5201416015625,788.1318969726562
580,784.1025390625,788.937744140625,788.937744140625,783.6996459960938
581,779.2673950195312,786.1171875,786.5201416015625,779.6703491210938
582,779.2673950195312,784.1025390625,784.1025390625,774.029296875
583,783.2966918945312,786.5201416015625,786.5201416015625,771.6116943359375
584,783.6996459960938,787.7289428710938,783.2966918945312,773.2234497070312
585,779.6703491210938,784.908447265625,784.1025390625,776.0439453125
586,782.087890625,783.6996459960938,785.7142944335938,776.8497924804688
587,786.1171875,784.908447265625,784.5054931640625,782.087890625
588,784.908447265625,788.937744140625,784.5054931640625,782.4908447265625
589,788.5347900390625,784.5054931640625,781.6849975585938,780.879150390625
590,780.879150390625,781.6849975585938,783.6996459960938,778.4615478515625
591,776.4468994140625,786.923095703125,788.937744140625,782.4908447265625
592,781.2820434570312,787.7289428710938,790.952392578125,787.7289428710938
593,784.5054931640625,788.937744140625,789.7435913085938,787.7289428710938
594,790.1465454101562,789.3406372070312,789.3406372070312,789.3406372070312
595,788.937744140625,786.1171875,792.1611938476562,778.05859375
596,789.7435913085938,789.7435913085938,797.3992919921875,777.6557006835938
597,790.952392578125,795.3846435546875,793.3699340820312,784.5054931640625
598,793.3699340820312,790.1465454101562,789.7435913085938,781.6849975585938
599,796.996337890625,788.1318969726562,788.937744140625,781.2820434570312
600,793.3699340820312,788.5347900390625,785.3113403320312,782.4908447265625
601,780.879150390625,786.1171875,786.1171875,784.5054931640625
602,783.2966918945312,788.1318969726562,788.937744140625,785.7142944335938
603,789.3406372070312,785.7142944335938,791.7582397460938,785.7142944335938
604,792.967041015625,785.7142944335938,793.3699340820312,783.2966918945312
605,794.981689453125,790.1465454101562,794.1758422851562,783.6996459960938
606,799.4139404296875,787.3259887695312,791.3552856445312,787.7289428710938
607,796.1904907226562,788.1318969726562,789.7435913085938,785.7142944335938
608,795.7875366210938,791.3552856445312,790.1465454101562,791.7582397460938
609,797.8021850585938,795.3846435546875,788.5347900390625,793.3699340820312
610,789.7435913085938,792.967041015625,790.5494384765625,785.3113403320312
611,786.923095703125,789.3406372070312,796.1904907226562,782.893798828125
612,791.7582397460938,792.967041015625,793.7728881835938,785.7142944335938
613,789.7435913085938,796.996337890625,791.3552856445312,790.1465454101562
614,783.6996459960938,799.010986328125,795.3846435546875,792.5640869140625
615,785.3113403320312,797.8021850585938,800.6226806640625,784.1025390625
616,783.2966918945312,788.937744140625,801.025634765625,774.4322509765625
617,784.908447265625,783.6996459960938,800.2197875976562,780.0732421875
618,788.5347900390625,792.1611938476562,796.996337890625,780.879150390625
619,786.5201416015625,794.5787353515625,794.1758422851562,778.8644409179688
620,783.6996459960938,789.7435913085938,793.7728881835938,790.1465454101562
621,778.05859375,788.937744140625,794.1758422851562,789.7435913085938
622,777.6557006835938,789.7435913085938,794.5787353515625,774.029296875
623,786.5201416015625,787.7289428710938,792.967041015625,778.05859375
624,788.1318969726562,783.2966918945312,792.967041015625,778.8644409179688
625,786.5201416015625,788.5347900390625,792.5640869140625,781.6849975585938
626,783.6996459960938,788.937744140625,791.3552856445312,785.3113403320312
627,782.087890625,785.7142944335938,790.1465454101562,784.1025390625
628,783.6996459960938,788.1318969726562,791.3552856445312,788.937744140625
629,787.7289428710938,790.952392578125,794.1758422851562,795.7875366210938
630,794.5787353515625,790.5494384765625,790.5494384765625,791.7582397460938
631,785.3113403320312,786.5201416015625,787.3259887695312,788.5347900390625
632,781.2820434570312,788.937744140625,789.3406372070312,792.5640869140625
633,788.5347900390625,794.5787353515625,790.952392578125,792.967041015625
634,789.3406372070312,788.937744140625,789.7435913085938,790.1465454101562
635,787.3259887695312,783.2966918945312,786.1171875,790.5494384765625
636,783.2966918945312,788.5347900390625,783.6996459960938,792.967041015625
637,780.4761962890625,790.1465454101562,789.3406372070312,795.3846435546875
638,787.3259887695312,792.967041015625,790.952392578125,801.025634765625
639,794.5787353515625,791.3552856445312,788.937744140625,793.3699340820312
640,788.1318969726562,786.5201416015625,788.1318969726562,784.908447265625
641,782.4908447265625,788.5347900390625,787.7289428710938,787.7289428710938
642,782.4908447265625,788.5347900390625,790.5494384765625,787.7289428710938
643,786.1171875,788.5347900390625,792.5640869140625,788.5347900390625
644,787.7289428710938,790.1465454101562,792.5640869140625,790.1465454101562
645,786.5201416015625,785.7142944335938,793.7728881835938,786.923095703125
646,787.7289428710938,784.1025390625,793.3699340820312,789.7435913085938
647,787.3259887695312,790.1465454101562,790.952392578125,793.7728881835938
648,786.5201416015625,793.3699340820312,792.1611938476562,793.7728881835938
649,789.3406372070312,794.5787353515625,794.1758422851562,800.6226806640625
650,785.7142944335938,785.7142944335938,796.5933837890625,802.6373901367188
651,780.4761962890625,785.3113403320312,798.6080322265625,799.010986328125
652,779.6703491210938,789.7435913085938,795.7875366210938,790.5494384765625
653,778.8644409179688,786.923095703125,794.5787353515625,788.1318969726562
654,782.087890625,786.923095703125,794.981689453125,800.2197875976562
655,788.5347900390625,787.7289428710938,797.3992919921875,797.3992919921875
656,786.923095703125,786.923095703125,796.996337890625,785.7142944335938
657,789.3406372070312,785.3113403320312,797.3992919921875,785.7142944335938
658,789.7435913085938,787.7289428710938,801.025634765625,798.2051391601562
659,782.087890625,790.5494384765625,799.4139404296875,795.7875366210938
660,795.3846435546875,791.3552856445312,801.4285888671875,786.5201416015625
661,805.054931640625,790.952392578125,807.069580078125,791.3552856445312
662,795.7875366210938,789.3406372070312,805.054931640625,788.1318969726562
663,791.7582397460938,790.1465454101562,799.010986328125,783.6996459960938
664,794.5787353515625,792.1611938476562,802.6373901367188,787.3259887695312
665,795.3846435546875,788.5347900390625,801.4285888671875,788.1318969726562
666,795.7875366210938,784.908447265625,797.3992919921875,789.3406372070312
667,794.5787353515625,789.3406372070312,801.4285888671875,792.1611938476562
668,789.3406372070312,786.923095703125,799.4139404296875,794.981689453125
669,792.967041015625,785.3113403320312,795.7875366210938,798.6080322265625
670,803.4432373046875,788.937744140625,798.6080322265625,799.010986328125
671,797.3992919921875,789.7435913085938,798.2051391601562,801.025634765625
672,785.7142944335938,790.5494384765625,798.6080322265625,797.3992919921875
673,786.1171875,790.952392578125,802.2344360351562,795.7875366210938
674,784.1025390625,790.1465454101562,801.4285888671875,797.8021850585938
675,787.7289428710938,789.7435913085938,802.2344360351562,795.3846435546875
676,791.3552856445312,787.7289428710938,802.6373901367188,790.5494384765625
677,790.952392578125,786.923095703125,801.025634765625,786.923095703125
678,788.5347900390625,788.5347900390625,794.5787353515625,788.1318969726562
679,792.1611938476562,790.952392578125,798.6080322265625,793.3699340820312
680,802.2344360351562,790.952392578125,803.040283203125,794.5787353515625
681,796.996337890625,786.923095703125,795.3846435546875,795.3846435546875
682,794.5787353515625,791.7582397460938,795.3846435546875,797.8021850585938
683,792.5640869140625,795.7875366210938,796.5933837890625,793.7728881835938
684,788.937744140625,790.1465454101562,786.5201416015625,781.2820434570312
685,790.1465454101562,787.3259887695312,785.3113403320312,775.2380981445312
686,794.1758422851562,788.1318969726562,798.2051391601562,782.087890625
687,798.6080322265625,787.3259887695312,801.8314819335938,790.952392578125
688,803.4432373046875,786.5201416015625,803.4432373046875,797.3992919921875
689,810.2930297851562,792.5640869140625,803.040283203125,802.6373901367188
690,807.87548828125,793.7728881835938,802.6373901367188,795.3846435546875
691,804.6520385742188,788.937744140625,802.6373901367188,787.7289428710938
692,801.8314819335938,792.5640869140625,797.3992919921875,788.937744140625
693,793.3699340820312,794.5787353515625,794.5787353515625,789.3406372070312
694,788.937744140625,786.923095703125,794.1758422851562,790.5494384765625
695,791.3552856445312,783.6996459960938,796.1904907226562,789.7435913085938
696,790.5494384765625,786.1171875,795.3846435546875,787.3259887695312
697,790.1465454101562,788.937744140625,794.981689453125,790.5494384765625
698,794.981689453125,788.5347900390625,796.996337890625,786.923095703125
699,793.7728881835938,786.923095703125,796.1904907226562,787.7289428710938
700,787.7289428710938,784.1025390625,796.1904907226562,792.1611938476562
701,787.7289428710938,784.1025390625,793.7728881835938,792.1611938476562
702,787.7289428710938,781.2820434570312,791.7582397460938,784.5054931640625
703,786.1171875,778.4615478515625,793.3699340820312,782.4908447265625
704,783.6996459960938,788.5347900390625,791.7582397460938,793.7728881835938
705,779.6703491210938,791.7582397460938,791.3552856445312,792.5640869140625
706,788.5347900390625,789.7435913085938,796.996337890625,786.5201416015625
707,793.3699340820312,788.5347900390625,793.7728881835938,781.6849975585938
708,786.923095703125,786.1171875,789.3406372070312,779.6703491210938
709,785.3113403320312,786.1171875,794.5787353515625,781.6849975585938
710,789.3406372070312,794.5787353515625,793.3699340820312,782.893798828125
711,792.5640869140625,796.1904907226562,793.7728881835938,787.3259887695312
712,794.5787353515625,796.1904907226562,799.4139404296875,796.5933837890625
713,793.3699340820312,800.6226806640625,799.010986328125,791.3552856445312
714,789.7435913085938,794.5787353515625,798.2051391601562,783.2966918945312
715,790.952392578125,788.937744140625,796.1904907226562,785.3113403320312
716,792.967041015625,789.3406372070312,797.3992919921875,791.3552856445312
717,796.1904907226562,792.1611938476562,802.2344360351562,795.7875366210938
718,788.937744140625,792.1611938476562,799.010986328125,788.1318969726562
719,778.8644409179688,786.923095703125,795.7875366210938,784.908447265625
720,782.4908447265625,788.1318969726562,799.4139404296875,786.1171875
721,789.3406372070312,788.5347900390625,797.8021850585938,783.6996459960938
722,787.3259887695312,787.3259887695312,794.5787353515625,780.4761962890625
723,784.1025390625,788.5347900390625,801.4285888671875,788.1318969726562
724,784.5054931640625,788.937744140625,808.2783813476562,789.7435913085938
725,784.5054931640625,786.1171875,801.025634765625,780.879150390625
726,785.3113403320312,784.908447265625,792.967041015625,778.4615478515625
727,786.1171875,785.3113403320312,794.981689453125,783.6996459960938
728,788.1318969726562,784.1025390625,796.996337890625,788.1318969726562
729,790.5494384765625,789.7435913085938,791.7582397460938,782.087890625
730,797.3992919921875,792.5640869140625,789.7435913085938,787.7289428710938
731,804.6520385742188,793.3699340820312,795.3846435546875,798.2051391601562
732,803.4432373046875,794.5787353515625,801.8314819335938,796.5933837890625
733,801.8314819335938,789.3406372070312,805.054931640625,791.3552856445312
734,797.3992919921875,787.7289428710938,805.4578857421875,791.7582397460938
735,797.3992919921875,788.5347900390625,803.040283203125,796.1904907226562
736,806.2637329101562,791.3552856445312,802.2344360351562,796.996337890625
737,806.6666870117188,793.7728881835938,800.2197875976562,786.923095703125
738,803.4432373046875,792.5640869140625,798.6080322265625,783.6996459960938
739,803.8461303710938,792.5640869140625,798.2051391601562,786.923095703125
740,794.5787353515625,792.5640869140625,797.8021850585938,786.1171875
741,788.937744140625,793.7728881835938,796.5933837890625,783.6996459960938
742,786.1171875,790.1465454101562,794.5787353515625,790.5494384765625
743,778.4615478515625,784.1025390625,790.952392578125,802.2344360351562
744,782.087890625,786.5201416015625,790.5494384765625,789.3406372070312
745,782.893798828125,787.3259887695312,789.7435913085938,778.8644409179688
746,778.8644409179688,788.937744140625,790.1465454101562,782.4908447265625
747,782.893798828125,797.8021850585938,791.3552856445312,787.3259887695312
748,785.3113403320312,788.1318969726562,788.5347900390625,782.4908447265625
749,780.4761962890625,781.6849975585938,791.7582397460938,776.8497924804688
750,777.6557006835938,790.5494384765625,794.5787353515625,782.893798828125
751,781.2820434570312,792.5640869140625,792.5640869140625,786.1171875
752,789.3406372070312,791.3552856445312,790.1465454101562,778.05859375
753,789.3406372070312,787.3259887695312,788.5347900390625,775.2380981445312
754,782.893798828125,787.3259887695312,794.981689453125,785.3113403320312
755,786.5201416015625,787.7289428710938,800.2197875976562,792.5640869140625
756,787.3259887695312,787.3259887695312,796.996337890625,789.7435913085938
757,786.1171875,791.3552856445312,797.3992919921875,786.5201416015625
758,785.3113403320312,789.3406372070312,799.010986328125,789.7435913085938
759,786.1171875,785.3113403320312,794.5787353515625,792.967041015625
760,787.7289428710938,788.5347900390625,794.5787353515625,788.937744140625
761,791.7582397460938,792.5640869140625,796.996337890625,792.1611938476562
762,794.5787353515625,794.5787353515625,794.5787353515625,790.1465454101562
763,795.3846435546875,792.5640869140625,794.5787353515625,784.908447265625
764,788.5347900390625,791.7582397460938,793.7728881835938,780.879150390625
765,782.893798828125,791.7582397460938,788.937744140625,776.8497924804688
766,789.7435913085938,791.7582397460938,789.3406372070312,786.5201416015625
767,794.1758422851562,793.3699340820312,793.7728881835938,789.7435913085938
768,793.3699340820312,787.7289428710938,790.1465454101562,784.5054931640625
769,788.1318969726562,783.2966918945312,784.1025390625,780.0732421875
770,783.6996459960938,786.5201416015625,785.3113403320312,777.2527465820312
771,790.5494384765625,788.5347900390625,786.1171875,780.0732421875
772,792.1611938476562,789.3406372070312,788.5347900390625,784.5054931640625
773,790.5494384765625,787.7289428710938,794.5787353515625,787.3259887695312
774,799.4139404296875,790.5494384765625,792.1611938476562,787.7289428710938
775,790.1465454101562,794.1758422851562,789.3406372070312,788.1318969726562
776,783.2966918945312,793.7728881835938,792.5640869140625,787.7289428710938
777,790.1465454101562,792.1611938476562,793.7728881835938,788.937744140625
778,790.952392578125,794.1758422851562,794.5787353515625,796.5933837890625
779,792.1611938476562,790.5494384765625,794.5787353515625,794.1758422851562
780,795.7875366210938,788.5347900390625,798.2051391601562,797.3992919921875
781,797.3992919921875,794.5787353515625,800.6226806640625,808.6813354492188
782,801.8314819335938,796.996337890625,798.2051391601562,804.6520385742188
783,805.054931640625,799.4139404296875,801.4285888671875,799.8168334960938
784,797.3992919921875,798.2051391601562,801.025634765625,799.010986328125
785,790.1465454101562,795.3846435546875,795.7875366210938,796.5933837890625
786,786.5201416015625,792.5640869140625,794.1758422851562,791.7582397460938
787,790.1465454101562,792.5640869140625,794.1758422851562,788.937744140625
788,795.7875366210938,790.952392578125,797.3992919921875,795.7875366210938
789,807.4725341796875,796.5933837890625,800.2197875976562,802.2344360351562
790,800.6226806640625,797.8021850585938,796.1904907226562,789.3406372070312
791,786.5201416015625,791.7582397460938,794.5787353515625,784.5054931640625
792,788.5347900390625,795.3846435546875,796.5933837890625,794.981689453125
793,799.010986328125,795.7875366210938,798.6080322265625,794.1758422851562
794,796.5933837890625,794.1758422851562,803.040283203125,787.7289428710938
795,781.2820434570312,790.1465454101562,802.6373901367188,787.3259887695312
796,779.6703491210938,784.5054931640625,798.6080322265625,781.6849975585938
797,786.923095703125,786.1171875,796.996337890625,781.2820434570312
798,792.1611938476562,789.3406372070312,798.6080322265625,794.981689453125
799,785.7142944335938,789.7435913085938,797.3992919921875,784.908447265625
800,775.2380981445312,790.1465454101562,794.981689453125,767.9853515625
801,775.2380981445312,785.3113403320312,796.1904907226562,770.8058471679688
802,782.4908447265625,782.893798828125,796.1904907226562,779.6703491210938
803,780.879150390625,785.3113403320312,796.1904907226562,782.4908447265625
804,779.6703491210938,784.1025390625,797.3992919921875,786.923095703125
805,778.05859375,782.087890625,798.6080322265625,787.7289428710938
806,768.3883056640625,783.2966918945312,794.981689453125,783.2966918945312
807,773.2234497070312,786.923095703125,799.4139404296875,789.3406372070312
808,788.937744140625,784.1025390625,800.2197875976562,789.3406372070312
809,790.5494384765625,783.6996459960938,795.7875366210938,785.7142944335938
810,778.05859375,785.3113403320312,797.8021850585938,784.1025390625
811,774.4322509765625,785.3113403320312,796.5933837890625,787.7289428710938
812,776.4468994140625,783.2966918945312,794.1758422851562,794.5787353515625
813,789.7435913085938,785.7142944335938,797.3992919921875,795.3846435546875
814,798.6080322265625,788.5347900390625,800.6226806640625,795.3846435546875
815,782.893798828125,790.5494384765625,799.4139404296875,794.5787353515625
816,780.4761962890625,788.937744140625,797.8021850585938,790.5494384765625
817,784.908447265625,783.6996459960938,795.7875366210938,789.3406372070312
818,783.6996459960938,784.5054931640625,794.1758422851562,787.7289428710938
819,789.7435913085938,786.1171875,795.7875366210938,792.1611938476562
820,786.5201416015625,787.3259887695312,792.967041015625,794.5787353515625
821,787.3259887695312,786.5201416015625,792.967041015625,794.1758422851562
822,789.7435913085938,784.5054931640625,795.7875366210938,788.5347900390625
823,780.0732421875,785.7142944335938,794.5787353515625,788.937744140625
824,786.5201416015625,784.908447265625,794.1758422851562,799.010986328125
825,799.8168334960938,790.1465454101562,797.8021850585938,801.4285888671875
826,786.1171875,793.3699340820312,795.7875366210938,791.7582397460938
827,773.6264038085938,789.3406372070312,788.937744140625,784.1025390625
828,784.908447265625,791.7582397460938,788.1318969726562,790.5494384765625
829,793.3699340820312,792.5640869140625,793.3699340820312,789.7435913085938
830,785.3113403320312,792.967041015625,792.5640869140625,787.3259887695312
831,779.2673950195312,795.3846435546875,792.5640869140625,790.952392578125
832,794.981689453125,799.010986328125,800.2197875976562,792.5640869140625
833,807.87548828125,798.6080322265625,800.6226806640625,793.7728881835938
834,788.1318969726562,792.1611938476562,796.5933837890625,788.937744140625
835,776.4468994140625,790.5494384765625,793.3699340820312,788.937744140625
836,776.4468994140625,788.937744140625,790.952392578125,787.7289428710938
837,771.2088012695312,790.952392578125,788.937744140625,781.6849975585938
838,772.4176025390625,793.3699340820312,792.967041015625,783.6996459960938
839,775.2380981445312,791.3552856445312,796.1904907226562,786.923095703125
840,777.6557006835938,787.7289428710938,794.1758422851562,788.5347900390625
841,782.087890625,787.7289428710938,790.1465454101562,789.7435913085938
842,784.908447265625,791.3552856445312,784.908447265625,786.1171875
843,792.967041015625,790.952392578125,783.2966918945312,787.3259887695312
844,805.8607788085938,785.7142944335938,787.7289428710938,786.1171875
845,803.4432373046875,781.6849975585938,786.923095703125,784.908447265625
846,794.5787353515625,782.893798828125,784.908447265625,783.2966918945312
847,792.1611938476562,786.1171875,786.923095703125,780.879150390625
848,784.5054931640625,787.7289428710938,786.923095703125,779.6703491210938
849,786.1171875,788.1318969726562,788.937744140625,788.1318969726562
850,791.7582397460938,788.937744140625,791.7582397460938,803.4432373046875
851,794.1758422851562,787.7289428710938,793.3699340820312,792.1611938476562
852,804.6520385742188,788.5347900390625,796.5933837890625,783.2966918945312
853,794.5787353515625,790.1465454101562,798.6080322265625,789.7435913085938
854,779.6703491210938,790.1465454101562,799.010986328125,784.1025390625
855,790.1465454101562,788.5347900390625,797.8021850585938,786.923095703125
856,794.5787353515625,787.3259887695312,797.3992919921875,792.1611938476562
857,791.7582397460938,783.6996459960938,793.7728881835938,780.4761962890625
858,785.7142944335938,783.6996459960938,792.1611938476562,779.2673950195312
859,782.4908447265625,787.3259887695312,793.7728881835938,786.1171875
860,784.908447265625,785.3113403320312,789.7435913085938,784.1025390625
861,784.5054931640625,785.7142944335938,793.3699340820312,787.3259887695312
862,782.893798828125,789.7435913085938,798.2051391601562,792.1611938476562
863,777.6557006835938,788.1318969726562,800.2197875976562,789.3406372070312
864,782.4908447265625,783.6996459960938,797.8021850585938,788.937744140625
865,799.010986328125,786.5201416015625,794.981689453125,782.087890625
866,796.996337890625,786.1171875,791.7582397460938,776.8497924804688
867,787.3259887695312,788.5347900390625,795.3846435546875,787.3259887695312
868,792.1611938476562,789.3406372070312,798.6080322265625,792.967041015625
869,797.3992919921875,783.2966918945312,795.3846435546875,792.967041015625
870,792.5640869140625,781.2820434570312,794.1758422851562,794.1758422851562
871,795.3846435546875,788.5347900390625,793.3699340820312,797.8021850585938
872,803.4432373046875,797.3992919921875,790.952392578125,794.5787353515625
873,798.2051391601562,799.010986328125,791.7582397460938,790.952392578125
874,795.3846435546875,799.8168334960938,791.7582397460938,793.3699340820312
875,799.8168334960938,795.7875366210938,794.5787353515625,791.7582397460938
876,798.2051391601562,789.3406372070312,794.1758422851562,793.7728881835938
877,795.3846435546875,789.7435913085938,794.5787353515625,792.967041015625
878,795.3846435546875,791.7582397460938,796.1904907226562,791.3552856445312
879,794.981689453125,788.5347900390625,792.5640869140625,789.3406372070312
880,798.6080322265625,786.923095703125,788.1318969726562,786.5201416015625
881,807.87548828125,787.7289428710938,785.7142944335938,783.6996459960938
882,814.3223266601562,790.952392578125,786.5201416015625,785.3113403320312
883,794.981689453125,790.1465454101562,787.7289428710938,788.937744140625
884,778.8644409179688,782.4908447265625,787.7289428710938,783.6996459960938
885,780.879150390625,784.5054931640625,785.7142944335938,788.937744140625
886,777.6557006835938,787.7289428710938,788.937744140625,798.2051391601562
887,778.8644409179688,785.7142944335938,792.1611938476562,789.3406372070312
888,777.6557006835938,788.937744140625,792.5640869140625,780.4761962890625
889,785.3113403320312,793.3699340820312,796.1904907226562,786.1171875
890,796.5933837890625,796.5933837890625,797.8021850585938,787.3259887695312
891,797.8021850585938,794.981689453125,798.6080322265625,788.937744140625
892,799.010986328125,793.7728881835938,795.7875366210938,786.5201416015625
893,796.996337890625,794.5787353515625,794.981689453125,788.5347900390625
894,794.981689453125,795.3846435546875,796.5933837890625,796.1904907226562
895,797.3992919921875,794.981689453125,793.3699340820312,792.1611938476562
896,788.5347900390625,793.7728881835938,789.3406372070312,786.1171875
897,787.3259887695312,790.1465454101562,791.7582397460938,788.1318969726562
898,785.3113403320312,794.981689453125,793.7728881835938,780.4761962890625
899,776.4468994140625,795.3846435546875,792.967041015625,780.0732421875
900,784.1025390625,788.1318969726562,788.1318969726562,781.6849975585938
901,791.3552856445312,793.7728881835938,788.937744140625,780.4761962890625
902,801.8314819335938,794.5787353515625,791.7582397460938,786.923095703125
903,800.2197875976562,786.1171875,794.1758422851562,787.3259887695312
904,791.3552856445312,789.3406372070312,796.996337890625,787.7289428710938
905,787.3259887695312,796.5933837890625,792.5640869140625,783.2966918945312
906,778.05859375,794.5787353515625,788.5347900390625,772.8204956054688
907,778.05859375,795.7875366210938,787.7289428710938,773.2234497070312
908,785.7142944335938,794.1758422851562,794.1758422851562,780.879150390625
909,796.5933837890625,799.4139404296875,802.2344360351562,786.923095703125
910,797.8021850585938,806.2637329101562,801.4285888671875,790.1465454101562
911,805.4578857421875,802.6373901367188,799.010986328125,800.2197875976562
912,810.2930297851562,802.2344360351562,796.5933837890625,797.8021850585938
913,797.8021850585938,800.2197875976562,796.5933837890625,789.7435913085938
914,784.5054931640625,798.2051391601562,796.5933837890625,788.5347900390625
915,794.5787353515625,801.025634765625,797.3992919921875,791.7582397460938
916,797.3992919921875,803.040283203125,797.3992919921875,791.7582397460938
917,789.7435913085938,799.010986328125,794.1758422851562,791.3552856445312
918,790.952392578125,796.5933837890625,798.2051391601562,790.952392578125
919,795.7875366210938,799.010986328125,801.8314819335938,791.7582397460938
920,793.7728881835938,798.6080322265625,798.6080322265625,795.7875366210938
921,787.3259887695312,794.5787353515625,797.3992919921875,791.3552856445312
922,798.6080322265625,793.3699340820312,800.6226806640625,790.1465454101562
923,796.996337890625,794.981689453125,799.010986328125,791.3552856445312
924,788.5347900390625,792.1611938476562,798.6080322265625,791.7582397460938
925,790.5494384765625,797.3992919921875,799.4139404296875,785.3113403320312
926,797.8021850585938,799.8168334960938,795.7875366210938,783.2966918945312
927,806.6666870117188,792.1611938476562,796.5933837890625,789.3406372070312
928,796.5933837890625,793.3699340820312,796.996337890625,787.7289428710938
929,780.0732421875,796.1904907226562,797.8021850585938,788.1318969726562
930,790.1465454101562,795.3846435546875,797.8021850585938,792.5640869140625
931,791.7582397460938,796.1904907226562,797.3992919921875,791.3552856445312
932,784.5054931640625,796.1904907226562,796.1904907226562,788.937744140625
933,787.3259887695312,796.996337890625,794.5787353515625,787.7289428710938
934,787.3259887695312,790.5494384765625,798.2051391601562,790.952392578125
935,781.6849975585938,792.5640869140625,802.6373901367188,791.7582397460938
936,783.2966918945312,793.7728881835938,802.6373901367188,787.3259887695312
937,790.1465454101562,790.952392578125,802.6373901367188,786.923095703125
938,791.3552856445312,792.5640869140625,801.025634765625,788.1318969726562
939,791.3552856445312,789.7435913085938,797.8021850585938,792.1611938476562
940,792.1611938476562,789.3406372070312,794.981689453125,793.3699340820312
941,799.4139404296875,794.1758422851562,794.5787353515625,787.7289428710938
942,792.967041015625,794.1758422851562,791.3552856445312,788.5347900390625
943,786.5201416015625,793.7728881835938,788.5347900390625,791.7582397460938
944,785.3113403320312,793.7728881835938,795.3846435546875,780.879150390625
945,781.2820434570312,789.7435913085938,789.7435913085938,779.2673950195312
946,795.3846435546875,790.1465454101562,784.1025390625,794.5787353515625
947,800.6226806640625,790.952392578125,791.7582397460938,796.1904907226562
948,802.6373901367188,785.3113403320312,796.996337890625,792.967041015625
949,808.6813354492188,787.3259887695312,797.8021850585938,796.996337890625
950,806.2637329101562,794.5787353515625,793.3699340820312,790.5494384765625
951,806.6666870117188,795.7875366210938,790.5494384765625,785.3113403320312
952,801.025634765625,795.7875366210938,790.952392578125,790.952392578125
953,796.5933837890625,801.4285888671875,794.981689453125,799.8168334960938
954,796.1904907226562,800.6226806640625,797.8021850585938,796.996337890625
955,792.967041015625,790.952392578125,794.5787353515625,789.3406372070312
956,796.5933837890625,791.3552856445312,795.3846435546875,790.5494384765625
957,796.5933837890625,792.1611938476562,796.996337890625,786.5201416015625
958,801.025634765625,801.4285888671875,800.2197875976562,790.952392578125
959,801.025634765625,803.8461303710938,807.069580078125,790.952392578125
960,797.8021850585938,801.025634765625,802.2344360351562,784.908447265625
961,802.6373901367188,806.2637329101562,803.040283203125,784.5054931640625
962,794.981689453125,805.054931640625,805.054931640625,775.6410522460938
963,780.4761962890625,794.981689453125,794.981689453125,769.5970458984375
964,766.7765502929688,789.3406372070312,794.981689453125,769.5970458984375
965,762.3442993164062,798.2051391601562,797.8021850585938,765.970703125
966,763.5531005859375,799.8168334960938,803.040283203125,756.3003540039062
967,758.7179565429688,804.2490844726562,806.2637329101562,752.2710571289062
968,735.3479614257812,798.2051391601562,802.2344360351562,734.1392211914062
969,723.2600708007812,795.3846435546875,805.054931640625,731.7216186523438
970,722.4542236328125,803.4432373046875,813.91943359375,732.930419921875
971,711.5750732421875,804.6520385742188,822.3809814453125,713.99267578125
972,694.6520385742188,805.8607788085938,816.7399291992188,693.8461303710938
973,686.5933837890625,810.2930297851562,809.89013671875,684.5787353515625
974,663.6264038085938,814.3223266601562,816.7399291992188,668.4615478515625
975,655.5677490234375,812.3076782226562,818.3516235351562,651.5384521484375
976,674.908447265625,808.2783813476562,818.7545776367188,657.1795043945312
977,661.2088012695312,806.2637329101562,822.7838745117188,654.3589477539062
978,641.8681030273438,804.6520385742188,828.8278198242188,646.7033081054688
979,646.7033081054688,801.4285888671875,828.02197265625,653.5531005859375
980,658.7911987304688,803.040283203125,830.8424682617188,666.0439453125
981,657.5823974609375,804.2490844726562,834.06591796875,661.2088012695312
982,652.7472534179688,807.069580078125,830.8424682617188,669.2673950195312
983,660.4029541015625,808.6813354492188,829.2307739257812,673.2966918945312
984,665.6410522460938,804.2490844726562,831.2454223632812,667.6557006835938
985,668.4615478515625,803.040283203125,832.05126953125,678.937744140625
986,678.5347900390625,799.010986328125,831.6483764648438,697.4725341796875
987,695.054931640625,794.5787353515625,834.8717651367188,708.7545776367188
988,712.3809814453125,795.3846435546875,835.2747192382812,718.8278198242188
989,720.4395751953125,795.7875366210938,830.03662109375,741.3919677734375
990,728.4981689453125,801.025634765625,823.5897216796875,751.062255859375
991,738.1685180664062,801.8314819335938,819.5604248046875,747.032958984375
992,740.5860595703125,803.8461303710938,819.5604248046875,759.5238037109375
993,752.6740112304688,808.6813354492188,816.7399291992188,766.7765502929688
994,765.1648559570312,802.6373901367188,808.2783813476562,763.5531005859375
995,766.7765502929688,798.2051391601562,805.8607788085938,774.8351440429688
996,768.7911987304688,794.981689453125,806.2637329101562,785.7142944335938
997,787.7289428710938,794.1758422851562,803.4432373046875,803.4432373046875
998,801.8314819335938,793.3699340820312,807.069580078125,814.3223266601562
999,805.4578857421875,790.5494384765625,805.8607788085938,818.3516235351562
1000,806.2637329101562,786.1171875,796.996337890625,819.5604248046875
1001,806.2637329101562,785.3113403320312,787.7289428710938,811.5018310546875
1002,809.4871826171875,786.5201416015625,781.2820434570312,815.1282348632812
1003,823.99267578125,781.2820434570312,784.5054931640625,828.4249267578125
1004,834.8717651367188,779.6703491210938,783.6996459960938,830.03662109375
1005,829.6337280273438,783.2966918945312,779.2673950195312,823.1868286132812
1006,828.4249267578125,784.5054931640625,775.6410522460938,819.1575317382812
1007,827.2161254882812,782.4908447265625,773.2234497070312,821.1721801757812
1008,838.901123046875,784.5054931640625,776.0439453125,834.4688720703125
1009,853.003662109375,790.5494384765625,778.4615478515625,840.10986328125
1010,844.945068359375,792.5640869140625,778.05859375,838.4981689453125
1011,842.5274658203125,788.1318969726562,775.6410522460938,845.7509155273438
1012,844.945068359375,784.908447265625,773.2234497070312,841.3186645507812
1013,848.974365234375,789.7435913085938,774.8351440429688,843.3333129882812
1014,838.09521484375,788.5347900390625,776.8497924804688,846.1538696289062
1015,828.8278198242188,790.1465454101562,774.4322509765625,846.5567626953125
1016,831.6483764648438,794.1758422851562,775.2380981445312,852.1978149414062
1017,836.08056640625,792.967041015625,778.05859375,846.959716796875
1018,844.1392211914062,790.1465454101562,780.0732421875,846.5567626953125
1019,846.1538696289062,789.7435913085938,777.2527465820312,846.1538696289062
1020,842.5274658203125,790.952392578125,776.4468994140625,840.915771484375
1021,834.8717651367188,791.3552856445312,776.4468994140625,834.4688720703125
1022,830.4395751953125,788.1318969726562,773.2234497070312,826.8131713867188
1023,832.8571166992188,786.5201416015625,777.2527465820312,826.00732421875
1024,839.7069702148438,790.5494384765625,779.6703491210938,830.03662109375
1025,844.5421142578125,788.937744140625,780.879150390625,828.02197265625
1026,840.915771484375,787.7289428710938,784.908447265625,822.7838745117188
1027,834.4688720703125,792.967041015625,786.923095703125,828.02197265625
1028,832.4542236328125,796.996337890625,784.908447265625,833.6630249023438
1029,834.8717651367188,788.5347900390625,784.908447265625,821.97802734375
1030,835.6776733398438,785.3113403320312,782.4908447265625,813.113525390625
1031,832.8571166992188,792.967041015625,778.8644409179688,815.93408203125
1032,830.03662109375,793.3699340820312,779.6703491210938,819.1575317382812
1033,836.886474609375,788.5347900390625,778.05859375,814.3223266601562
1034,834.06591796875,785.7142944335938,779.2673950195312,812.3076782226562
1035,824.3956298828125,783.6996459960938,782.893798828125,814.3223266601562
1036,824.3956298828125,785.3113403320312,780.879150390625,813.113525390625
1037,820.3662719726562,787.3259887695312,778.4615478515625,811.90478515625
1038,819.5604248046875,783.6996459960938,776.4468994140625,813.113525390625
1039,819.1575317382812,778.05859375,773.6264038085938,813.113525390625
1040,818.3516235351562,781.2820434570312,780.0732421875,815.5311279296875
1041,817.5457763671875,786.5201416015625,784.1025390625,814.3223266601562
1042,816.7399291992188,785.7142944335938,780.0732421875,813.5164794921875
1043,815.5311279296875,787.3259887695312,782.893798828125,820.7692260742188
1044,808.6813354492188,788.937744140625,790.1465454101562,819.1575317382812
1045,809.4871826171875,782.087890625,787.3259887695312,809.89013671875
1046,803.8461303710938,775.6410522460938,784.1025390625,801.8314819335938
1047,796.1904907226562,776.4468994140625,783.6996459960938,800.6226806640625
1048,793.3699340820312,779.6703491210938,780.4761962890625,800.6226806640625
1049,799.010986328125,782.4908447265625,781.2820434570312,803.040283203125
1050,810.2930297851562,785.3113403320312,786.1171875,805.8607788085938
1051,803.4432373046875,785.7142944335938,788.1318969726562,805.4578857421875
1052,799.4139404296875,784.5054931640625,785.7142944335938,801.025634765625
1053,804.6520385742188,785.7142944335938,788.937744140625,797.3992919921875
1054,810.2930297851562,787.7289428710938,790.952392578125,806.2637329101562
1055,808.6813354492188,782.4908447265625,784.908447265625,805.8607788085938
1056,805.8607788085938,782.087890625,786.5201416015625,795.7875366210938
1057,803.4432373046875,784.908447265625,788.937744140625,793.7728881835938
1058,794.1758422851562,783.6996459960938,787.3259887695312,790.952392578125
1059,796.5933837890625,786.1171875,790.5494384765625,788.937744140625
1060,803.4432373046875,785.7142944335938,791.3552856445312,791.3552856445312
1061,806.6666870117188,788.1318969726562,788.5347900390625,796.996337890625
1062,807.069580078125,792.1611938476562,792.1611938476562,796.1904907226562
1063,805.8607788085938,788.5347900390625,790.5494384765625,789.7435913085938
1064,805.4578857421875,787.7289428710938,788.5347900390625,794.1758422851562
1065,807.87548828125,790.1465454101562,786.923095703125,800.6226806640625
1066,810.2930297851562,797.3992919921875,786.1171875,807.4725341796875
1067,803.040283203125,798.2051391601562,786.923095703125,805.4578857421875
1068,799.010986328125,794.1758422851562,786.1171875,801.025634765625
1069,799.010986328125,792.1611938476562,787.3259887695312,803.040283203125
1070,805.054931640625,788.1318969726562,787.7289428710938,801.4285888671875
1071,807.4725341796875,786.923095703125,786.923095703125,797.8021850585938
1072,803.8461303710938,790.5494384765625,786.5201416015625,796.5933837890625
1073,802.2344360351562,792.5640869140625,784.908447265625,792.1611938476562
1074,810.6959838867188,792.967041015625,787.7289428710938,800.2197875976562
1075,811.098876953125,793.3699340820312,791.3552856445312,804.6520385742188
1076,800.6226806640625,790.1465454101562,792.1611938476562,797.8021850585938
1077,798.6080322265625,786.5201416015625,792.1611938476562,804.2490844726562
1078,799.4139404296875,786.1171875,793.3699340820312,801.4285888671875
1079,805.4578857421875,791.7582397460938,796.5933837890625,800.2197875976562
1080,809.084228515625,792.1611938476562,796.1904907226562,803.8461303710938
1081,808.2783813476562,790.952392578125,792.1611938476562,795.7875366210938
1082,803.040283203125,787.7289428710938,793.3699340820312,803.040283203125
1083,801.8314819335938,787.3259887695312,796.5933837890625,804.6520385742188
1084,805.054931640625,789.7435913085938,794.1758422851562,791.3552856445312
1085,805.4578857421875,789.3406372070312,794.981689453125,791.3552856445312
1086,798.2051391601562,792.5640869140625,796.996337890625,792.1611938476562
1087,796.5933837890625,796.5933837890625,796.5933837890625,791.7582397460938
1088,799.010986328125,798.6080322265625,797.3992919921875,797.8021850585938
1089,794.1758422851562,796.5933837890625,797.3992919921875,799.010986328125
1090,792.1611938476562,795.7875366210938,796.5933837890625,799.8168334960938
1091,804.6520385742188,796.996337890625,796.1904907226562,805.054931640625
1092,808.6813354492188,796.1904907226562,799.4139404296875,801.4285888671875
1093,794.1758422851562,798.2051391601562,802.6373901367188,795.3846435546875
1094,785.7142944335938,797.8021850585938,797.3992919921875,785.7142944335938
1095,790.1465454101562,794.1758422851562,796.1904907226562,781.2820434570312
1096,790.952392578125,794.981689453125,801.4285888671875,782.4908447265625
1097,788.937744140625,794.1758422851562,799.8168334960938,780.4761962890625
1098,788.1318969726562,791.3552856445312,796.1904907226562,782.4908447265625
1099,784.908447265625,793.3699340820312,798.6080322265625,784.1025390625
1100,784.1025390625,794.1758422851562,800.2197875976562,796.5933837890625
1101,777.6557006835938,790.1465454101562,800.2197875976562,798.6080322265625
1102,780.0732421875,788.937744140625,796.1904907226562,784.908447265625
1103,784.5054931640625,790.5494384765625,794.1758422851562,790.1465454101562
1104,782.4908447265625,787.7289428710938,796.996337890625,791.7582397460938
1105,784.5054931640625,787.3259887695312,795.7875366210938,793.7728881835938
1106,797.3992919921875,796.5933837890625,801.025634765625,800.2197875976562
1107,796.996337890625,795.7875366210938,803.8461303710938,803.040283203125
1108,788.5347900390625,788.1318969726562,798.2051391601562,799.010986328125
1109,791.3552856445312,788.937744140625,794.1758422851562,790.5494384765625
1110,791.7582397460938,786.923095703125,792.967041015625,790.1465454101562
1111,795.3846435546875,790.5494384765625,795.3846435546875,794.1758422851562
1112,790.1465454101562,792.5640869140625,794.981689453125,797.3992919921875
1113,783.6996459960938,788.1318969726562,792.5640869140625,790.952392578125
1114,786.1171875,789.3406372070312,790.1465454101562,790.952392578125
1115,783.6996459960938,788.937744140625,791.3552856445312,799.4139404296875
1116,791.7582397460938,785.3113403320312,793.7728881835938,797.3992919921875
1117,801.025634765625,789.7435913085938,794.981689453125,790.952392578125
1118,798.2051391601562,792.967041015625,799.8168334960938,793.3699340820312
1119,800.6226806640625,798.2051391601562,799.010986328125,793.3699340820312
1120,808.2783813476562,802.6373901367188,796.996337890625,794.1758422851562
1121,809.4871826171875,798.6080322265625,796.5933837890625,800.6226806640625
1122,805.8607788085938,794.1758422851562,795.3846435546875,796.996337890625
1123,801.025634765625,791.3552856445312,795.3846435546875,800.6226806640625
1124,799.8168334960938,790.1465454101562,791.3552856445312,802.2344360351562
1125,802.6373901367188,786.5201416015625,790.1465454101562,796.996337890625
1126,802.6373901367188,790.1465454101562,793.7728881835938,797.3992919921875
1127,804.2490844726562,795.3846435546875,794.1758422851562,796.1904907226562
1128,792.5640869140625,791.7582397460938,792.1611938476562,795.7875366210938
1129,789.7435913085938,791.7582397460938,790.952392578125,802.6373901367188
1130,790.952392578125,791.3552856445312,790.5494384765625,800.6226806640625
1131,788.5347900390625,784.1025390625,788.937744140625,788.937744140625
1132,784.1025390625,780.879150390625,784.1025390625,781.2820434570312
1133,778.05859375,783.6996459960938,782.087890625,780.0732421875
1134,782.893798828125,785.3113403320312,784.5054931640625,786.923095703125
1135,782.893798828125,790.1465454101562,783.2966918945312,788.1318969726562
1136,782.087890625,790.1465454101562,781.2820434570312,783.2966918945312
1137,787.3259887695312,790.5494384765625,785.7142944335938,796.1904907226562
1138,784.908447265625,790.1465454101562,788.1318969726562,795.3846435546875
1139,782.893798828125,790.952392578125,791.3552856445312,786.923095703125
1140,784.5054931640625,793.3699340820312,796.5933837890625,788.1318969726562
1141,790.1465454101562,790.5494384765625,799.4139404296875,786.1171875
1142,796.1904907226562,792.967041015625,795.7875366210938,790.952392578125
1143,792.5640869140625,794.1758422851562,793.3699340820312,784.1025390625
1144,789.3406372070312,792.5640869140625,790.952392578125,772.4176025390625
1145,790.5494384765625,792.1611938476562,789.3406372070312,779.2673950195312
1146,791.3552856445312,790.952392578125,789.7435913085938,778.4615478515625
1147,798.2051391601562,792.5640869140625,792.967041015625,778.05859375
1148,797.3992919921875,793.3699340820312,797.3992919921875,782.4908447265625
1149,794.1758422851562,790.952392578125,796.996337890625,782.893798828125
1150,795.7875366210938,791.7582397460938,797.3992919921875,783.2966918945312
1151,793.3699340820312,793.7728881835938,796.1904907226562,782.893798828125
1152,800.2197875976562,792.5640869140625,795.7875366210938,787.7289428710938
1153,794.981689453125,796.5933837890625,796.996337890625,791.7582397460938
1154,788.5347900390625,794.1758422851562,794.981689453125,787.3259887695312
1155,794.5787353515625,787.7289428710938,790.1465454101562,781.2820434570312
1156,784.1025390625,789.7435913085938,791.3552856445312,778.05859375
1157,778.4615478515625,790.952392578125,788.937744140625,784.1025390625
1158,784.5054931640625,787.3259887695312,788.937744140625,793.7728881835938
1159,786.923095703125,786.923095703125,790.952392578125,791.7582397460938
1160,786.5201416015625,792.967041015625,790.1465454101562,789.3406372070312
1161,788.5347900390625,792.1611938476562,791.3552856445312,790.1465454101562
1162,786.923095703125,787.3259887695312,789.7435913085938,787.3259887695312
1163,791.7582397460938,793.7728881835938,798.6080322265625,788.937744140625
1164,801.8314819335938,799.010986328125,800.6226806640625,790.1465454101562
1165,806.6666870117188,797.8021850585938,795.3846435546875,785.7142944335938
1166,799.010986328125,795.3846435546875,792.1611938476562,780.879150390625
1167,794.5787353515625,794.981689453125,790.5494384765625,776.4468994140625
1168,799.010986328125,794.981689453125,794.5787353515625,777.6557006835938
1169,793.7728881835938,792.5640869140625,793.7728881835938,782.087890625
1170,785.7142944335938,792.5640869140625,791.7582397460938,784.908447265625
1171,783.2966918945312,791.7582397460938,794.5787353515625,794.1758422851562
1172,790.952392578125,786.923095703125,799.4139404296875,797.3992919921875
1173,798.6080322265625,785.7142944335938,800.2197875976562,789.3406372070312
1174,796.996337890625,791.7582397460938,796.996337890625,782.087890625
1175,798.2051391601562,793.7728881835938,798.6080322265625,785.7142944335938
1176,802.2344360351562,787.3259887695312,801.4285888671875,783.2966918945312
1177,803.8461303710938,789.3406372070312,801.025634765625,783.2966918945312
1178,802.6373901367188,791.7582397460938,797.8021850585938,786.923095703125
1179,800.6226806640625,788.5347900390625,794.1758422851562,778.4615478515625
1180,799.8168334960938,786.5201416015625,796.996337890625,782.893798828125
1181,794.981689453125,786.5201416015625,795.3846435546875,789.3406372070312
1182,790.1465454101562,784.5054931640625,786.923095703125,784.5054931640625
1183,792.5640869140625,784.908447265625,785.3113403320312,788.937744140625
1184,799.4139404296875,786.923095703125,787.7289428710938,792.967041015625
1185,802.6373901367188,786.5201416015625,790.1465454101562,796.1904907226562
1186,801.4285888671875,787.7289428710938,791.3552856445312,798.2051391601562
1187,800.6226806640625,789.3406372070312,791.7582397460938,790.952392578125
1188,803.040283203125,789.3406372070312,792.5640869140625,791.3552856445312
1189,802.6373901367188,790.1465454101562,792.967041015625,799.4139404296875
1190,795.3846435546875,789.7435913085938,795.3846435546875,794.981689453125
1191,792.967041015625,790.1465454101562,799.8168334960938,790.5494384765625
1192,792.967041015625,790.5494384765625,796.5933837890625,796.1904907226562
1193,787.3259887695312,792.967041015625,788.1318969726562,805.054931640625
1194,792.5640869140625,796.1904907226562,790.952392578125,801.025634765625
1195,796.996337890625,790.1465454101562,792.5640869140625,785.7142944335938
1196,788.5347900390625,788.1318969726562,789.7435913085938,786.5201416015625
1197,785.3113403320312,788.1318969726562,790.1465454101562,790.1465454101562
1198,786.923095703125,784.1025390625,787.7289428710938,784.5054931640625
1199,785.3113403320312,785.7142944335938,789.3406372070312,779.6703491210938
1200,784.908447265625,790.1465454101562,794.5787353515625,782.087890625
1201,782.4908447265625,787.7289428710938,793.3699340820312,780.4761962890625
1202,780.0732421875,782.4908447265625,790.5494384765625,773.2234497070312
1203,781.6849975585938,783.6996459960938,786.5201416015625,774.029296875
1204,780.879150390625,785.3113403320312,788.1318969726562,772.8204956054688
1205,778.05859375,785.3113403320312,790.952392578125,776.4468994140625
1206,783.2966918945312,784.1025390625,786.5201416015625,788.1318969726562
1207,788.1318969726562,786.1171875,790.5494384765625,793.7728881835938
1208,789.3406372070312,790.1465454101562,793.7728881835938,792.1611938476562
1209,786.923095703125,788.5347900390625,787.3259887695312,789.7435913085938
1210,783.2966918945312,788.1318969726562,793.7728881835938,784.908447265625
1211,782.4908447265625,788.1318969726562,793.7728881835938,775.6410522460938
1212,781.2820434570312,783.2966918945312,791.3552856445312,780.879150390625
1213,786.5201416015625,785.3113403320312,796.5933837890625,786.5201416015625
1214,787.3259887695312,792.1611938476562,790.952392578125,783.6996459960938
1215,782.893798828125,790.5494384765625,787.7289428710938,781.2820434570312
1216,782.4908447265625,789.3406372070312,791.7582397460938,779.6703491210938
1217,784.1025390625,786.923095703125,793.3699340820312,781.2820434570312
1218,785.3113403320312,783.2966918945312,792.5640869140625,786.923095703125
1219,790.952392578125,788.937744140625,795.3846435546875,789.3406372070312
1220,792.1611938476562,786.923095703125,791.3552856445312,782.893798828125
1221,789.7435913085938,786.923095703125,790.1465454101562,786.1171875
1222,785.3113403320312,789.3406372070312,796.1904907226562,796.1904907226562
1223,790.5494384765625,789.3406372070312,794.981689453125,799.4139404296875
1224,805.4578857421875,790.1465454101562,794.1758422851562,801.025634765625
1225,803.8461303710938,786.1171875,793.3699340820312,800.2197875976562
1226,796.5933837890625,784.1025390625,792.967041015625,798.6080322265625
1227,798.6080322265625,785.7142944335938,793.3699340820312,799.8168334960938
1228,800.2197875976562,790.5494384765625,794.981689453125,801.8314819335938
1229,808.2783813476562,794.981689453125,800.2197875976562,800.2197875976562
1230,811.5018310546875,792.967041015625,800.2197875976562,803.4432373046875
1231,802.6373901367188,792.5640869140625,795.3846435546875,803.040283203125
1232,796.1904907226562,795.3846435546875,794.5787353515625,804.2490844726562
1233,788.937744140625,794.981689453125,796.5933837890625,801.8314819335938
1234,793.3699340820312,796.5933837890625,799.010986328125,799.8168334960938
1235,794.981689453125,794.981689453125,798.6080322265625,800.6226806640625
1236,784.1025390625,793.7728881835938,798.2051391601562,793.3699340820312
1237,786.5201416015625,792.967041015625,798.6080322265625,796.1904907226562
1238,791.7582397460938,788.937744140625,799.010986328125,794.981689453125
1239,791.7582397460938,789.7435913085938,796.996337890625,794.5787353515625
1240,788.1318969726562,790.1465454101562,797.8021850585938,792.5640869140625
1241,782.4908447265625,786.1171875,801.025634765625,783.6996459960938
1242,777.6557006835938,786.923095703125,796.996337890625,784.5054931640625
1243,773.6264038085938,790.5494384765625,798.2051391601562,789.7435913085938
1244,779.6703491210938,788.937744140625,798.6080322265625,784.5054931640625
1245,787.7289428710938,784.5054931640625,796.996337890625,779.2673950195312
1246,786.5201416015625,786.923095703125,796.5933837890625,793.7728881835938
1247,785.3113403320312,790.1465454101562,797.3992919921875,789.7435913085938
1248,787.7289428710938,790.5494384765625,796.996337890625,781.6849975585938
1249,792.967041015625,795.3846435546875,793.7728881835938,788.937744140625
1250,799.010986328125,795.7875366210938,791.7582397460938,790.5494384765625
1251,796.5933837890625,794.1758422851562,794.1758422851562,786.5201416015625
1252,794.5787353515625,794.5787353515625,797.3992919921875,787.3259887695312
1253,802.2344360351562,798.2051391601562,798.6080322265625,803.4432373046875
1254,809.4871826171875,801.8314819335938,800.6226806640625,799.8168334960938
1255,808.2783813476562,803.4432373046875,800.2197875976562,789.3406372070312
1256,810.2930297851562,801.4285888671875,797.8021850585938,794.1758422851562
1257,804.2490844726562,796.996337890625,798.6080322265625,801.025634765625
1258,790.5494384765625,792.1611938476562,794.981689453125,801.025634765625
1259,796.1904907226562,791.7582397460938,790.1465454101562,797.8021850585938
1260,799.010986328125,793.3699340820312,793.3699340820312,799.8168334960938
1261,795.7875366210938,791.7582397460938,796.5933837890625,791.3552856445312
1262,794.981689453125,793.7728881835938,801.025634765625,792.967041015625
1263,787.3259887695312,794.1758422851562,796.996337890625,795.7875366210938
1264,796.1904907226562,793.3699340820312,792.5640869140625,792.5640869140625
1265,801.8314819335938,794.5787353515625,795.7875366210938,790.1465454101562
1266,788.937744140625,794.1758422851562,795.3846435546875,788.937744140625
1267,788.937744140625,795.7875366210938,794.981689453125,790.952392578125
1268,801.8314819335938,799.8168334960938,798.6080322265625,790.952392578125
1269,806.2637329101562,794.981689453125,796.1904907226562,791.7582397460938
1270,799.4139404296875,792.5640869140625,791.7582397460938,794.5787353515625
1271,803.040283203125,799.4139404296875,792.5640869140625,790.952392578125
1272,801.4285888671875,798.2051391601562,797.8021850585938,787.7289428710938
1273,795.3846435546875,795.3846435546875,794.5787353515625,784.5054931640625
1274,797.8021850585938,794.5787353515625,791.7582397460938,782.4908447265625
1275,801.025634765625,790.5494384765625,794.1758422851562,784.5054931640625
1276,799.4139404296875,790.5494384765625,794.1758422851562,784.5054931640625
1277,792.967041015625,790.952392578125,790.1465454101562,787.3259887695312
1278,786.5201416015625,790.5494384765625,788.5347900390625,789.3406372070312
1279,786.923095703125,792.5640869140625,790.5494384765625,786.5201416015625
1280,794.1758422851562,792.967041015625,793.7728881835938,789.7435913085938
1281,796.996337890625,790.1465454101562,798.6080322265625,796.996337890625
1282,788.1318969726562,790.5494384765625,797.3992919921875,788.1318969726562
1283,786.923095703125,794.5787353515625,799.010986328125,788.1318969726562
1284,797.8021850585938,793.3699340820312,796.1904907226562,795.7875366210938
1285,800.6226806640625,788.1318969726562,794.981689453125,798.2051391601562
1286,797.8021850585938,789.7435913085938,799.8168334960938,801.025634765625
1287,790.5494384765625,788.1318969726562,800.2197875976562,801.8314819335938
1288,788.1318969726562,786.1171875,794.981689453125,802.6373901367188
1289,797.8021850585938,785.7142944335938,795.7875366210938,800.2197875976562
1290,794.5787353515625,782.087890625,793.3699340820312,799.010986328125
1291,792.967041015625,782.087890625,790.952392578125,792.967041015625
1292,791.7582397460938,784.1025390625,791.7582397460938,790.1465454101562
1293,788.5347900390625,786.1171875,791.3552856445312,787.7289428710938
1294,792.1611938476562,786.5201416015625,791.3552856445312,784.1025390625
1295,793.7728881835938,788.1318969726562,792.5640869140625,786.1171875
1296,799.4139404296875,785.3113403320312,794.5787353515625,787.7289428710938
1297,794.981689453125,783.2966918945312,790.952392578125,786.5201416015625
1298,790.1465454101562,791.3552856445312,791.3552856445312,791.7582397460938
1299,792.1611938476562,790.5494384765625,794.5787353515625,796.996337890625
1300,792.1611938476562,784.1025390625,790.952392578125,799.4139404296875
1301,794.1758422851562,784.908447265625,792.1611938476562,801.4285888671875
1302,792.1611938476562,787.7289428710938,790.1465454101562,794.981689453125
1303,780.879150390625,781.6849975585938,784.1025390625,788.5347900390625
1304,771.6116943359375,780.0732421875,788.937744140625,788.1318969726562
1305,768.3883056640625,784.908447265625,789.3406372070312,785.7142944335938
1306,776.4468994140625,788.937744140625,787.3259887695312,782.893798828125
1307,780.879150390625,786.923095703125,790.952392578125,781.2820434570312
1308,783.2966918945312,785.7142944335938,793.3699340820312,779.2673950195312
1309,788.937744140625,788.5347900390625,795.3846435546875,777.2527465820312
1310,787.3259887695312,788.937744140625,797.3992919921875,785.3113403320312
1311,788.937744140625,787.3259887695312,801.8314819335938,790.5494384765625
1312,790.1465454101562,786.1171875,804.6520385742188,786.5201416015625
1313,785.3113403320312,788.937744140625,803.4432373046875,786.5201416015625
1314,781.6849975585938,788.5347900390625,794.5787353515625,785.7142944335938
1315,784.5054931640625,789.7435913085938,790.1465454101562,783.2966918945312
1316,793.3699340820312,790.1465454101562,790.952392578125,779.6703491210938
1317,791.3552856445312,785.3113403320312,793.7728881835938,776.8497924804688
1318,782.4908447265625,784.1025390625,797.8021850585938,772.8204956054688
1319,784.5054931640625,784.908447265625,801.025634765625,779.2673950195312
1320,786.1171875,786.1171875,803.8461303710938,779.6703491210938
1321,788.5347900390625,788.1318969726562,800.6226806640625,774.4322509765625
1322,794.5787353515625,792.967041015625,799.010986328125,782.4908447265625
1323,788.5347900390625,790.952392578125,802.2344360351562,792.967041015625
1324,784.908447265625,784.5054931640625,805.054931640625,795.7875366210938
1325,779.2673950195312,784.1025390625,799.8168334960938,782.4908447265625
1326,779.6703491210938,785.3113403320312,792.1611938476562,776.8497924804688
1327,784.5054931640625,779.6703491210938,789.3406372070312,784.1025390625
1328,779.6703491210938,774.8351440429688,792.1611938476562,785.7142944335938
1329,786.5201416015625,778.8644409179688,797.8021850585938,788.937744140625
1330,794.1758422851562,781.2820434570312,803.4432373046875,792.967041015625
1331,790.952392578125,785.3113403320312,802.2344360351562,790.5494384765625
1332,796.1904907226562,791.3552856445312,800.2197875976562,790.5494384765625
1333,791.3552856445312,786.923095703125,804.2490844726562,793.3699340820312
1334,784.1025390625,788.1318969726562,804.2490844726562,796.1904907226562
1335,786.923095703125,794.1758422851562,803.040283203125,801.025634765625
1336,788.5347900390625,791.3552856445312,809.084228515625,807.87548828125
1337,794.981689453125,785.3113403320312,809.89013671875,816.3369750976562
1338,794.1758422851562,784.5054931640625,802.2344360351562,811.5018310546875
1339,785.3113403320312,786.923095703125,800.6226806640625,796.5933837890625
1340,788.1318969726562,788.937744140625,802.2344360351562,792.5640869140625
1341,798.6080322265625,790.952392578125,799.8168334960938,796.996337890625
1342,797.8021850585938,789.7435913085938,798.6080322265625,805.054931640625
1343,800.6226806640625,795.3846435546875,793.7728881835938,802.6373901367188
1344,801.8314819335938,795.7875366210938,790.952392578125,792.5640869140625
1345,796.1904907226562,793.7728881835938,792.967041015625,789.7435913085938
1346,795.3846435546875,797.3992919921875,795.3846435546875,789.3406372070312
1347,794.981689453125,799.8168334960938,801.025634765625,791.7582397460938
1348,798.2051391601562,799.4139404296875,799.010986328125,795.3846435546875
1349,798.6080322265625,794.1758422851562,794.981689453125,794.1758422851562
1350,787.3259887695312,789.3406372070312,793.7728881835938,786.1171875
1351,781.6849975585938,787.3259887695312,792.967041015625,779.6703491210938
1352,780.4761962890625,788.5347900390625,791.7582397460938,778.8644409179688
1353,774.8351440429688,789.7435913085938,793.7728881835938,776.0439453125
1354,768.3883056640625,791.7582397460938,796.996337890625,772.0146484375
1355,768.3883056640625,791.3552856445312,796.1904907226562,778.4615478515625
1356,772.8204956054688,788.1318969726562,793.7728881835938,781.6849975585938
1357,770.8058471679688,782.893798828125,794.1758422851562,780.0732421875
1358,768.7911987304688,780.4761962890625,795.3846435546875,789.7435913085938
1359,772.8204956054688,781.2820434570312,797.3992919921875,788.937744140625
1360,774.8351440429688,783.6996459960938,799.4139404296875,788.5347900390625
1361,781.2820434570312,786.1171875,796.996337890625,799.4139404296875
1362,791.7582397460938,791.7582397460938,794.5787353515625,802.6373901367188
1363,789.7435913085938,798.6080322265625,793.3699340820312,790.952392578125
1364,786.5201416015625,799.010986328125,795.3846435546875,783.2966918945312
1365,791.7582397460938,798.2051391601562,796.996337890625,781.2820434570312
1366,799.8168334960938,799.010986328125,797.3992919921875,786.1171875
1367,801.8314819335938,799.4139404296875,798.2051391601562,791.7582397460938
1368,795.3846435546875,797.3992919921875,795.7875366210938,791.3552856445312
1369,795.7875366210938,799.4139404296875,796.1904907226562,788.5347900390625
1370,802.2344360351562,801.025634765625,796.1904907226562,788.1318969726562
1371,796.1904907226562,797.3992919921875,794.5787353515625,794.5787353515625
1372,790.952392578125,796.1904907226562,793.7728881835938,796.1904907226562
1373,796.996337890625,794.5787353515625,792.5640869140625,791.7582397460938
1374,792.1611938476562,790.1465454101562,796.1904907226562,783.6996459960938
1375,784.908447265625,798.2051391601562,798.6080322265625,779.2673950195312
1376,784.1025390625,801.4285888671875,798.2051391601562,784.1025390625
1377,785.3113403320312,799.4139404296875,794.981689453125,791.3552856445312
1378,784.5054931640625,795.3846435546875,791.3552856445312,788.1318969726562
1379,778.05859375,791.7582397460938,792.5640869140625,786.1171875
1380,776.4468994140625,792.5640869140625,799.8168334960938,788.937744140625
1381,784.1025390625,793.3699340820312,801.4285888671875,794.981689453125
1382,778.8644409179688,789.7435913085938,795.7875366210938,788.1318969726562
1383,776.0439453125,789.7435913085938,794.5787353515625,783.6996459960938
1384,784.5054931640625,795.3846435546875,796.5933837890625,788.1318969726562
1385,779.6703491210938,790.5494384765625,795.7875366210938,788.5347900390625
1386,777.2527465820312,783.6996459960938,794.1758422851562,785.7142944335938
1387,786.923095703125,790.1465454101562,797.8021850585938,789.7435913085938
1388,794.1758422851562,799.4139404296875,799.8168334960938,807.069580078125
1389,790.1465454101562,797.8021850585938,800.6226806640625,800.6226806640625
1390,786.923095703125,796.1904907226562,803.040283203125,788.1318969726562
1391,788.5347900390625,798.6080322265625,802.2344360351562,793.3699340820312
1392,789.7435913085938,799.4139404296875,799.4139404296875,792.5640869140625
1393,792.1611938476562,796.1904907226562,795.3846435546875,787.3259887695312
1394,798.6080322265625,789.7435913085938,794.1758422851562,785.3113403320312
1395,798.6080322265625,792.5640869140625,796.1904907226562,789.7435913085938
1396,790.5494384765625,795.3846435546875,792.967041015625,784.5054931640625
1397,786.923095703125,791.7582397460938,789.3406372070312,773.6264038085938
1398,791.3552856445312,791.3552856445312,788.937744140625,778.8644409179688
1399,796.1904907226562,790.5494384765625,790.1465454101562,786.5201416015625
1400,794.1758422851562,789.7435913085938,792.5640869140625,792.1611938476562
1401,790.1465454101562,788.1318969726562,792.5640869140625,792.1611938476562
1402,794.981689453125,788.937744140625,790.952392578125,785.7142944335938
1403,805.8607788085938,792.1611938476562,790.1465454101562,787.3259887695312
1404,801.8314819335938,789.3406372070312,791.3552856445312,788.5347900390625
1405,787.3259887695312,788.5347900390625,792.967041015625,782.4908447265625
1406,785.7142944335938,789.7435913085938,792.967041015625,783.6996459960938
1407,793.7728881835938,791.3552856445312,795.7875366210938,787.7289428710938
1408,796.1904907226562,789.7435913085938,796.996337890625,787.7289428710938
1409,794.981689453125,787.3259887695312,794.1758422851562,789.3406372070312
1410,806.6666870117188,790.952392578125,796.1904907226562,794.5787353515625
1411,803.4432373046875,791.3552856445312,796.996337890625,799.8168334960938
1412,795.7875366210938,788.1318969726562,792.5640869140625,798.2051391601562
1413,801.025634765625,788.937744140625,791.3552856445312,796.996337890625
1414,801.4285888671875,790.5494384765625,791.3552856445312,795.3846435546875
1415,803.040283203125,794.981689453125,788.937744140625,792.967041015625
1416,801.025634765625,794.981689453125,788.1318969726562,790.1465454101562
1417,793.7728881835938,792.967041015625,790.952392578125,786.923095703125
1418,793.7728881835938,791.3552856445312,791.3552856445312,786.1171875
1419,796.5933837890625,788.5347900390625,792.1611938476562,784.1025390625
1420,799.8168334960938,792.1611938476562,794.981689453125,786.5201416015625
1421,801.025634765625,794.1758422851562,797.8021850585938,789.3406372070312
1422,796.1904907226562,790.1465454101562,799.8168334960938,791.7582397460938
1423,796.1904907226562,792.1611938476562,799.4139404296875,790.952392578125
1424,800.6226806640625,795.3846435546875,798.2051391601562,788.937744140625
1425,799.8168334960938,793.7728881835938,795.7875366210938,787.3259887695312
1426,800.2197875976562,788.1318969726562,798.2051391601562,790.952392578125
1427,800.2197875976562,790.952392578125,800.6226806640625,799.8168334960938
1428,789.3406372070312,794.5787353515625,795.7875366210938,790.5494384765625
1429,787.3259887695312,792.967041015625,792.5640869140625,776.8497924804688
1430,793.7728881835938,792.967041015625,794.1758422851562,786.5201416015625
1431,792.1611938476562,792.1611938476562,794.1758422851562,789.7435913085938
1432,788.937744140625,789.7435913085938,789.7435913085938,777.2527465820312
1433,790.1465454101562,792.967041015625,790.5494384765625,780.879150390625
1434,794.981689453125,794.981689453125,788.5347900390625,781.2820434570312
1435,792.967041015625,793.3699340820312,787.3259887695312,777.6557006835938
1436,798.2051391601562,792.967041015625,792.967041015625,784.908447265625
1437,797.3992919921875,793.3699340820312,794.981689453125,785.3113403320312
1438,788.5347900390625,795.7875366210938,792.967041015625,786.923095703125
1439,788.937744140625,796.5933837890625,791.7582397460938,793.3699340820312
1440,796.996337890625,794.981689453125,793.7728881835938,795.7875366210938
1441,796.996337890625,791.3552856445312,792.5640869140625,792.5640869140625
1442,792.967041015625,789.3406372070312,787.7289428710938,786.1171875
1443,795.7875366210938,784.908447265625,786.923095703125,788.5347900390625
1444,796.5933837890625,782.4908447265625,787.7289428710938,790.1465454101562
1445,794.981689453125,782.087890625,788.1318969726562,790.1465454101562
1446,793.3699340820312,784.908447265625,788.937744140625,786.923095703125
1447,794.1758422851562,789.7435913085938,791.3552856445312,786.1171875
1448,796.996337890625,789.7435913085938,790.5494384765625,787.3259887695312
1449,796.1904907226562,786.5201416015625,789.3406372070312,791.7582397460938
1450,794.1758422851562,787.3259887695312,792.1611938476562,790.5494384765625
1451,791.7582397460938,790.952392578125,793.3699340820312,787.3259887695312
1452,788.1318969726562,793.3699340820312,789.3406372070312,789.3406372070312
1453,787.3259887695312,789.7435913085938,783.2966918945312,791.7582397460938
1454,792.967041015625,791.3552856445312,780.879150390625,795.7875366210938
1455,795.7875366210938,792.967041015625,780.0732421875,795.3846435546875
1456,792.967041015625,790.952392578125,783.2966918945312,789.7435913085938
1457,787.3259887695312,785.7142944335938,784.5054931640625,781.2820434570312
1458,784.1025390625,784.1025390625,784.5054931640625,784.5054931640625
1459,787.7289428710938,788.937744140625,788.5347900390625,789.3406372070312
1460,790.952392578125,790.5494384765625,794.1758422851562,790.1465454101562
1461,788.5347900390625,787.7289428710938,794.1758422851562,791.7582397460938
1462,782.087890625,786.5201416015625,788.937744140625,779.2673950195312
1463,780.0732421875,786.5201416015625,788.5347900390625,772.4176025390625
1464,789.3406372070312,781.6849975585938,790.5494384765625,779.6703491210938
1465,790.952392578125,782.893798828125,788.937744140625,780.0732421875
1466,781.6849975585938,783.6996459960938,790.952392578125,778.4615478515625
1467,777.6557006835938,782.087890625,792.5640869140625,778.4615478515625
1468,778.05859375,786.1171875,790.1465454101562,781.2820434570312
1469,776.0439453125,786.923095703125,790.1465454101562,791.3552856445312
1470,784.5054931640625,787.7289428710938,791.7582397460938,792.1611938476562
1471,794.981689453125,790.1465454101562,792.967041015625,792.967041015625
1472,789.7435913085938,786.923095703125,792.967041015625,796.1904907226562
1473,789.3406372070312,787.7289428710938,792.967041015625,790.1465454101562
1474,786.1171875,791.3552856445312,793.3699340820312,780.4761962890625
1475,786.923095703125,790.952392578125,792.5640869140625,778.4615478515625
1476,792.967041015625,790.1465454101562,794.981689453125,785.7142944335938
1477,794.1758422851562,790.5494384765625,800.6226806640625,785.3113403320312
1478,796.5933837890625,794.1758422851562,800.6226806640625,779.2673950195312
1479,800.6226806640625,790.1465454101562,796.996337890625,781.6849975585938
1480,798.2051391601562,790.1465454101562,797.8021850585938,787.3259887695312
1481,795.7875366210938,792.5640869140625,796.996337890625,788.5347900390625
1482,790.952392578125,787.3259887695312,795.3846435546875,782.893798828125
1483,780.4761962890625,787.7289428710938,796.996337890625,780.879150390625
1484,784.1025390625,792.5640869140625,793.3699340820312,790.952392578125
1485,787.7289428710938,795.3846435546875,790.952392578125,796.996337890625
1486,790.952392578125,794.981689453125,792.1611938476562,792.1611938476562
1487,785.3113403320312,790.1465454101562,793.3699340820312,787.7289428710938
1488,782.087890625,787.3259887695312,791.3552856445312,788.1318969726562
1489,787.7289428710938,787.7289428710938,792.967041015625,787.7289428710938
1490,785.3113403320312,785.3113403320312,798.2051391601562,787.7289428710938
1491,787.3259887695312,781.6849975585938,799.4139404296875,788.937744140625
1492,788.1318969726562,783.2966918945312,799.010986328125,790.952392578125
1493,784.1025390625,783.6996459960938,791.3552856445312,788.1318969726562
1494,781.2820434570312,784.908447265625,787.7289428710938,780.879150390625
1495,784.908447265625,787.7289428710938,791.3552856445312,786.923095703125
1496,794.5787353515625,786.5201416015625,794.5787353515625,804.2490844726562
1497,795.3846435546875,785.7142944335938,796.5933837890625,794.981689453125
1498,792.1611938476562,786.1171875,794.1758422851562,777.6557006835938
1499,792.1611938476562,784.908447265625,792.967041015625,782.087890625
1500,795.3846435546875,785.3113403320312,793.3699340820312,782.893798828125
1501,796.5933837890625,787.3259887695312,791.7582397460938,782.4908447265625
1502,788.1318969726562,786.5201416015625,785.7142944335938,781.2820434570312
1503,783.6996459960938,784.1025390625,785.3113403320312,776.8497924804688
1504,789.7435913085938,786.1171875,788.1318969726562,783.2966918945312
1505,789.7435913085938,788.1318969726562,788.937744140625,787.7289428710938
1506,788.1318969726562,786.1171875,793.3699340820312,780.879150390625
1507,788.937744140625,791.3552856445312,795.3846435546875,789.3406372070312
1508,782.4908447265625,789.7435913085938,793.7728881835938,793.7728881835938
1509,774.8351440429688,786.5201416015625,792.967041015625,784.5054931640625
1510,781.6849975585938,790.952392578125,793.7728881835938,786.5201416015625
1511,786.1171875,789.3406372070312,796.1904907226562,784.1025390625
1512,788.1318969726562,788.5347900390625,795.7875366210938,785.3113403320312
1513,790.1465454101562,789.7435913085938,793.7728881835938,784.908447265625
1514,786.5201416015625,791.7582397460938,793.7728881835938,782.893798828125
1515,790.1465454101562,791.7582397460938,794.5787353515625,785.3113403320312
1516,798.6080322265625,791.7582397460938,795.7875366210938,792.1611938476562
1517,800.6226806640625,798.2051391601562,799.010986328125,792.967041015625
1518,790.1465454101562,799.4139404296875,796.996337890625,786.1171875
1519,787.7289428710938,798.2051391601562,790.5494384765625,787.7289428710938
1520,794.5787353515625,798.2051391601562,787.3259887695312,790.5494384765625
1521,793.7728881835938,794.1758422851562,791.3552856445312,790.952392578125
1522,797.8021850585938,794.1758422851562,792.5640869140625,798.6080322265625
1523,799.4139404296875,799.4139404296875,792.5640869140625,803.8461303710938
1524,793.7728881835938,803.040283203125,790.952392578125,794.981689453125
1525,792.967041015625,796.5933837890625,787.7289428710938,790.1465454101562
1526,800.2197875976562,792.5640869140625,793.3699340820312,791.7582397460938
1527,803.040283203125,796.5933837890625,794.981689453125,793.7728881835938
1528,793.3699340820312,794.1758422851562,796.996337890625,792.5640869140625
1529,787.7289428710938,789.3406372070312,798.6080322265625,788.937744140625
1530,788.937744140625,788.5347900390625,797.8021850585938,795.7875366210938
1531,786.5201416015625,790.5494384765625,795.7875366210938,801.8314819335938
1532,784.1025390625,790.952392578125,796.1904907226562,799.010986328125
1533,786.5201416015625,792.1611938476562,796.996337890625,798.6080322265625
1534,784.1025390625,794.1758422851562,797.3992919921875,802.6373901367188
1535,783.2966918945312,793.3699340820312,801.025634765625,799.8168334960938
1536,788.1318969726562,791.7582397460938,797.3992919921875,795.3846435546875
1537,788.937744140625,788.937744140625,794.5787353515625,792.5640869140625
1538,798.6080322265625,790.5494384765625,794.5787353515625,791.3552856445312
1539,799.4139404296875,794.981689453125,794.5787353515625,796.1904907226562
1540,790.952392578125,796.1904907226562,798.6080322265625,801.8314819335938
1541,796.996337890625,794.981689453125,798.6080322265625,801.025634765625
1542,797.3992919921875,792.1611938476562,792.5640869140625,796.5933837890625
1543,790.5494384765625,787.3259887695312,789.3406372070312,789.3406372070312
1544,789.3406372070312,788.937744140625,788.1318969726562,782.4908447265625
1545,794.5787353515625,788.937744140625,788.5347900390625,789.7435913085938
1546,799.010986328125,788.5347900390625,787.3259887695312,796.5933837890625
1547,791.7582397460938,789.7435913085938,788.937744140625,788.1318969726562
1548,790.1465454101562,792.5640869140625,796.996337890625,788.5347900390625
1549,789.7435913085938,794.1758422851562,800.2197875976562,788.5347900390625
1550,788.937744140625,790.952392578125,799.010986328125,786.923095703125
1551,791.7582397460938,789.3406372070312,798.6080322265625,787.3259887695312
1552,794.981689453125,793.3699340820312,797.3992919921875,783.2966918945312
1553,795.7875366210938,798.2051391601562,794.981689453125,783.6996459960938
1554,793.7728881835938,795.3846435546875,793.3699340820312,784.908447265625
1555,790.1465454101562,796.996337890625,794.981689453125,782.087890625
1556,788.1318969726562,798.2051391601562,795.7875366210938,784.5054931640625
1557,791.7582397460938,799.010986328125,794.5787353515625,797.3992919921875
1558,789.7435913085938,799.010986328125,794.1758422851562,804.6520385742188
1559,790.5494384765625,794.5787353515625,799.010986328125,795.7875366210938
1560,792.5640869140625,793.3699340820312,800.6226806640625,793.7728881835938
1561,784.908447265625,796.996337890625,799.4139404296875,788.937744140625
1562,788.937744140625,796.996337890625,795.3846435546875,789.3406372070312
1563,792.5640869140625,792.967041015625,789.3406372070312,789.7435913085938
1564,791.3552856445312,786.1171875,788.5347900390625,782.087890625
1565,792.967041015625,789.3406372070312,788.937744140625,784.1025390625
1566,790.1465454101562,796.996337890625,791.3552856445312,782.4908447265625
1567,789.7435913085938,797.8021850585938,787.3259887695312,776.8497924804688
1568,790.5494384765625,793.7728881835938,781.2820434570312,779.6703491210938
1569,788.1318969726562,791.7582397460938,784.908447265625,793.7728881835938
1570,788.5347900390625,794.5787353515625,788.1318969726562,799.010986328125
1571,795.7875366210938,794.1758422851562,795.7875366210938,803.040283203125
1572,802.6373901367188,795.3846435546875,805.054931640625,803.8461303710938
1573,811.90478515625,796.1904907226562,803.8461303710938,803.8461303710938
1574,805.054931640625,790.5494384765625,802.6373901367188,803.040283203125
1575,792.5640869140625,790.952392578125,800.2197875976562,800.2197875976562
1576,791.7582397460938,793.3699340820312,801.4285888671875,802.6373901367188
1577,789.3406372070312,788.937744140625,809.4871826171875,796.1904907226562
1578,791.3552856445312,787.3259887695312,806.2637329101562,793.3699340820312
1579,790.1465454101562,787.3259887695312,799.4139404296875,790.5494384765625
1580,786.923095703125,789.3406372070312,803.040283203125,787.3259887695312
1581,792.1611938476562,794.981689453125,807.87548828125,791.7582397460938
1582,794.981689453125,793.7728881835938,807.87548828125,792.1611938476562
1583,803.040283203125,795.3846435546875,808.6813354492188,798.2051391601562
1584,806.6666870117188,793.3699340820312,808.6813354492188,803.040283203125
1585,801.4285888671875,790.5494384765625,803.8461303710938,803.040283203125
1586,799.8168334960938,796.1904907226562,803.8461303710938,809.4871826171875
