timestamp,RAW_TP9,RAW_AF7,RAW_AF8,RAW_TP10
1,796.996337890625,792.967041015625,792.967041015625,788.1318969726562
2,799.010986328125,795.7875366210938,793.3699340820312,786.5201416015625
3,795.3846435546875,796.5933837890625,793.3699340820312,781.6849975585938
4,794.1758422851562,790.5494384765625,791.3552856445312,786.1171875
5,797.3992919921875,793.7728881835938,789.3406372070312,799.8168334960938
6,792.967041015625,801.8314819335938,792.1611938476562,790.952392578125
7,785.3113403320312,798.6080322265625,794.981689453125,786.1171875
8,782.087890625,788.1318969726562,792.967041015625,788.5347900390625
9,782.893798828125,792.967041015625,794.1758422851562,780.4761962890625
10,788.1318969726562,798.2051391601562,798.2051391601562,783.6996459960938
11,786.1171875,797.3992919921875,801.025634765625,788.937744140625
12,784.5054931640625,791.7582397460938,802.6373901367188,792.5640869140625
13,786.923095703125,786.1171875,799.8168334960938,798.6080322265625
14,784.1025390625,787.7289428710938,794.5787353515625,794.5787353515625
15,779.2673950195312,789.7435913085938,790.1465454101562,786.5201416015625
16,784.5054931640625,791.7582397460938,793.7728881835938,791.7582397460938
17,789.3406372070312,796.1904907226562,795.7875366210938,794.981689453125
18,785.3113403320312,798.6080322265625,794.981689453125,793.7728881835938
19,790.5494384765625,794.5787353515625,803.040283203125,797.3992919921875
20,797.3992919921875,787.7289428710938,802.6373901367188,800.6226806640625
21,797.3992919921875,792.1611938476562,801.025634765625,797.8021850585938
22,795.7875366210938,798.2051391601562,800.2197875976562,793.7728881835938
23,795.3846435546875,796.996337890625,799.8168334960938,793.3699340820312
24,800.2197875976562,794.981689453125,805.4578857421875,798.6080322265625
25,804.6520385742188,798.6080322265625,802.2344360351562,805.054931640625
26,805.054931640625,807.4725341796875,795.3846435546875,803.4432373046875
27,808.2783813476562,805.054931640625,800.2197875976562,800.2197875976562
28,808.2783813476562,798.6080322265625,801.025634765625,802.6373901367188
29,800.6226806640625,801.025634765625,796.5933837890625,794.5787353515625
30,794.5787353515625,801.4285888671875,796.996337890625,792.1611938476562
31,789.3406372070312,798.2051391601562,799.010986328125,794.5787353515625
32,784.1025390625,797.3992919921875,798.6080322265625,793.3699340820312
33,784.1025390625,793.3699340820312,798.2051391601562,791.7582397460938
34,785.3113403320312,787.7289428710938,797.8021850585938,792.967041015625
35,786.1171875,789.7435913085938,797.8021850585938,801.025634765625
36,785.7142944335938,796.1904907226562,792.967041015625,798.6080322265625
37,782.087890625,799.010986328125,788.1318969726562,790.5494384765625
38,778.05859375,799.4139404296875,789.3406372070312,779.2673950195312
39,775.6410522460938,798.6080322265625,792.1611938476562,780.4761962890625
40,781.6849975585938,792.1611938476562,796.996337890625,787.3259887695312
41,791.7582397460938,796.5933837890625,796.5933837890625,786.923095703125
42,790.5494384765625,801.025634765625,792.5640869140625,791.7582397460938
43,783.6996459960938,796.1904907226562,791.7582397460938,789.3406372070312
44,782.087890625,793.3699340820312,789.3406372070312,780.4761962890625
45,788.1318969726562,796.1904907226562,786.923095703125,785.3113403320312
46,800.6226806640625,796.996337890625,789.3406372070312,795.3846435546875
47,804.2490844726562,801.8314819335938,792.5640869140625,797.3992919921875
48,786.1171875,803.8461303710938,796.996337890625,785.7142944335938
49,773.2234497070312,794.1758422851562,794.5787353515625,782.087890625
50,783.2966918945312,789.7435913085938,790.1465454101562,788.937744140625
51,789.3406372070312,793.3699340820312,794.1758422851562,794.5787353515625
52,793.3699340820312,795.7875366210938,795.3846435546875,794.981689453125
53,790.5494384765625,788.937744140625,788.5347900390625,787.3259887695312
54,788.937744140625,781.2820434570312,788.5347900390625,788.1318969726562
55,794.1758422851562,788.5347900390625,795.7875366210938,792.5640869140625
56,793.3699340820312,793.7728881835938,794.1758422851562,795.3846435546875
57,793.7728881835938,797.3992919921875,792.1611938476562,796.5933837890625
58,798.6080322265625,801.025634765625,789.3406372070312,796.5933837890625
59,796.1904907226562,796.5933837890625,791.3552856445312,801.8314819335938
60,794.5787353515625,795.7875366210938,794.5787353515625,801.4285888671875
61,802.2344360351562,793.3699340820312,794.5787353515625,801.8314819335938
62,803.8461303710938,794.5787353515625,799.010986328125,810.2930297851562
63,802.6373901367188,800.6226806640625,796.5933837890625,807.069580078125
64,799.4139404296875,801.8314819335938,790.5494384765625,795.3846435546875
65,795.7875366210938,799.010986328125,794.981689453125,799.4139404296875
66,796.5933837890625,794.5787353515625,794.1758422851562,807.4725341796875
67,799.4139404296875,791.3552856445312,792.1611938476562,801.025634765625
68,804.6520385742188,800.2197875976562,793.7728881835938,788.5347900390625
69,805.8607788085938,802.6373901367188,789.7435913085938,791.7582397460938
70,797.8021850585938,797.8021850585938,786.923095703125,796.1904907226562
71,795.3846435546875,799.010986328125,791.3552856445312,796.1904907226562
72,801.8314819335938,802.2344360351562,792.5640869140625,797.8021850585938
73,801.4285888671875,804.6520385742188,789.7435913085938,798.2051391601562
74,796.1904907226562,803.040283203125,786.923095703125,801.4285888671875
75,791.7582397460938,796.5933837890625,788.1318969726562,801.4285888671875
76,792.967041015625,797.8021850585938,794.5787353515625,798.6080322265625
77,797.8021850585938,802.6373901367188,799.4139404296875,802.6373901367188
78,793.7728881835938,800.6226806640625,801.4285888671875,808.6813354492188
79,788.937744140625,794.5787353515625,796.996337890625,802.6373901367188
80,784.908447265625,785.7142944335938,793.3699340820312,790.952392578125
81,786.923095703125,790.1465454101562,798.2051391601562,791.3552856445312
82,794.1758422851562,794.981689453125,800.2197875976562,794.1758422851562
83,787.3259887695312,794.981689453125,800.2197875976562,787.3259887695312
84,787.3259887695312,797.3992919921875,797.3992919921875,783.6996459960938
85,791.7582397460938,799.4139404296875,795.7875366210938,789.3406372070312
86,787.7289428710938,796.5933837890625,794.981689453125,791.3552856445312
87,786.5201416015625,794.5787353515625,797.8021850585938,782.087890625
88,788.5347900390625,792.967041015625,801.4285888671875,782.087890625
89,794.981689453125,794.5787353515625,799.4139404296875,792.1611938476562
90,792.5640869140625,798.2051391601562,794.1758422851562,786.1171875
91,791.7582397460938,794.981689453125,795.7875366210938,785.7142944335938
92,795.3846435546875,791.7582397460938,796.1904907226562,796.1904907226562
93,791.3552856445312,792.967041015625,792.5640869140625,793.7728881835938
94,788.937744140625,791.7582397460938,796.1904907226562,788.937744140625
95,786.1171875,790.952392578125,799.4139404296875,793.7728881835938
96,785.7142944335938,786.923095703125,792.967041015625,789.7435913085938
97,788.937744140625,787.3259887695312,788.5347900390625,786.923095703125
98,788.937744140625,795.3846435546875,793.7728881835938,792.5640869140625
99,785.7142944335938,801.025634765625,794.5787353515625,789.7435913085938
100,789.7435913085938,799.8168334960938,792.5640869140625,796.5933837890625
101,794.5787353515625,796.1904907226562,790.952392578125,805.4578857421875
102,792.967041015625,800.2197875976562,795.3846435546875,796.5933837890625
103,795.3846435546875,791.3552856445312,800.6226806640625,794.1758422851562
104,795.3846435546875,788.1318969726562,800.6226806640625,798.6080322265625
105,794.5787353515625,799.4139404296875,799.4139404296875,797.8021850585938
106,795.7875366210938,799.4139404296875,795.3846435546875,795.3846435546875
107,799.8168334960938,794.981689453125,795.7875366210938,800.2197875976562
108,805.8607788085938,800.2197875976562,796.5933837890625,807.069580078125
109,806.2637329101562,802.2344360351562,790.5494384765625,804.2490844726562
110,803.040283203125,796.996337890625,794.5787353515625,796.1904907226562
111,802.6373901367188,796.996337890625,798.6080322265625,794.1758422851562
112,803.040283203125,797.8021850585938,795.7875366210938,798.2051391601562
113,798.6080322265625,800.6226806640625,797.3992919921875,794.1758422851562
114,796.1904907226562,800.6226806640625,797.3992919921875,788.937744140625
115,794.1758422851562,794.5787353515625,794.981689453125,785.7142944335938
116,788.937744140625,792.967041015625,792.1611938476562,782.4908447265625
117,790.5494384765625,793.7728881835938,792.5640869140625,785.7142944335938
118,788.937744140625,796.1904907226562,795.7875366210938,791.7582397460938
119,784.5054931640625,795.3846435546875,796.1904907226562,797.8021850585938
120,788.1318969726562,794.1758422851562,792.5640869140625,802.2344360351562
121,790.1465454101562,790.1465454101562,795.3846435546875,797.3992919921875
122,789.7435913085938,787.7289428710938,805.8607788085938,795.7875366210938
123,781.6849975585938,784.5054931640625,804.6520385742188,801.025634765625
124,784.1025390625,789.7435913085938,801.4285888671875,807.87548828125
125,789.7435913085938,794.1758422851562,805.054931640625,803.8461303710938
126,788.5347900390625,794.5787353515625,803.4432373046875,801.025634765625
127,791.7582397460938,791.7582397460938,799.4139404296875,803.040283203125
128,792.967041015625,790.1465454101562,796.5933837890625,794.1758422851562
129,793.3699340820312,796.996337890625,799.010986328125,787.7289428710938
130,792.967041015625,793.3699340820312,795.7875366210938,782.087890625
131,791.3552856445312,793.3699340820312,791.7582397460938,776.0439453125
132,794.1758422851562,789.3406372070312,795.7875366210938,776.4468994140625
133,796.5933837890625,786.1171875,795.3846435546875,780.0732421875
134,797.3992919921875,785.7142944335938,795.3846435546875,780.879150390625
135,800.2197875976562,786.5201416015625,795.3846435546875,793.3699340820312
136,798.6080322265625,795.7875366210938,796.996337890625,801.4285888671875
137,790.5494384765625,803.4432373046875,798.2051391601562,790.952392578125
138,790.952392578125,800.6226806640625,799.010986328125,788.5347900390625
139,794.1758422851562,798.2051391601562,800.2197875976562,792.967041015625
140,794.5787353515625,793.3699340820312,791.7582397460938,797.8021850585938
141,796.5933837890625,794.5787353515625,790.952392578125,797.8021850585938
142,792.5640869140625,799.8168334960938,794.1758422851562,795.3846435546875
143,792.967041015625,799.8168334960938,792.967041015625,794.5787353515625
144,800.2197875976562,793.3699340820312,798.2051391601562,796.5933837890625
145,801.4285888671875,793.3699340820312,799.8168334960938,794.981689453125
146,796.1904907226562,794.5787353515625,794.981689453125,791.3552856445312
147,797.3992919921875,786.923095703125,792.1611938476562,805.054931640625
148,803.4432373046875,787.7289428710938,797.8021850585938,804.6520385742188
149,795.7875366210938,788.5347900390625,795.3846435546875,787.3259887695312
150,790.5494384765625,792.1611938476562,790.952392578125,784.908447265625
151,792.5640869140625,794.981689453125,793.7728881835938,789.3406372070312
152,793.7728881835938,797.8021850585938,792.5640869140625,790.5494384765625
153,792.967041015625,793.7728881835938,792.5640869140625,791.7582397460938
154,790.952392578125,789.7435913085938,792.967041015625,793.3699340820312
155,792.1611938476562,791.7582397460938,789.7435913085938,795.3846435546875
156,792.967041015625,788.1318969726562,788.5347900390625,790.952392578125
157,789.7435913085938,788.1318969726562,790.952392578125,784.5054931640625
158,795.3846435546875,790.952392578125,796.1904907226562,787.3259887695312
159,801.4285888671875,798.6080322265625,796.1904907226562,789.3406372070312
160,792.967041015625,796.996337890625,794.5787353515625,783.2966918945312
161,788.1318969726562,790.952392578125,791.7582397460938,779.2673950195312
162,789.7435913085938,790.952392578125,786.1171875,786.1171875
163,789.3406372070312,795.7875366210938,789.3406372070312,790.5494384765625
164,789.7435913085938,800.2197875976562,792.1611938476562,788.1318969726562
165,789.3406372070312,793.3699340820312,793.3699340820312,785.3113403320312
166,783.2966918945312,789.3406372070312,792.1611938476562,783.6996459960938
167,784.908447265625,790.952392578125,792.5640869140625,784.908447265625
168,785.7142944335938,789.3406372070312,796.996337890625,783.6996459960938
169,785.3113403320312,788.5347900390625,792.5640869140625,783.2966918945312
170,792.1611938476562,792.5640869140625,790.5494384765625,784.908447265625
171,792.967041015625,798.2051391601562,794.1758422851562,790.952392578125
172,785.3113403320312,791.3552856445312,793.7728881835938,791.7582397460938
173,786.1171875,786.923095703125,788.1318969726562,791.7582397460938
174,794.981689453125,785.3113403320312,790.952392578125,799.4139404296875
175,802.2344360351562,788.937744140625,800.2197875976562,798.2051391601562
176,796.5933837890625,795.7875366210938,798.2051391601562,789.3406372070312
177,796.996337890625,796.996337890625,794.981689453125,790.5494384765625
178,800.6226806640625,796.5933837890625,797.8021850585938,795.3846435546875
179,800.6226806640625,794.981689453125,799.4139404296875,795.3846435546875
180,802.6373901367188,794.5787353515625,795.7875366210938,797.8021850585938
181,797.8021850585938,796.5933837890625,791.7582397460938,796.1904907226562
182,790.1465454101562,792.1611938476562,791.7582397460938,794.5787353515625
183,787.7289428710938,794.1758422851562,790.952392578125,794.5787353515625
184,794.981689453125,801.8314819335938,791.7582397460938,792.5640869140625
185,796.5933837890625,797.3992919921875,787.3259887695312,794.981689453125
186,790.1465454101562,793.7728881835938,786.1171875,792.5640869140625
187,785.3113403320312,789.7435913085938,791.3552856445312,790.1465454101562
188,786.5201416015625,789.3406372070312,787.3259887695312,793.3699340820312
189,790.952392578125,797.3992919921875,785.3113403320312,796.996337890625
190,790.952392578125,798.6080322265625,784.1025390625,790.952392578125
191,793.7728881835938,791.7582397460938,784.908447265625,787.7289428710938
192,792.1611938476562,793.7728881835938,790.952392578125,791.3552856445312
193,789.3406372070312,792.1611938476562,794.5787353515625,787.7289428710938
194,791.3552856445312,788.5347900390625,790.952392578125,786.5201416015625
195,790.952392578125,794.981689453125,782.4908447265625,786.5201416015625
196,791.3552856445312,792.1611938476562,783.2966918945312,784.908447265625
197,795.7875366210938,790.952392578125,785.3113403320312,787.3259887695312
198,788.937744140625,789.7435913085938,784.5054931640625,783.2966918945312
199,785.7142944335938,786.923095703125,785.3113403320312,782.4908447265625
200,790.952392578125,788.5347900390625,788.1318969726562,786.1171875
201,786.5201416015625,787.7289428710938,794.1758422851562,784.908447265625
202,785.7142944335938,786.1171875,794.1758422851562,787.3259887695312
203,792.5640869140625,791.7582397460938,791.7582397460938,787.7289428710938
204,794.1758422851562,794.1758422851562,791.3552856445312,790.952392578125
205,787.7289428710938,785.7142944335938,789.7435913085938,787.7289428710938
206,781.2820434570312,786.1171875,791.7582397460938,788.1318969726562
207,781.6849975585938,790.5494384765625,794.981689453125,794.1758422851562
208,784.908447265625,792.967041015625,786.923095703125,795.7875366210938
209,787.7289428710938,796.1904907226562,782.4908447265625,795.7875366210938
210,783.6996459960938,788.5347900390625,784.908447265625,792.1611938476562
211,780.879150390625,788.5347900390625,786.5201416015625,796.1904907226562
212,782.893798828125,792.1611938476562,789.7435913085938,794.981689453125
213,784.1025390625,789.7435913085938,794.5787353515625,790.5494384765625
214,788.1318969726562,792.967041015625,799.4139404296875,793.3699340820312
215,790.1465454101562,788.5347900390625,795.7875366210938,796.996337890625
216,793.7728881835938,786.5201416015625,792.1611938476562,797.8021850585938
217,791.3552856445312,796.996337890625,793.7728881835938,792.967041015625
218,789.7435913085938,799.010986328125,790.1465454101562,788.1318969726562
219,794.981689453125,794.5787353515625,784.5054931640625,791.3552856445312
220,794.1758422851562,794.981689453125,789.7435913085938,796.996337890625
221,796.996337890625,798.6080322265625,793.7728881835938,805.4578857421875
222,800.6226806640625,799.010986328125,788.937744140625,802.2344360351562
223,800.2197875976562,798.2051391601562,789.3406372070312,792.967041015625
224,799.8168334960938,800.2197875976562,794.5787353515625,793.7728881835938
225,795.7875366210938,798.2051391601562,793.7728881835938,792.1611938476562
226,794.1758422851562,789.7435913085938,793.7728881835938,790.5494384765625
227,797.3992919921875,792.5640869140625,794.1758422851562,790.1465454101562
228,790.952392578125,796.996337890625,794.1758422851562,784.5054931640625
229,790.952392578125,794.1758422851562,790.1465454101562,785.3113403320312
230,794.981689453125,793.3699340820312,788.1318969726562,781.6849975585938
231,789.7435913085938,801.8314819335938,790.952392578125,784.908447265625
232,787.3259887695312,802.6373901367188,791.3552856445312,790.952392578125
233,792.5640869140625,799.010986328125,795.3846435546875,783.2966918945312
234,797.8021850585938,795.3846435546875,794.981689453125,787.3259887695312
235,805.4578857421875,787.3259887695312,790.5494384765625,798.2051391601562
236,811.098876953125,785.7142944335938,795.7875366210938,804.2490844726562
237,809.4871826171875,786.923095703125,798.6080322265625,806.2637329101562
238,803.040283203125,793.3699340820312,793.7728881835938,797.3992919921875
239,796.996337890625,798.6080322265625,790.5494384765625,782.4908447265625
240,793.3699340820312,795.3846435546875,789.3406372070312,782.4908447265625
241,792.967041015625,796.5933837890625,787.7289428710938,789.7435913085938
242,794.981689453125,799.010986328125,788.5347900390625,793.3699340820312
243,794.981689453125,791.3552856445312,790.1465454101562,800.6226806640625
244,791.7582397460938,790.1465454101562,792.5640869140625,790.5494384765625
245,795.7875366210938,796.1904907226562,796.1904907226562,790.952392578125
246,800.2197875976562,792.5640869140625,789.3406372070312,797.8021850585938
247,796.1904907226562,794.1758422851562,782.087890625,786.5201416015625
248,796.1904907226562,790.1465454101562,785.7142944335938,778.05859375
249,799.8168334960938,783.2966918945312,790.1465454101562,786.5201416015625
250,803.4432373046875,790.952392578125,793.3699340820312,794.5787353515625
251,803.8461303710938,798.6080322265625,796.5933837890625,797.8021850585938
252,801.4285888671875,801.4285888671875,801.025634765625,802.6373901367188
253,794.5787353515625,798.6080322265625,799.4139404296875,799.4139404296875
254,791.3552856445312,788.937744140625,796.5933837890625,797.3992919921875
255,791.7582397460938,785.7142944335938,797.3992919921875,796.5933837890625
256,791.7582397460938,794.5787353515625,798.2051391601562,789.7435913085938
257,790.5494384765625,794.1758422851562,794.5787353515625,789.3406372070312
258,789.3406372070312,790.1465454101562,792.5640869140625,790.1465454101562
259,794.981689453125,794.981689453125,795.3846435546875,788.5347900390625
260,800.2197875976562,797.3992919921875,792.5640869140625,781.6849975585938
261,798.6080322265625,791.7582397460938,792.1611938476562,787.7289428710938
262,798.2051391601562,788.1318969726562,794.5787353515625,797.8021850585938
263,792.5640869140625,781.2820434570312,792.967041015625,796.5933837890625
264,790.5494384765625,784.908447265625,789.7435913085938,794.1758422851562
265,792.1611938476562,792.967041015625,788.1318969726562,795.7875366210938
266,792.1611938476562,788.937744140625,796.1904907226562,799.8168334960938
267,791.7582397460938,788.5347900390625,799.010986328125,790.5494384765625
268,788.937744140625,790.952392578125,794.981689453125,784.1025390625
269,792.1611938476562,794.5787353515625,790.952392578125,786.923095703125
270,799.8168334960938,797.3992919921875,795.3846435546875,789.3406372070312
271,803.040283203125,794.5787353515625,800.6226806640625,786.1171875
272,803.4432373046875,786.1171875,795.3846435546875,787.7289428710938
273,799.4139404296875,779.6703491210938,791.3552856445312,797.3992919921875
274,791.7582397460938,783.6996459960938,790.952392578125,793.7728881835938
275,787.3259887695312,789.3406372070312,792.1611938476562,790.1465454101562
276,787.7289428710938,782.087890625,789.3406372070312,790.1465454101562
277,792.1611938476562,782.893798828125,787.3259887695312,794.981689453125
278,796.1904907226562,786.5201416015625,787.7289428710938,795.3846435546875
279,791.7582397460938,788.1318969726562,787.3259887695312,792.5640869140625
280,790.952392578125,792.5640869140625,788.1318969726562,795.7875366210938
281,801.025634765625,795.7875366210938,788.1318969726562,798.2051391601562
282,805.054931640625,793.3699340820312,790.1465454101562,796.5933837890625
283,797.3992919921875,795.7875366210938,791.7582397460938,795.3846435546875
284,797.3992919921875,801.025634765625,794.981689453125,799.8168334960938
285,797.3992919921875,790.952392578125,796.1904907226562,803.040283203125
286,795.3846435546875,791.3552856445312,795.7875366210938,803.040283203125
287,795.7875366210938,796.1904907226562,795.7875366210938,797.3992919921875
288,790.952392578125,794.1758422851562,793.7728881835938,795.3846435546875
289,786.923095703125,796.5933837890625,791.3552856445312,798.6080322265625
290,787.7289428710938,801.025634765625,788.5347900390625,787.7289428710938
291,792.1611938476562,803.4432373046875,788.5347900390625,776.8497924804688
292,789.7435913085938,796.996337890625,790.1465454101562,776.4468994140625
293,787.3259887695312,784.5054931640625,790.5494384765625,788.1318969726562
294,789.3406372070312,780.4761962890625,795.7875366210938,788.937744140625
295,790.952392578125,788.1318969726562,799.4139404296875,788.1318969726562
296,792.1611938476562,795.7875366210938,796.1904907226562,794.1758422851562
297,791.7582397460938,796.996337890625,797.8021850585938,794.5787353515625
298,791.7582397460938,789.7435913085938,796.996337890625,793.7728881835938
299,789.3406372070312,787.3259887695312,794.1758422851562,794.5787353515625
300,789.3406372070312,792.5640869140625,791.3552856445312,789.7435913085938
301,794.5787353515625,793.7728881835938,791.3552856445312,787.3259887695312
302,798.2051391601562,795.7875366210938,793.3699340820312,790.952392578125
303,795.3846435546875,796.996337890625,794.981689453125,792.1611938476562
304,793.7728881835938,794.981689453125,794.1758422851562,800.6226806640625
305,796.996337890625,792.5640869140625,795.3846435546875,805.4578857421875
306,798.6080322265625,797.8021850585938,794.5787353515625,795.3846435546875
307,796.996337890625,799.010986328125,792.5640869140625,796.1904907226562
308,793.7728881835938,791.7582397460938,794.981689453125,801.8314819335938
309,791.3552856445312,789.7435913085938,797.3992919921875,791.7582397460938
310,790.1465454101562,788.937744140625,795.3846435546875,786.5201416015625
311,790.1465454101562,792.1611938476562,796.5933837890625,792.967041015625
312,788.5347900390625,797.3992919921875,796.5933837890625,788.937744140625
313,791.3552856445312,796.5933837890625,794.5787353515625,787.7289428710938
314,798.6080322265625,792.967041015625,794.5787353515625,792.967041015625
315,802.6373901367188,792.5640869140625,791.7582397460938,792.5640869140625
316,797.3992919921875,790.5494384765625,790.952392578125,798.6080322265625
317,794.981689453125,788.5347900390625,796.996337890625,792.967041015625
318,799.010986328125,788.5347900390625,799.010986328125,787.7289428710938
319,789.3406372070312,784.5054931640625,796.1904907226562,789.3406372070312
320,782.4908447265625,791.3552856445312,794.1758422851562,786.5201416015625
321,783.2966918945312,801.8314819335938,794.5787353515625,782.4908447265625
322,784.5054931640625,797.3992919921875,795.3846435546875,786.1171875
323,790.952392578125,792.5640869140625,793.3699340820312,794.981689453125
324,790.5494384765625,794.5787353515625,795.3846435546875,796.5933837890625
325,789.7435913085938,792.1611938476562,795.7875366210938,797.8021850585938
326,801.8314819335938,793.7728881835938,794.5787353515625,791.7582397460938
327,809.084228515625,794.1758422851562,796.1904907226562,796.5933837890625
328,803.4432373046875,795.7875366210938,799.4139404296875,801.4285888671875
329,790.5494384765625,792.967041015625,794.981689453125,788.5347900390625
330,790.5494384765625,782.893798828125,793.7728881835938,790.5494384765625
331,791.7582397460938,786.1171875,791.3552856445312,791.3552856445312
332,786.5201416015625,794.5787353515625,791.7582397460938,788.937744140625
333,786.1171875,796.996337890625,793.3699340820312,790.952392578125
334,786.1171875,793.7728881835938,790.1465454101562,789.7435913085938
335,786.1171875,792.5640869140625,790.5494384765625,787.3259887695312
336,791.7582397460938,788.1318969726562,792.5640869140625,788.5347900390625
337,796.5933837890625,790.5494384765625,796.996337890625,789.3406372070312
338,796.996337890625,797.3992919921875,795.3846435546875,786.923095703125
339,794.981689453125,792.5640869140625,793.7728881835938,786.923095703125
340,789.3406372070312,792.967041015625,794.1758422851562,788.937744140625
341,783.6996459960938,794.1758422851562,792.967041015625,786.923095703125
342,782.087890625,790.5494384765625,789.7435913085938,780.4761962890625
343,788.937744140625,788.937744140625,788.937744140625,779.2673950195312
344,791.7582397460938,790.5494384765625,793.3699340820312,782.893798828125
345,790.1465454101562,790.1465454101562,797.8021850585938,784.908447265625
346,790.5494384765625,786.923095703125,794.981689453125,782.4908447265625
347,795.7875366210938,787.7289428710938,793.3699340820312,786.923095703125
348,796.5933837890625,797.3992919921875,796.1904907226562,792.1611938476562
349,791.3552856445312,799.8168334960938,798.6080322265625,793.3699340820312
350,789.7435913085938,796.996337890625,798.2051391601562,792.5640869140625
351,790.1465454101562,798.2051391601562,796.5933837890625,792.1611938476562
352,790.1465454101562,797.8021850585938,793.3699340820312,793.7728881835938
353,787.3259887695312,797.3992919921875,786.5201416015625,796.1904907226562
354,783.6996459960938,785.7142944335938,785.3113403320312,794.1758422851562
355,785.3113403320312,783.2966918945312,785.7142944335938,795.7875366210938
356,787.3259887695312,783.2966918945312,786.923095703125,796.1904907226562
357,791.7582397460938,783.2966918945312,789.3406372070312,801.8314819335938
358,794.981689453125,797.8021850585938,792.1611938476562,801.8314819335938
359,798.6080322265625,800.6226806640625,796.996337890625,791.7582397460938
360,800.2197875976562,794.5787353515625,795.7875366210938,789.7435913085938
361,794.5787353515625,792.967041015625,794.1758422851562,794.1758422851562
362,790.5494384765625,791.3552856445312,792.5640869140625,798.2051391601562
363,788.937744140625,793.7728881835938,790.952392578125,795.3846435546875
364,790.952392578125,793.7728881835938,793.3699340820312,788.1318969726562
365,793.7728881835938,782.4908447265625,793.3699340820312,781.2820434570312
366,789.7435913085938,789.7435913085938,792.5640869140625,782.087890625
367,788.1318969726562,803.8461303710938,794.981689453125,785.7142944335938
368,798.2051391601562,809.89013671875,798.2051391601562,784.908447265625
369,802.6373901367188,807.4725341796875,793.3699340820312,785.7142944335938
370,794.5787353515625,799.4139404296875,790.952392578125,785.7142944335938
371,788.1318969726562,798.6080322265625,788.1318969726562,787.7289428710938
372,793.7728881835938,795.7875366210938,789.7435913085938,794.981689453125
373,799.4139404296875,791.3552856445312,794.1758422851562,802.6373901367188
374,797.3992919921875,792.967041015625,794.5787353515625,798.2051391601562
375,787.3259887695312,791.3552856445312,792.967041015625,784.908447265625
376,786.1171875,796.996337890625,794.5787353515625,783.6996459960938
377,792.5640869140625,799.8168334960938,793.3699340820312,794.981689453125
378,791.3552856445312,793.7728881835938,790.1465454101562,795.3846435546875
379,792.5640869140625,796.996337890625,793.3699340820312,785.7142944335938
380,795.7875366210938,799.8168334960938,797.3992919921875,789.7435913085938
381,788.937744140625,791.7582397460938,797.3992919921875,791.3552856445312
382,782.893798828125,790.952392578125,794.5787353515625,784.908447265625
383,786.1171875,791.7582397460938,792.5640869140625,784.908447265625
384,792.1611938476562,791.3552856445312,794.5787353515625,792.967041015625
385,792.5640869140625,788.1318969726562,796.996337890625,801.025634765625
386,788.937744140625,793.3699340820312,793.3699340820312,794.981689453125
387,791.3552856445312,797.3992919921875,796.1904907226562,795.3846435546875
388,798.2051391601562,796.1904907226562,803.040283203125,809.084228515625
389,797.3992919921875,797.8021850585938,801.8314819335938,808.6813354492188
390,793.3699340820312,795.7875366210938,801.4285888671875,794.1758422851562
391,798.2051391601562,797.8021850585938,800.2197875976562,789.3406372070312
392,796.1904907226562,798.2051391601562,798.2051391601562,788.937744140625
393,795.7875366210938,797.3992919921875,796.996337890625,790.1465454101562
394,800.6226806640625,799.4139404296875,801.8314819335938,796.996337890625
395,799.8168334960938,801.025634765625,804.2490844726562,804.6520385742188
396,798.2051391601562,799.010986328125,802.2344360351562,808.6813354492188
397,796.996337890625,796.5933837890625,801.4285888671875,806.6666870117188
398,797.3992919921875,798.2051391601562,797.8021850585938,804.6520385742188
399,797.3992919921875,792.967041015625,795.7875366210938,801.4285888671875
400,796.5933837890625,787.3259887695312,793.3699340820312,800.2197875976562
401,790.1465454101562,792.967041015625,794.981689453125,793.7728881835938
402,784.908447265625,796.5933837890625,799.8168334960938,786.5201416015625
403,787.3259887695312,796.5933837890625,796.5933837890625,789.7435913085938
404,784.5054931640625,789.3406372070312,792.5640869140625,792.5640869140625
405,782.4908447265625,787.7289428710938,793.3699340820312,788.1318969726562
406,781.2820434570312,792.5640869140625,792.967041015625,790.952392578125
407,785.3113403320312,789.3406372070312,795.3846435546875,795.7875366210938
408,783.6996459960938,786.5201416015625,797.3992919921875,789.3406372070312
409,781.6849975585938,784.5054931640625,786.923095703125,781.2820434570312
410,790.5494384765625,788.1318969726562,785.3113403320312,777.6557006835938
411,789.7435913085938,790.5494384765625,791.7582397460938,775.2380981445312
412,786.923095703125,785.3113403320312,791.3552856445312,787.7289428710938
413,784.908447265625,784.5054931640625,797.8021850585938,792.967041015625
414,780.879150390625,790.5494384765625,801.4285888671875,787.7289428710938
415,781.2820434570312,794.981689453125,800.2197875976562,793.3699340820312
416,781.2820434570312,790.1465454101562,798.6080322265625,790.1465454101562
417,782.087890625,787.3259887695312,791.7582397460938,781.2820434570312
418,787.7289428710938,786.5201416015625,791.3552856445312,782.893798828125
419,787.7289428710938,788.1318969726562,794.981689453125,788.5347900390625
420,787.3259887695312,792.5640869140625,790.952392578125,792.1611938476562
421,793.3699340820312,794.5787353515625,791.7582397460938,792.5640869140625
422,796.1904907226562,792.967041015625,797.8021850585938,792.5640869140625
423,798.2051391601562,789.3406372070312,797.8021850585938,794.981689453125
424,796.996337890625,790.5494384765625,794.1758422851562,792.967041015625
425,794.981689453125,796.5933837890625,793.3699340820312,784.5054931640625
426,795.7875366210938,800.6226806640625,790.5494384765625,791.3552856445312
427,792.5640869140625,794.1758422851562,790.1465454101562,798.2051391601562
428,794.1758422851562,790.5494384765625,795.7875366210938,801.8314819335938
429,799.8168334960938,794.1758422851562,795.3846435546875,797.3992919921875
430,803.4432373046875,787.3259887695312,790.1465454101562,794.981689453125
431,796.5933837890625,782.087890625,791.3552856445312,798.2051391601562
432,791.3552856445312,786.1171875,793.3699340820312,798.6080322265625
433,787.3259887695312,788.1318969726562,788.5347900390625,797.3992919921875
434,786.923095703125,791.7582397460938,784.5054931640625,796.5933837890625
435,794.1758422851562,791.3552856445312,788.5347900390625,801.8314819335938
436,792.967041015625,790.952392578125,795.3846435546875,796.996337890625
437,788.937744140625,797.8021850585938,793.7728881835938,786.1171875
438,789.7435913085938,799.4139404296875,792.967041015625,792.1611938476562
439,794.981689453125,797.8021850585938,795.7875366210938,796.1904907226562
440,798.2051391601562,797.8021850585938,798.2051391601562,793.3699340820312
441,794.5787353515625,791.3552856445312,800.2197875976562,789.7435913085938
442,795.3846435546875,786.923095703125,797.8021850585938,784.908447265625
443,801.8314819335938,784.5054931640625,794.1758422851562,787.3259887695312
444,808.2783813476562,789.3406372070312,797.8021850585938,796.5933837890625
445,797.3992919921875,794.5787353515625,793.7728881835938,788.937744140625
446,783.2966918945312,789.3406372070312,787.7289428710938,776.8497924804688
447,786.5201416015625,792.5640869140625,793.3699340820312,783.2966918945312
448,787.7289428710938,794.1758422851562,791.3552856445312,789.7435913085938
449,788.937744140625,788.5347900390625,789.7435913085938,793.3699340820312
450,789.3406372070312,786.1171875,796.1904907226562,799.4139404296875
451,784.1025390625,788.937744140625,799.010986328125,799.010986328125
452,782.893798828125,792.967041015625,796.1904907226562,795.3846435546875
453,782.087890625,794.5787353515625,797.3992919921875,793.3699340820312
454,782.893798828125,788.1318969726562,795.3846435546875,803.4432373046875
455,787.7289428710938,784.1025390625,794.1758422851562,802.2344360351562
456,789.3406372070312,791.3552856445312,797.3992919921875,792.1611938476562
457,790.5494384765625,793.7728881835938,795.7875366210938,797.8021850585938
458,790.5494384765625,794.5787353515625,794.981689453125,801.4285888671875
459,786.5201416015625,793.3699340820312,798.2051391601562,794.5787353515625
460,785.7142944335938,789.3406372070312,797.8021850585938,789.3406372070312
461,788.937744140625,794.1758422851562,795.7875366210938,790.5494384765625
462,787.7289428710938,792.1611938476562,792.1611938476562,793.3699340820312
463,782.4908447265625,790.5494384765625,789.3406372070312,784.908447265625
464,782.4908447265625,789.7435913085938,790.952392578125,783.2966918945312
465,792.1611938476562,790.5494384765625,795.3846435546875,792.1611938476562
466,799.010986328125,794.981689453125,796.1904907226562,799.4139404296875
467,799.8168334960938,792.967041015625,795.7875366210938,795.7875366210938
468,805.8607788085938,791.7582397460938,798.2051391601562,796.1904907226562
469,809.89013671875,791.3552856445312,794.981689453125,802.6373901367188
470,807.069580078125,787.3259887695312,796.996337890625,801.4285888671875
471,803.4432373046875,786.5201416015625,800.2197875976562,798.2051391601562
472,798.2051391601562,785.3113403320312,799.4139404296875,797.8021850585938
473,800.6226806640625,789.7435913085938,802.2344360351562,805.8607788085938
474,802.2344360351562,801.4285888671875,805.054931640625,806.6666870117188
475,797.8021850585938,799.8168334960938,799.8168334960938,795.3846435546875
476,794.5787353515625,791.3552856445312,791.3552856445312,787.7289428710938
477,794.1758422851562,792.5640869140625,793.7728881835938,790.952392578125
478,797.3992919921875,795.7875366210938,796.996337890625,792.1611938476562
479,796.1904907226562,794.981689453125,801.025634765625,792.5640869140625
480,796.996337890625,796.996337890625,802.2344360351562,801.025634765625
481,799.4139404296875,796.1904907226562,798.2051391601562,802.2344360351562
482,796.996337890625,788.1318969726562,801.025634765625,796.5933837890625
483,797.8021850585938,790.5494384765625,805.4578857421875,799.010986328125
484,797.8021850585938,798.2051391601562,803.4432373046875,791.7582397460938
485,792.5640869140625,800.6226806640625,800.6226806640625,787.3259887695312
486,795.3846435546875,801.025634765625,801.8314819335938,792.1611938476562
487,800.6226806640625,793.7728881835938,803.8461303710938,795.3846435546875
488,794.981689453125,792.967041015625,798.6080322265625,794.5787353515625
489,789.7435913085938,793.7728881835938,794.1758422851562,794.981689453125
490,791.7582397460938,789.7435913085938,794.5787353515625,796.1904907226562
491,804.2490844726562,792.1611938476562,799.4139404296875,796.5933837890625
492,804.2490844726562,791.7582397460938,798.6080322265625,795.7875366210938
493,794.1758422851562,788.5347900390625,799.010986328125,795.7875366210938
494,788.1318969726562,789.3406372070312,799.010986328125,795.7875366210938
495,783.6996459960938,794.1758422851562,790.5494384765625,784.5054931640625
496,791.3552856445312,797.8021850585938,789.7435913085938,789.3406372070312
497,799.8168334960938,796.1904907226562,794.1758422851562,800.6226806640625
498,796.1904907226562,794.1758422851562,793.7728881835938,794.5787353515625
499,795.3846435546875,790.952392578125,790.1465454101562,791.3552856445312
500,797.8021850585938,790.952392578125,790.5494384765625,796.1904907226562
501,797.3992919921875,788.5347900390625,793.7728881835938,797.3992919921875
502,801.4285888671875,787.7289428710938,793.3699340820312,794.981689453125
503,794.5787353515625,790.952392578125,795.7875366210938,796.996337890625
504,784.1025390625,797.3992919921875,789.7435913085938,793.3699340820312
505,784.5054931640625,795.7875366210938,789.7435913085938,790.1465454101562
506,785.7142944335938,793.7728881835938,796.1904907226562,792.1611938476562
507,786.923095703125,801.4285888671875,793.3699340820312,787.3259887695312
508,793.7728881835938,805.054931640625,788.5347900390625,793.7728881835938
509,791.7582397460938,798.6080322265625,792.1611938476562,786.5201416015625
510,789.7435913085938,787.3259887695312,792.1611938476562,776.8497924804688
511,799.010986328125,788.5347900390625,789.3406372070312,784.5054931640625
512,807.069580078125,790.5494384765625,791.7582397460938,787.7289428710938
513,801.4285888671875,792.1611938476562,792.1611938476562,781.6849975585938
514,797.8021850585938,794.5787353515625,794.5787353515625,783.6996459960938
515,805.8607788085938,796.5933837890625,801.4285888671875,796.1904907226562
516,797.8021850585938,803.4432373046875,802.2344360351562,799.4139404296875
517,786.5201416015625,794.1758422851562,799.010986328125,794.1758422851562
518,787.7289428710938,788.5347900390625,793.7728881835938,789.7435913085938
519,789.7435913085938,789.3406372070312,790.1465454101562,792.967041015625
520,793.3699340820312,790.1465454101562,793.7728881835938,805.8607788085938
521,795.3846435546875,796.996337890625,796.5933837890625,796.1904907226562
522,795.7875366210938,801.4285888671875,797.8021850585938,791.3552856445312
523,796.1904907226562,801.025634765625,796.5933837890625,794.1758422851562
524,795.3846435546875,801.8314819335938,793.3699340820312,791.3552856445312
525,793.7728881835938,799.010986328125,795.7875366210938,790.1465454101562
526,796.996337890625,792.5640869140625,789.7435913085938,788.1318969726562
527,803.040283203125,793.7728881835938,786.5201416015625,786.1171875
528,800.2197875976562,790.5494384765625,792.5640869140625,786.5201416015625
529,792.967041015625,785.3113403320312,796.996337890625,790.1465454101562
530,786.1171875,788.1318969726562,796.1904907226562,794.5787353515625
531,786.923095703125,788.5347900390625,792.5640869140625,799.4139404296875
532,785.7142944335938,787.7289428710938,795.7875366210938,794.1758422851562
533,782.087890625,793.3699340820312,797.8021850585938,787.7289428710938
534,782.893798828125,799.8168334960938,794.1758422851562,788.937744140625
535,780.0732421875,801.4285888671875,794.1758422851562,787.3259887695312
536,783.6996459960938,799.4139404296875,790.1465454101562,784.908447265625
537,786.5201416015625,792.967041015625,789.3406372070312,789.7435913085938
538,788.1318969726562,792.5640869140625,796.1904907226562,792.967041015625
539,795.3846435546875,793.3699340820312,798.2051391601562,794.5787353515625
540,790.1465454101562,784.908447265625,792.1611938476562,793.3699340820312
541,785.3113403320312,790.5494384765625,792.5640869140625,794.1758422851562
542,790.5494384765625,794.5787353515625,798.6080322265625,801.8314819335938
543,790.1465454101562,787.7289428710938,796.1904907226562,804.6520385742188
544,786.923095703125,787.7289428710938,795.7875366210938,795.7875366210938
545,788.937744140625,793.3699340820312,793.7728881835938,789.7435913085938
546,788.937744140625,797.8021850585938,794.981689453125,792.967041015625
547,792.1611938476562,799.8168334960938,799.8168334960938,796.996337890625
548,794.1758422851562,791.3552856445312,803.4432373046875,795.7875366210938
549,788.5347900390625,786.5201416015625,803.8461303710938,793.7728881835938
550,786.5201416015625,790.1465454101562,797.8021850585938,793.3699340820312
551,784.908447265625,788.937744140625,792.967041015625,792.5640869140625
552,779.2673950195312,789.3406372070312,793.3699340820312,789.7435913085938
553,780.0732421875,790.1465454101562,793.7728881835938,787.3259887695312
554,787.7289428710938,786.5201416015625,797.8021850585938,794.1758422851562
555,797.8021850585938,784.1025390625,799.010986328125,795.3846435546875
556,800.2197875976562,790.952392578125,797.3992919921875,788.937744140625
557,787.3259887695312,796.996337890625,799.010986328125,787.7289428710938
558,779.2673950195312,795.7875366210938,796.996337890625,788.5347900390625
559,780.0732421875,794.5787353515625,796.1904907226562,780.4761962890625
560,793.7728881835938,793.7728881835938,794.981689453125,790.952392578125
561,796.1904907226562,798.2051391601562,792.967041015625,792.5640869140625
562,791.3552856445312,802.2344360351562,799.8168334960938,782.4908447265625
563,794.5787353515625,799.010986328125,796.996337890625,784.908447265625
564,795.7875366210938,796.996337890625,787.3259887695312,784.5054931640625
565,794.1758422851562,787.3259887695312,785.3113403320312,786.1171875
566,793.3699340820312,786.5201416015625,787.3259887695312,793.7728881835938
567,785.3113403320312,788.937744140625,792.967041015625,790.952392578125
568,787.7289428710938,793.3699340820312,794.1758422851562,793.3699340820312
569,798.6080322265625,795.7875366210938,790.952392578125,802.6373901367188
570,794.5787353515625,793.3699340820312,793.3699340820312,799.010986328125
571,791.3552856445312,800.6226806640625,790.1465454101562,796.1904907226562
572,795.7875366210938,807.069580078125,786.923095703125,801.025634765625
573,803.040283203125,804.6520385742188,789.7435913085938,800.6226806640625
574,803.8461303710938,805.054931640625,795.3846435546875,796.5933837890625
575,797.8021850585938,803.040283203125,801.4285888671875,796.1904907226562
576,798.2051391601562,797.8021850585938,797.3992919921875,801.8314819335938
577,803.8461303710938,794.1758422851562,792.1611938476562,802.2344360351562
578,796.5933837890625,795.3846435546875,793.7728881835938,794.981689453125
579,790.952392578125,802.2344360351562,794.1758422851562,793.7728881835938
580,791.3552856445312,795.7875366210938,795.3846435546875,797.3992919921875
581,788.937744140625,788.1318969726562,801.8314819335938,800.6226806640625
582,790.1465454101562,803.040283203125,804.6520385742188,793.7728881835938
583,790.1465454101562,808.2783813476562,796.5933837890625,788.937744140625
584,793.3699340820312,799.010986328125,790.1465454101562,789.3406372070312
585,796.1904907226562,793.3699340820312,790.5494384765625,790.5494384765625
586,794.1758422851562,795.3846435546875,790.952392578125,789.7435913085938
587,793.7728881835938,797.3992919921875,795.7875366210938,790.5494384765625
588,792.1611938476562,791.7582397460938,797.8021850585938,783.6996459960938
589,790.952392578125,791.7582397460938,796.5933837890625,779.2673950195312
590,789.3406372070312,794.981689453125,791.3552856445312,782.893798828125
591,787.7289428710938,793.3699340820312,792.1611938476562,787.7289428710938
592,784.1025390625,785.3113403320312,793.7728881835938,792.967041015625
593,784.5054931640625,790.1465454101562,793.7728881835938,790.5494384765625
594,789.3406372070312,801.4285888671875,788.1318969726562,784.1025390625
595,788.5347900390625,796.996337890625,781.2820434570312,787.7289428710938
596,788.937744140625,786.5201416015625,786.1171875,784.908447265625
597,789.3406372070312,786.923095703125,791.3552856445312,785.3113403320312
598,791.7582397460938,791.7582397460938,792.1611938476562,792.5640869140625
599,794.981689453125,790.1465454101562,791.7582397460938,789.3406372070312
600,795.3846435546875,793.3699340820312,792.967041015625,792.1611938476562
601,794.5787353515625,792.1611938476562,798.6080322265625,797.3992919921875
602,796.996337890625,789.3406372070312,798.6080322265625,798.2051391601562
603,796.1904907226562,790.952392578125,792.5640869140625,797.3992919921875
604,796.1904907226562,788.5347900390625,794.1758422851562,795.7875366210938
605,798.6080322265625,782.087890625,799.8168334960938,790.1465454101562
606,799.4139404296875,785.7142944335938,799.4139404296875,788.937744140625
607,801.8314819335938,796.5933837890625,795.7875366210938,798.6080322265625
608,805.8607788085938,799.4139404296875,796.1904907226562,803.040283203125
609,801.025634765625,803.040283203125,798.6080322265625,793.7728881835938
610,791.3552856445312,799.8168334960938,792.5640869140625,786.1171875
611,790.952392578125,790.952392578125,791.3552856445312,793.3699340820312
612,792.967041015625,786.1171875,795.3846435546875,796.5933837890625
613,794.1758422851562,792.1611938476562,799.4139404296875,789.3406372070312
614,793.7728881835938,793.7728881835938,795.3846435546875,789.3406372070312
615,784.908447265625,792.967041015625,788.5347900390625,790.952392578125
616,782.893798828125,792.967041015625,789.7435913085938,794.981689453125
617,782.4908447265625,788.1318969726562,792.1611938476562,788.5347900390625
618,786.1171875,786.923095703125,790.5494384765625,786.5201416015625
619,793.3699340820312,789.3406372070312,787.3259887695312,790.1465454101562
620,790.952392578125,800.2197875976562,788.5347900390625,790.952392578125
621,786.923095703125,801.025634765625,792.967041015625,798.6080322265625
622,790.1465454101562,793.3699340820312,793.7728881835938,799.4139404296875
623,788.5347900390625,794.5787353515625,788.5347900390625,790.5494384765625
624,786.5201416015625,791.7582397460938,788.937744140625,790.1465454101562
625,789.3406372070312,787.3259887695312,790.952392578125,798.2051391601562
626,794.981689453125,786.923095703125,786.923095703125,803.8461303710938
627,799.4139404296875,793.3699340820312,790.952392578125,804.2490844726562
628,799.010986328125,789.7435913085938,796.996337890625,801.025634765625
629,798.6080322265625,780.879150390625,794.5787353515625,800.2197875976562
630,797.3992919921875,787.3259887695312,783.6996459960938,797.8021850585938
631,793.7728881835938,789.3406372070312,783.6996459960938,793.7728881835938
632,785.7142944335938,790.1465454101562,790.1465454101562,789.3406372070312
633,786.1171875,793.3699340820312,789.7435913085938,784.908447265625
634,794.1758422851562,794.5787353515625,793.7728881835938,792.5640869140625
635,794.5787353515625,796.996337890625,794.1758422851562,796.996337890625
636,788.1318969726562,798.6080322265625,791.7582397460938,787.7289428710938
637,789.7435913085938,794.1758422851562,790.952392578125,782.893798828125
638,792.5640869140625,792.1611938476562,792.1611938476562,788.5347900390625
639,793.7728881835938,794.5787353515625,794.5787353515625,801.4285888671875
640,786.5201416015625,790.5494384765625,797.8021850585938,793.7728881835938
641,787.7289428710938,785.7142944335938,796.996337890625,784.1025390625
642,788.937744140625,790.952392578125,797.3992919921875,788.5347900390625
643,788.5347900390625,797.8021850585938,796.5933837890625,793.3699340820312
644,791.3552856445312,796.996337890625,792.967041015625,790.952392578125
645,784.1025390625,793.3699340820312,787.3259887695312,792.5640869140625
646,786.1171875,798.6080322265625,789.3406372070312,803.4432373046875
647,794.981689453125,797.8021850585938,793.7728881835938,804.2490844726562
648,794.1758422851562,789.3406372070312,790.5494384765625,799.8168334960938
649,794.1758422851562,792.5640869140625,787.7289428710938,790.1465454101562
650,798.2051391601562,797.8021850585938,786.923095703125,792.5640869140625
651,798.2051391601562,797.3992919921875,787.3259887695312,795.7875366210938
652,800.6226806640625,796.996337890625,788.1318969726562,791.7582397460938
653,806.6666870117188,791.7582397460938,788.5347900390625,795.7875366210938
654,803.8461303710938,794.1758422851562,788.937744140625,795.3846435546875
655,792.967041015625,792.967041015625,790.1465454101562,787.3259887695312
656,787.3259887695312,787.7289428710938,789.7435913085938,790.5494384765625
657,789.7435913085938,794.1758422851562,788.1318969726562,792.967041015625
658,789.7435913085938,792.5640869140625,789.3406372070312,790.5494384765625
659,791.7582397460938,784.908447265625,792.5640869140625,786.5201416015625
660,792.967041015625,786.1171875,791.3552856445312,778.8644409179688
661,789.7435913085938,791.3552856445312,786.1171875,781.6849975585938
662,789.3406372070312,796.996337890625,792.5640869140625,793.7728881835938
663,789.3406372070312,792.5640869140625,801.4285888671875,794.1758422851562
664,787.3259887695312,780.0732421875,797.3992919921875,790.952392578125
665,786.1171875,784.5054931640625,793.7728881835938,794.981689453125
666,786.5201416015625,784.1025390625,790.952392578125,793.7728881835938
667,795.7875366210938,785.7142944335938,790.1465454101562,801.4285888671875
668,802.6373901367188,794.5787353515625,797.3992919921875,810.2930297851562
669,790.1465454101562,792.5640869140625,795.3846435546875,793.3699340820312
670,790.952392578125,793.3699340820312,790.1465454101562,791.3552856445312
671,796.5933837890625,795.7875366210938,796.996337890625,801.8314819335938
672,792.967041015625,796.996337890625,798.6080322265625,800.2197875976562
673,793.7728881835938,794.1758422851562,800.6226806640625,802.6373901367188
674,788.937744140625,790.952392578125,803.8461303710938,800.6226806640625
675,788.937744140625,796.1904907226562,799.4139404296875,793.7728881835938
676,790.1465454101562,786.5201416015625,791.7582397460938,782.4908447265625
677,792.967041015625,784.908447265625,788.1318969726562,786.1171875
678,799.8168334960938,789.3406372070312,796.5933837890625,794.5787353515625
679,799.4139404296875,785.7142944335938,796.996337890625,786.923095703125
680,797.8021850585938,789.3406372070312,791.3552856445312,782.893798828125
681,799.010986328125,795.3846435546875,793.3699340820312,792.5640869140625
682,797.8021850585938,796.996337890625,797.8021850585938,799.010986328125
683,796.996337890625,798.2051391601562,796.1904907226562,803.040283203125
684,800.2197875976562,796.1904907226562,788.1318969726562,803.8461303710938
685,799.4139404296875,795.3846435546875,788.5347900390625,797.8021850585938
686,794.1758422851562,800.2197875976562,797.3992919921875,797.3992919921875
687,790.1465454101562,794.981689453125,798.6080322265625,794.5787353515625
688,788.937744140625,789.3406372070312,795.7875366210938,796.1904907226562
689,784.908447265625,788.5347900390625,793.3699340820312,802.2344360351562
690,790.1465454101562,788.1318969726562,795.3846435546875,801.8314819335938
691,794.981689453125,792.967041015625,800.2197875976562,799.4139404296875
692,788.5347900390625,795.7875366210938,791.3552856445312,792.967041015625
693,785.7142944335938,793.3699340820312,787.7289428710938,788.1318969726562
694,787.7289428710938,790.5494384765625,793.7728881835938,786.923095703125
695,792.1611938476562,789.7435913085938,795.3846435546875,785.7142944335938
696,796.1904907226562,793.7728881835938,793.7728881835938,788.1318969726562
697,792.967041015625,794.981689453125,792.967041015625,787.7289428710938
698,791.7582397460938,798.2051391601562,794.981689453125,790.952392578125
699,794.981689453125,796.1904907226562,796.996337890625,792.1611938476562
700,801.025634765625,797.3992919921875,796.1904907226562,797.3992919921875
701,803.040283203125,801.8314819335938,799.4139404296875,800.2197875976562
702,799.8168334960938,795.3846435546875,800.2197875976562,795.7875366210938
703,797.8021850585938,795.3846435546875,798.6080322265625,796.1904907226562
704,799.4139404296875,807.87548828125,800.6226806640625,802.2344360351562
705,798.2051391601562,810.2930297851562,804.6520385742188,795.7875366210938
706,798.2051391601562,801.4285888671875,802.6373901367188,797.3992919921875
707,803.8461303710938,801.025634765625,797.3992919921875,804.6520385742188
708,804.2490844726562,805.4578857421875,796.996337890625,798.2051391601562
709,802.6373901367188,806.2637329101562,797.3992919921875,800.6226806640625
710,796.996337890625,802.2344360351562,794.1758422851562,801.4285888671875
711,793.3699340820312,788.5347900390625,786.5201416015625,799.4139404296875
712,798.2051391601562,789.7435913085938,790.952392578125,801.4285888671875
713,794.1758422851562,794.981689453125,796.996337890625,794.981689453125
714,798.2051391601562,797.3992919921875,795.3846435546875,795.7875366210938
715,803.4432373046875,795.7875366210938,799.4139404296875,807.4725341796875
716,795.7875366210938,792.5640869140625,801.8314819335938,804.6520385742188
717,800.6226806640625,800.2197875976562,796.5933837890625,802.6373901367188
718,809.4871826171875,803.8461303710938,796.5933837890625,803.8461303710938
719,805.054931640625,798.6080322265625,794.5787353515625,798.6080322265625
720,801.4285888671875,802.2344360351562,794.5787353515625,794.5787353515625
721,802.6373901367188,807.4725341796875,796.5933837890625,793.3699340820312
722,801.025634765625,800.6226806640625,792.5640869140625,792.967041015625
723,796.1904907226562,793.7728881835938,794.5787353515625,795.3846435546875
724,793.3699340820312,796.1904907226562,797.8021850585938,788.5347900390625
725,795.3846435546875,795.7875366210938,794.981689453125,783.6996459960938
726,794.981689453125,798.2051391601562,793.7728881835938,787.7289428710938
727,790.1465454101562,794.5787353515625,789.3406372070312,786.923095703125
728,786.5201416015625,786.1171875,790.1465454101562,785.3113403320312
729,791.3552856445312,792.1611938476562,803.8461303710938,791.3552856445312
730,793.3699340820312,792.967041015625,801.8314819335938,794.1758422851562
731,787.7289428710938,786.923095703125,794.981689453125,789.7435913085938
732,783.6996459960938,789.3406372070312,792.1611938476562,786.1171875
733,784.908447265625,796.996337890625,789.3406372070312,789.3406372070312
734,786.5201416015625,793.7728881835938,792.5640869140625,794.1758422851562
735,787.3259887695312,789.3406372070312,794.981689453125,792.5640869140625
736,788.5347900390625,790.1465454101562,794.981689453125,792.967041015625
737,789.3406372070312,785.3113403320312,797.8021850585938,800.2197875976562
738,789.3406372070312,786.5201416015625,794.5787353515625,797.3992919921875
739,790.952392578125,788.937744140625,792.5640869140625,793.7728881835938
740,789.3406372070312,790.1465454101562,791.3552856445312,792.1611938476562
741,794.1758422851562,793.7728881835938,787.7289428710938,789.7435913085938
742,794.1758422851562,790.5494384765625,787.7289428710938,786.1171875
743,785.3113403320312,787.3259887695312,787.3259887695312,786.1171875
744,787.7289428710938,790.952392578125,786.5201416015625,787.3259887695312
745,792.967041015625,792.5640869140625,788.937744140625,789.7435913085938
746,792.967041015625,796.5933837890625,788.1318969726562,798.6080322265625
747,794.1758422851562,796.996337890625,788.5347900390625,791.7582397460938
748,799.8168334960938,792.1611938476562,792.967041015625,786.5201416015625
749,798.2051391601562,784.908447265625,796.996337890625,789.3406372070312
750,786.5201416015625,785.3113403320312,788.1318969726562,790.1465454101562
751,782.893798828125,794.981689453125,781.2820434570312,792.5640869140625
752,783.6996459960938,794.1758422851562,786.5201416015625,786.1171875
753,784.1025390625,790.5494384765625,785.7142944335938,780.4761962890625
754,793.7728881835938,789.7435913085938,789.3406372070312,789.3406372070312
755,797.3992919921875,792.967041015625,798.2051391601562,790.952392578125
756,792.5640869140625,794.1758422851562,799.4139404296875,786.1171875
757,794.981689453125,791.3552856445312,793.7728881835938,792.967041015625
758,794.981689453125,791.3552856445312,790.5494384765625,801.025634765625
759,790.1465454101562,792.967041015625,793.7728881835938,797.3992919921875
760,792.967041015625,794.1758422851562,794.5787353515625,790.1465454101562
761,795.7875366210938,794.981689453125,790.1465454101562,789.7435913085938
762,792.967041015625,798.6080322265625,786.923095703125,793.3699340820312
763,788.5347900390625,793.7728881835938,788.937744140625,796.5933837890625
764,792.1611938476562,785.7142944335938,797.3992919921875,796.996337890625
765,797.3992919921875,784.5054931640625,796.5933837890625,796.1904907226562
766,791.3552856445312,787.3259887695312,788.1318969726562,798.2051391601562
767,781.2820434570312,788.5347900390625,786.1171875,787.3259887695312
768,787.7289428710938,792.1611938476562,789.3406372070312,784.908447265625
769,790.5494384765625,795.3846435546875,790.952392578125,787.7289428710938
770,786.5201416015625,798.2051391601562,791.3552856445312,784.1025390625
771,785.7142944335938,799.010986328125,787.7289428710938,782.893798828125
772,785.7142944335938,793.7728881835938,788.937744140625,784.1025390625
773,787.3259887695312,792.5640869140625,795.3846435546875,786.1171875
774,788.937744140625,795.7875366210938,796.5933837890625,782.893798828125
775,788.1318969726562,797.3992919921875,794.981689453125,779.6703491210938
776,786.923095703125,796.5933837890625,794.1758422851562,781.2820434570312
777,793.7728881835938,799.4139404296875,796.1904907226562,789.3406372070312
778,796.996337890625,793.3699340820312,800.6226806640625,795.3846435546875
779,788.5347900390625,790.952392578125,798.2051391601562,792.967041015625
780,788.937744140625,795.3846435546875,793.7728881835938,790.1465454101562
781,797.8021850585938,794.5787353515625,790.952392578125,789.3406372070312
782,804.6520385742188,794.5787353515625,788.5347900390625,792.967041015625
783,804.6520385742188,797.8021850585938,791.7582397460938,796.5933837890625
784,799.010986328125,794.981689453125,791.7582397460938,803.040283203125
785,798.2051391601562,793.7728881835938,786.5201416015625,806.6666870117188
786,800.2197875976562,797.3992919921875,788.1318969726562,797.8021850585938
787,798.2051391601562,797.8021850585938,789.7435913085938,801.4285888671875
788,797.8021850585938,795.3846435546875,788.937744140625,808.6813354492188
789,792.5640869140625,788.5347900390625,788.1318969726562,796.996337890625
790,788.1318969726562,784.5054931640625,788.5347900390625,791.7582397460938
791,788.5347900390625,791.3552856445312,790.5494384765625,801.4285888671875
792,788.1318969726562,799.010986328125,794.5787353515625,801.4285888671875
793,791.7582397460938,792.5640869140625,793.7728881835938,798.2051391601562
794,791.7582397460938,790.5494384765625,792.5640869140625,789.7435913085938
795,790.1465454101562,791.3552856445312,791.7582397460938,783.2966918945312
796,789.7435913085938,788.1318969726562,790.5494384765625,780.879150390625
797,786.923095703125,789.7435913085938,790.5494384765625,780.0732421875
798,784.1025390625,789.7435913085938,790.952392578125,782.4908447265625
799,783.6996459960938,794.5787353515625,790.1465454101562,787.7289428710938
800,782.893798828125,790.952392578125,791.7582397460938,790.1465454101562
801,786.923095703125,788.937744140625,794.981689453125,789.3406372070312
802,792.1611938476562,794.1758422851562,790.952392578125,791.3552856445312
803,794.981689453125,787.3259887695312,793.3699340820312,797.8021850585938
804,796.5933837890625,787.7289428710938,799.4139404296875,802.6373901367188
805,794.5787353515625,790.5494384765625,801.025634765625,798.6080322265625
806,791.7582397460938,787.7289428710938,799.4139404296875,791.3552856445312
807,793.7728881835938,786.5201416015625,794.981689453125,796.5933837890625
808,794.5787353515625,789.7435913085938,798.2051391601562,799.8168334960938
809,791.3552856445312,793.7728881835938,802.2344360351562,786.5201416015625
810,787.3259887695312,795.7875366210938,801.4285888671875,780.0732421875
811,784.908447265625,796.5933837890625,796.1904907226562,781.6849975585938
812,787.7289428710938,796.996337890625,793.3699340820312,788.1318969726562
813,792.1611938476562,797.8021850585938,796.996337890625,791.7582397460938
814,797.3992919921875,795.3846435546875,797.3992919921875,788.5347900390625
815,792.1611938476562,792.1611938476562,793.3699340820312,789.7435913085938
816,785.3113403320312,790.952392578125,794.1758422851562,793.7728881835938
817,787.7289428710938,796.996337890625,792.5640869140625,791.3552856445312
818,790.952392578125,806.2637329101562,791.3552856445312,793.7728881835938
819,792.5640869140625,803.4432373046875,795.3846435546875,801.4285888671875
820,788.1318969726562,801.025634765625,796.1904907226562,790.5494384765625
821,783.6996459960938,801.025634765625,794.981689453125,785.7142944335938
822,786.923095703125,796.1904907226562,794.5787353515625,792.1611938476562
823,794.981689453125,793.3699340820312,797.8021850585938,792.5640869140625
824,802.6373901367188,795.7875366210938,799.010986328125,795.7875366210938
825,800.6226806640625,790.5494384765625,795.7875366210938,797.3992919921875
826,796.5933837890625,786.5201416015625,794.5787353515625,794.5787353515625
827,798.2051391601562,791.3552856445312,797.3992919921875,794.5787353515625
828,797.3992919921875,789.7435913085938,797.8021850585938,795.3846435546875
829,801.8314819335938,790.952392578125,796.5933837890625,795.7875366210938
830,809.4871826171875,799.4139404296875,800.6226806640625,801.8314819335938
831,802.2344360351562,798.6080322265625,798.2051391601562,806.6666870117188
832,793.7728881835938,799.010986328125,797.8021850585938,800.6226806640625
833,795.3846435546875,796.1904907226562,801.4285888671875,794.5787353515625
834,794.1758422851562,791.7582397460938,801.4285888671875,791.7582397460938
835,792.1611938476562,798.6080322265625,799.010986328125,792.5640869140625
836,791.3552856445312,794.5787353515625,792.5640869140625,792.967041015625
837,788.1318969726562,782.4908447265625,790.5494384765625,790.952392578125
838,790.952392578125,785.3113403320312,792.5640869140625,795.3846435546875
839,793.3699340820312,791.7582397460938,788.1318969726562,799.4139404296875
840,795.3846435546875,795.7875366210938,793.3699340820312,803.4432373046875
841,796.1904907226562,792.5640869140625,796.1904907226562,803.4432373046875
842,788.5347900390625,789.3406372070312,787.7289428710938,801.025634765625
843,786.5201416015625,792.5640869140625,784.5054931640625,799.010986328125
844,794.1758422851562,799.010986328125,789.7435913085938,798.2051391601562
845,792.967041015625,794.5787353515625,790.5494384765625,797.8021850585938
846,788.5347900390625,793.3699340820312,792.1611938476562,798.6080322265625
847,791.3552856445312,793.7728881835938,791.7582397460938,790.1465454101562
848,793.3699340820312,792.1611938476562,784.1025390625,783.6996459960938
849,792.967041015625,786.5201416015625,783.6996459960938,785.3113403320312
850,801.025634765625,786.5201416015625,790.952392578125,786.1171875
851,803.8461303710938,793.7728881835938,792.5640869140625,790.952392578125
852,791.3552856445312,798.6080322265625,791.3552856445312,794.5787353515625
853,791.3552856445312,800.2197875976562,789.7435913085938,798.6080322265625
854,798.6080322265625,794.981689453125,792.1611938476562,800.6226806640625
855,797.3992919921875,795.3846435546875,792.967041015625,799.8168334960938
856,794.1758422851562,801.8314819335938,792.1611938476562,794.5787353515625
857,792.967041015625,798.6080322265625,788.5347900390625,794.5787353515625
858,791.7582397460938,789.7435913085938,789.3406372070312,799.8168334960938
859,790.1465454101562,792.1611938476562,790.1465454101562,794.1758422851562
860,792.967041015625,794.5787353515625,791.7582397460938,797.3992919921875
861,793.7728881835938,796.1904907226562,790.5494384765625,796.1904907226562
862,790.1465454101562,798.6080322265625,786.1171875,784.5054931640625
863,783.6996459960938,792.967041015625,790.5494384765625,783.6996459960938
864,781.6849975585938,790.952392578125,794.5787353515625,788.5347900390625
865,785.7142944335938,789.7435913085938,791.3552856445312,786.5201416015625
866,786.5201416015625,788.5347900390625,789.7435913085938,788.5347900390625
867,784.1025390625,788.1318969726562,793.7728881835938,790.1465454101562
868,782.4908447265625,782.893798828125,791.3552856445312,787.7289428710938
869,788.937744140625,784.5054931640625,794.5787353515625,803.4432373046875
870,796.1904907226562,794.1758422851562,801.025634765625,799.4139404296875
871,795.7875366210938,796.1904907226562,803.040283203125,794.5787353515625
872,798.6080322265625,795.7875366210938,799.010986328125,801.8314819335938
873,795.3846435546875,796.5933837890625,798.2051391601562,799.8168334960938
874,788.1318969726562,797.8021850585938,799.010986328125,795.7875366210938
875,791.3552856445312,796.5933837890625,798.2051391601562,793.7728881835938
876,793.7728881835938,793.3699340820312,800.2197875976562,793.3699340820312
877,789.7435913085938,796.1904907226562,795.3846435546875,791.3552856445312
878,789.7435913085938,790.5494384765625,794.5787353515625,794.5787353515625
879,794.5787353515625,787.7289428710938,796.5933837890625,795.7875366210938
880,800.6226806640625,798.2051391601562,795.3846435546875,792.1611938476562
881,802.2344360351562,792.1611938476562,793.3699340820312,788.937744140625
882,800.2197875976562,789.7435913085938,795.7875366210938,780.879150390625
883,802.2344360351562,798.2051391601562,797.3992919921875,782.4908447265625
884,804.6520385742188,796.996337890625,793.3699340820312,790.1465454101562
885,799.010986328125,793.3699340820312,792.5640869140625,787.3259887695312
886,798.6080322265625,794.1758422851562,798.2051391601562,786.923095703125
887,805.4578857421875,795.7875366210938,796.5933837890625,792.5640869140625
888,802.6373901367188,797.3992919921875,789.7435913085938,790.5494384765625
889,792.5640869140625,794.5787353515625,790.5494384765625,789.7435913085938
890,795.3846435546875,795.3846435546875,799.4139404296875,797.8021850585938
891,798.2051391601562,796.1904907226562,794.1758422851562,798.2051391601562
892,793.7728881835938,792.967041015625,788.5347900390625,798.2051391601562
893,794.1758422851562,792.967041015625,797.8021850585938,792.967041015625
894,802.6373901367188,789.7435913085938,802.2344360351562,794.5787353515625
895,801.8314819335938,788.1318969726562,793.7728881835938,801.8314819335938
896,794.981689453125,789.7435913085938,792.5640869140625,803.8461303710938
897,792.967041015625,786.923095703125,792.967041015625,799.8168334960938
898,792.967041015625,777.6557006835938,789.7435913085938,792.967041015625
899,792.5640869140625,779.2673950195312,788.5347900390625,785.3113403320312
900,793.3699340820312,790.952392578125,795.3846435546875,785.7142944335938
901,790.952392578125,789.7435913085938,796.5933837890625,788.1318969726562
902,788.937744140625,786.1171875,794.981689453125,785.7142944335938
903,794.1758422851562,786.5201416015625,796.1904907226562,792.967041015625
904,792.1611938476562,788.937744140625,791.3552856445312,790.5494384765625
905,792.1611938476562,784.5054931640625,795.7875366210938,784.1025390625
906,798.6080322265625,781.2820434570312,801.4285888671875,795.7875366210938
907,797.3992919921875,789.3406372070312,799.8168334960938,801.8314819335938
908,793.3699340820312,792.1611938476562,796.5933837890625,799.4139404296875
909,784.1025390625,791.7582397460938,789.3406372070312,792.1611938476562
910,784.908447265625,794.1758422851562,785.7142944335938,790.1465454101562
911,799.010986328125,788.937744140625,788.937744140625,794.1758422851562
912,803.040283203125,787.3259887695312,792.967041015625,799.8168334960938
913,795.3846435546875,798.2051391601562,794.5787353515625,797.3992919921875
914,793.7728881835938,799.8168334960938,790.952392578125,791.7582397460938
915,798.6080322265625,795.7875366210938,790.952392578125,805.054931640625
916,795.7875366210938,791.3552856445312,793.3699340820312,805.054931640625
917,794.981689453125,788.937744140625,796.996337890625,799.010986328125
918,795.3846435546875,787.7289428710938,800.6226806640625,802.6373901367188
919,791.3552856445312,791.3552856445312,794.5787353515625,797.8021850585938
920,795.3846435546875,798.6080322265625,792.967041015625,799.010986328125
921,800.2197875976562,800.6226806640625,795.7875366210938,799.8168334960938
922,798.6080322265625,803.040283203125,796.1904907226562,794.981689453125
923,794.1758422851562,804.2490844726562,797.3992919921875,792.1611938476562
924,788.1318969726562,800.6226806640625,800.6226806640625,793.7728881835938
925,787.7289428710938,803.040283203125,799.8168334960938,797.8021850585938
926,798.6080322265625,796.996337890625,796.5933837890625,800.2197875976562
927,798.2051391601562,786.1171875,792.967041015625,801.025634765625
928,792.967041015625,790.1465454101562,793.7728881835938,791.3552856445312
929,794.981689453125,796.1904907226562,796.5933837890625,786.5201416015625
930,797.8021850585938,799.8168334960938,802.6373901367188,793.7728881835938
931,801.8314819335938,794.5787353515625,800.2197875976562,793.7728881835938
932,800.6226806640625,788.5347900390625,794.1758422851562,786.923095703125
933,798.2051391601562,789.3406372070312,796.1904907226562,785.3113403320312
934,796.1904907226562,792.967041015625,796.1904907226562,786.5201416015625
935,793.3699340820312,792.967041015625,792.967041015625,787.3259887695312
936,789.7435913085938,786.5201416015625,792.967041015625,790.5494384765625
937,789.7435913085938,787.7289428710938,789.7435913085938,790.952392578125
938,794.1758422851562,791.7582397460938,789.3406372070312,796.1904907226562
939,794.5787353515625,795.3846435546875,794.1758422851562,803.4432373046875
940,796.1904907226562,797.3992919921875,798.2051391601562,799.010986328125
941,800.2197875976562,792.967041015625,800.2197875976562,794.1758422851562
942,800.2197875976562,787.3259887695312,801.025634765625,796.996337890625
943,790.5494384765625,792.5640869140625,801.025634765625,790.5494384765625
944,786.1171875,794.981689453125,796.996337890625,784.5054931640625
945,787.7289428710938,797.3992919921875,797.3992919921875,784.1025390625
946,789.3406372070312,797.8021850585938,797.8021850585938,782.893798828125
947,787.7289428710938,789.3406372070312,791.3552856445312,782.893798828125
948,793.3699340820312,793.3699340820312,795.3846435546875,790.1465454101562
949,795.7875366210938,790.952392578125,797.3992919921875,793.3699340820312
950,794.1758422851562,785.7142944335938,792.1611938476562,786.5201416015625
951,796.996337890625,792.1611938476562,788.937744140625,786.1171875
952,797.8021850585938,792.1611938476562,796.1904907226562,790.952392578125
953,799.010986328125,789.3406372070312,801.025634765625,796.1904907226562
954,794.5787353515625,800.6226806640625,797.3992919921875,798.6080322265625
955,787.3259887695312,809.4871826171875,796.996337890625,788.937744140625
956,792.5640869140625,803.8461303710938,801.4285888671875,787.7289428710938
957,790.952392578125,794.981689453125,794.1758422851562,790.952392578125
958,790.5494384765625,796.1904907226562,790.952392578125,787.7289428710938
959,796.996337890625,801.025634765625,799.010986328125,792.1611938476562
960,796.996337890625,799.010986328125,799.010986328125,795.3846435546875
961,797.3992919921875,798.2051391601562,800.6226806640625,792.5640869140625
962,795.7875366210938,793.7728881835938,803.4432373046875,790.952392578125
963,792.1611938476562,794.1758422851562,799.4139404296875,788.1318969726562
964,782.087890625,796.1904907226562,796.1904907226562,789.3406372070312
965,779.6703491210938,794.981689453125,791.7582397460938,792.5640869140625
966,785.7142944335938,800.6226806640625,790.5494384765625,788.5347900390625
967,791.7582397460938,803.040283203125,794.981689453125,789.3406372070312
968,792.5640869140625,801.4285888671875,797.3992919921875,794.1758422851562
969,792.967041015625,794.981689453125,796.5933837890625,794.1758422851562
970,791.3552856445312,784.5054931640625,797.8021850585938,790.1465454101562
971,787.3259887695312,787.3259887695312,794.1758422851562,781.6849975585938
972,787.7289428710938,792.5640869140625,780.0732421875,784.1025390625
973,786.1171875,793.3699340820312,774.4322509765625,794.1758422851562
974,790.952392578125,794.1758422851562,784.5054931640625,794.981689453125
975,796.1904907226562,794.1758422851562,792.967041015625,788.937744140625
976,793.3699340820312,794.1758422851562,788.1318969726562,792.1611938476562
977,794.5787353515625,792.5640869140625,792.5640869140625,803.8461303710938
978,800.6226806640625,790.1465454101562,797.3992919921875,799.010986328125
979,796.1904907226562,784.908447265625,789.3406372070312,788.5347900390625
980,791.7582397460938,789.3406372070312,791.7582397460938,788.937744140625
981,792.5640869140625,790.5494384765625,788.5347900390625,782.893798828125
982,793.7728881835938,784.5054931640625,788.5347900390625,782.893798828125
983,795.7875366210938,784.908447265625,792.5640869140625,788.5347900390625
984,791.7582397460938,782.893798828125,792.967041015625,792.1611938476562
985,788.1318969726562,783.6996459960938,791.7582397460938,786.5201416015625
986,794.5787353515625,797.8021850585938,792.5640869140625,782.087890625
987,792.5640869140625,801.025634765625,795.7875366210938,789.3406372070312
988,791.7582397460938,794.5787353515625,794.1758422851562,800.2197875976562
989,788.1318969726562,788.1318969726562,797.3992919921875,792.967041015625
990,782.4908447265625,784.5054931640625,796.996337890625,786.5201416015625
991,790.1465454101562,792.1611938476562,799.4139404296875,790.952392578125
992,790.952392578125,799.4139404296875,801.4285888671875,793.3699340820312
993,784.908447265625,799.010986328125,797.8021850585938,796.5933837890625
994,788.5347900390625,793.3699340820312,798.6080322265625,797.3992919921875
995,790.5494384765625,794.981689453125,794.981689453125,792.5640869140625
996,790.5494384765625,794.981689453125,791.3552856445312,792.1611938476562
997,799.010986328125,796.996337890625,795.3846435546875,796.5933837890625
998,800.6226806640625,799.010986328125,796.996337890625,795.3846435546875
999,799.010986328125,787.3259887695312,799.010986328125,801.8314819335938
1000,793.7728881835938,790.952392578125,797.3992919921875,809.4871826171875
1001,790.5494384765625,801.025634765625,793.3699340820312,799.8168334960938
1002,792.5640869140625,800.2197875976562,794.981689453125,796.1904907226562
1003,793.3699340820312,796.5933837890625,792.1611938476562,795.7875366210938
1004,795.3846435546875,793.3699340820312,794.1758422851562,793.7728881835938
1005,789.7435913085938,792.967041015625,794.981689453125,790.1465454101562
1006,791.7582397460938,796.1904907226562,793.3699340820312,792.967041015625
1007,795.7875366210938,797.3992919921875,795.7875366210938,795.3846435546875
1008,791.7582397460938,794.981689453125,799.8168334960938,788.937744140625
1009,790.5494384765625,792.967041015625,801.025634765625,787.7289428710938
1010,786.5201416015625,790.5494384765625,799.8168334960938,790.1465454101562
1011,787.7289428710938,781.6849975585938,801.025634765625,799.010986328125
1012,793.3699340820312,781.6849975585938,795.3846435546875,798.2051391601562
1013,796.5933837890625,794.981689453125,790.5494384765625,788.5347900390625
1014,798.6080322265625,797.8021850585938,797.3992919921875,791.3552856445312
1015,796.996337890625,792.967041015625,794.981689453125,786.923095703125
1016,792.967041015625,796.996337890625,790.5494384765625,785.7142944335938
1017,794.1758422851562,797.8021850585938,794.1758422851562,790.1465454101562
1018,788.1318969726562,791.3552856445312,793.7728881835938,786.923095703125
1019,782.4908447265625,789.7435913085938,791.7582397460938,782.893798828125
1020,786.1171875,791.3552856445312,785.7142944335938,784.908447265625
1021,786.5201416015625,786.5201416015625,784.1025390625,786.5201416015625
1022,784.5054931640625,779.6703491210938,788.5347900390625,790.5494384765625
1023,781.2820434570312,783.2966918945312,789.3406372070312,792.5640869140625
1024,783.2966918945312,794.981689453125,789.3406372070312,793.3699340820312
1025,794.1758422851562,792.967041015625,784.5054931640625,802.2344360351562
1026,794.5787353515625,784.5054931640625,786.5201416015625,799.8168334960938
1027,779.6703491210938,790.1465454101562,795.3846435546875,784.1025390625
1028,776.0439453125,790.952392578125,796.996337890625,780.0732421875
1029,776.8497924804688,788.5347900390625,794.5787353515625,785.3113403320312
1030,779.6703491210938,783.6996459960938,794.1758422851562,788.5347900390625
1031,788.1318969726562,781.2820434570312,801.025634765625,799.4139404296875
1032,785.7142944335938,784.5054931640625,802.6373901367188,794.1758422851562
1033,786.1171875,783.6996459960938,795.3846435546875,784.908447265625
1034,788.1318969726562,782.087890625,790.952392578125,789.3406372070312
1035,784.1025390625,784.1025390625,791.7582397460938,785.3113403320312
1036,787.7289428710938,788.937744140625,793.3699340820312,786.1171875
1037,792.1611938476562,794.1758422851562,799.010986328125,790.952392578125
1038,797.3992919921875,794.5787353515625,800.2197875976562,790.5494384765625
1039,805.054931640625,792.5640869140625,794.5787353515625,794.1758422851562
1040,806.6666870117188,792.5640869140625,798.2051391601562,799.010986328125
1041,810.2930297851562,792.1611938476562,805.8607788085938,802.6373901367188
1042,807.4725341796875,789.7435913085938,803.4432373046875,803.040283203125
1043,799.8168334960938,789.7435913085938,799.4139404296875,807.069580078125
1044,803.040283203125,792.5640869140625,799.8168334960938,807.069580078125
1045,798.6080322265625,796.1904907226562,795.3846435546875,801.4285888671875
1046,793.7728881835938,798.2051391601562,792.967041015625,790.5494384765625
1047,798.6080322265625,801.8314819335938,796.996337890625,790.5494384765625
1048,800.2197875976562,801.8314819335938,792.5640869140625,796.5933837890625
1049,799.4139404296875,792.967041015625,795.3846435546875,803.4432373046875
1050,796.1904907226562,782.4908447265625,801.8314819335938,798.6080322265625
1051,797.3992919921875,785.3113403320312,797.3992919921875,785.7142944335938
1052,797.3992919921875,787.3259887695312,795.7875366210938,784.5054931640625
1053,791.7582397460938,790.1465454101562,796.996337890625,781.6849975585938
1054,790.952392578125,796.1904907226562,797.8021850585938,782.893798828125
1055,788.1318969726562,801.025634765625,797.8021850585938,786.5201416015625
1056,786.1171875,796.1904907226562,799.010986328125,789.7435913085938
1057,787.7289428710938,793.3699340820312,799.4139404296875,799.4139404296875
1058,788.937744140625,797.3992919921875,796.996337890625,798.6080322265625
1059,790.5494384765625,798.6080322265625,797.8021850585938,788.5347900390625
1060,789.7435913085938,795.3846435546875,796.996337890625,785.7142944335938
1061,785.7142944335938,788.937744140625,791.3552856445312,788.5347900390625
1062,787.7289428710938,787.7289428710938,792.967041015625,786.5201416015625
1063,786.1171875,792.1611938476562,790.952392578125,776.0439453125
1064,784.5054931640625,792.5640869140625,789.7435913085938,778.05859375
1065,787.3259887695312,794.981689453125,792.5640869140625,788.1318969726562
1066,780.879150390625,795.7875366210938,793.7728881835938,784.908447265625
1067,777.2527465820312,792.1611938476562,793.7728881835938,782.087890625
1068,786.923095703125,789.3406372070312,791.3552856445312,786.923095703125
1069,791.3552856445312,791.3552856445312,794.5787353515625,786.5201416015625
1070,785.7142944335938,786.1171875,794.981689453125,783.6996459960938
1071,778.05859375,788.937744140625,792.5640869140625,785.7142944335938
1072,779.6703491210938,796.5933837890625,792.1611938476562,788.5347900390625
1073,783.2966918945312,793.3699340820312,797.3992919921875,791.7582397460938
1074,782.087890625,793.7728881835938,797.3992919921875,788.1318969726562
1075,788.937744140625,794.1758422851562,791.3552856445312,788.5347900390625
1076,790.5494384765625,794.981689453125,787.7289428710938,782.4908447265625
1077,783.6996459960938,800.6226806640625,790.952392578125,778.4615478515625
1078,784.908447265625,793.3699340820312,794.5787353515625,787.3259887695312
1079,790.952392578125,790.5494384765625,790.952392578125,792.5640869140625
1080,791.7582397460938,794.1758422851562,789.7435913085938,788.937744140625
1081,789.7435913085938,790.952392578125,790.952392578125,790.1465454101562
1082,792.5640869140625,793.3699340820312,795.3846435546875,794.981689453125
1083,796.996337890625,791.7582397460938,796.1904907226562,796.996337890625
1084,800.6226806640625,788.937744140625,792.967041015625,806.6666870117188
1085,801.8314819335938,794.5787353515625,792.967041015625,805.054931640625
1086,798.2051391601562,799.010986328125,791.3552856445312,783.6996459960938
1087,799.8168334960938,793.3699340820312,790.1465454101562,784.5054931640625
1088,799.8168334960938,788.5347900390625,791.3552856445312,792.967041015625
1089,797.3992919921875,791.3552856445312,795.3846435546875,789.3406372070312
1090,798.2051391601562,792.967041015625,792.967041015625,789.3406372070312
1091,796.1904907226562,792.5640869140625,788.937744140625,800.2197875976562
1092,793.7728881835938,788.1318969726562,792.5640869140625,803.4432373046875
1093,787.3259887695312,788.937744140625,790.952392578125,801.4285888671875
1094,790.952392578125,790.952392578125,790.1465454101562,803.4432373046875
1095,797.8021850585938,791.3552856445312,789.3406372070312,801.025634765625
1096,791.3552856445312,788.5347900390625,787.7289428710938,794.981689453125
1097,785.7142944335938,785.7142944335938,792.967041015625,788.937744140625
1098,788.937744140625,786.1171875,796.996337890625,792.1611938476562
1099,790.952392578125,778.4615478515625,789.7435913085938,796.996337890625
1100,790.952392578125,782.893798828125,788.5347900390625,794.5787353515625
1101,794.1758422851562,796.5933837890625,791.7582397460938,789.7435913085938
1102,795.3846435546875,800.2197875976562,791.3552856445312,792.967041015625
1103,794.1758422851562,800.6226806640625,791.7582397460938,795.7875366210938
1104,792.967041015625,796.1904907226562,795.7875366210938,793.3699340820312
1105,792.967041015625,791.3552856445312,792.1611938476562,790.1465454101562
1106,787.7289428710938,792.5640869140625,787.3259887695312,786.923095703125
1107,790.5494384765625,793.7728881835938,790.5494384765625,792.1611938476562
1108,794.1758422851562,788.937744140625,793.3699340820312,789.7435913085938
1109,791.3552856445312,787.3259887695312,794.1758422851562,787.7289428710938
1110,795.3846435546875,792.5640869140625,792.967041015625,792.5640869140625
1111,798.6080322265625,796.5933837890625,796.996337890625,794.981689453125
1112,798.6080322265625,796.1904907226562,804.2490844726562,792.5640869140625
1113,794.5787353515625,798.6080322265625,801.4285888671875,786.5201416015625
1114,788.5347900390625,797.3992919921875,796.5933837890625,781.6849975585938
1115,788.5347900390625,791.7582397460938,795.3846435546875,782.4908447265625
1116,795.7875366210938,794.981689453125,794.981689453125,790.952392578125
1117,798.2051391601562,799.4139404296875,796.1904907226562,793.7728881835938
1118,801.025634765625,798.6080322265625,798.6080322265625,796.1904907226562
1119,803.4432373046875,797.8021850585938,803.4432373046875,806.6666870117188
1120,801.025634765625,788.1318969726562,802.2344360351562,802.6373901367188
1121,796.1904907226562,784.1025390625,798.6080322265625,794.1758422851562
1122,796.1904907226562,794.981689453125,798.2051391601562,792.1611938476562
1123,802.2344360351562,796.1904907226562,798.2051391601562,787.3259887695312
1124,799.4139404296875,793.7728881835938,795.7875366210938,782.893798828125
1125,795.3846435546875,794.981689453125,790.952392578125,790.952392578125
1126,799.8168334960938,794.981689453125,786.923095703125,799.4139404296875
1127,796.996337890625,794.5787353515625,790.1465454101562,796.1904907226562
1128,792.5640869140625,798.2051391601562,793.3699340820312,795.3846435546875
1129,794.5787353515625,796.1904907226562,794.1758422851562,795.3846435546875
1130,798.6080322265625,794.1758422851562,794.5787353515625,794.1758422851562
1131,801.8314819335938,794.981689453125,796.1904907226562,792.5640869140625
1132,792.1611938476562,797.3992919921875,797.8021850585938,789.3406372070312
1133,790.5494384765625,801.8314819335938,793.3699340820312,787.3259887695312
1134,797.3992919921875,803.8461303710938,793.3699340820312,797.3992919921875
1135,790.5494384765625,803.8461303710938,799.010986328125,801.025634765625
1136,787.7289428710938,797.8021850585938,791.3552856445312,789.7435913085938
1137,792.5640869140625,791.3552856445312,784.1025390625,784.1025390625
1138,796.1904907226562,794.981689453125,784.5054931640625,783.6996459960938
1139,795.3846435546875,796.5933837890625,789.3406372070312,781.6849975585938
1140,788.5347900390625,790.5494384765625,792.1611938476562,784.908447265625
1141,788.937744140625,789.3406372070312,793.3699340820312,795.3846435546875
1142,792.967041015625,790.952392578125,795.3846435546875,796.996337890625
1143,791.3552856445312,794.5787353515625,794.5787353515625,790.1465454101562
1144,786.923095703125,798.6080322265625,791.7582397460938,788.1318969726562
1145,790.952392578125,794.981689453125,794.981689453125,794.1758422851562
1146,794.5787353515625,791.3552856445312,799.8168334960938,797.3992919921875
1147,792.1611938476562,795.7875366210938,797.3992919921875,792.967041015625
1148,793.3699340820312,796.1904907226562,791.7582397460938,795.7875366210938
1149,797.3992919921875,792.1611938476562,792.967041015625,804.6520385742188
1150,799.8168334960938,794.5787353515625,802.2344360351562,796.996337890625
1151,796.996337890625,801.8314819335938,798.6080322265625,790.1465454101562
1152,793.3699340820312,801.025634765625,794.981689453125,799.4139404296875
1153,785.7142944335938,791.3552856445312,797.3992919921875,801.4285888671875
1154,784.1025390625,789.7435913085938,796.996337890625,798.6080322265625
1155,791.7582397460938,797.3992919921875,794.981689453125,800.6226806640625
1156,795.7875366210938,799.010986328125,796.996337890625,796.1904907226562
1157,800.2197875976562,801.025634765625,800.2197875976562,802.6373901367188
1158,797.3992919921875,799.4139404296875,799.8168334960938,799.4139404296875
1159,795.3846435546875,799.010986328125,798.6080322265625,782.087890625
1160,795.3846435546875,803.8461303710938,794.981689453125,780.879150390625
1161,792.1611938476562,802.2344360351562,795.3846435546875,786.1171875
1162,794.981689453125,801.4285888671875,797.3992919921875,789.7435913085938
1163,791.7582397460938,794.1758422851562,794.5787353515625,786.1171875
1164,785.3113403320312,797.3992919921875,794.1758422851562,784.1025390625
1165,786.1171875,803.4432373046875,799.010986328125,787.3259887695312
1166,790.952392578125,797.3992919921875,799.8168334960938,790.1465454101562
1167,789.3406372070312,784.5054931640625,798.2051391601562,788.1318969726562
1168,784.908447265625,789.3406372070312,792.1611938476562,793.3699340820312
1169,790.5494384765625,801.025634765625,788.1318969726562,796.1904907226562
1170,793.3699340820312,800.6226806640625,795.3846435546875,788.5347900390625
1171,787.7289428710938,792.1611938476562,794.1758422851562,784.5054931640625
1172,791.3552856445312,795.3846435546875,793.3699340820312,784.5054931640625
1173,799.010986328125,800.6226806640625,796.1904907226562,787.3259887695312
1174,792.5640869140625,792.1611938476562,791.7582397460938,786.923095703125
1175,788.5347900390625,789.7435913085938,788.1318969726562,788.5347900390625
1176,789.7435913085938,789.3406372070312,789.7435913085938,795.3846435546875
1177,785.7142944335938,783.6996459960938,796.5933837890625,796.5933837890625
1178,784.908447265625,790.1465454101562,791.3552856445312,799.010986328125
1179,784.1025390625,798.2051391601562,788.1318969726562,797.8021850585938
1180,788.1318969726562,791.7582397460938,792.967041015625,786.5201416015625
1181,794.1758422851562,796.996337890625,799.010986328125,791.3552856445312
1182,798.6080322265625,800.6226806640625,800.6226806640625,807.069580078125
1183,798.6080322265625,790.952392578125,796.5933837890625,805.8607788085938
1184,794.1758422851562,794.1758422851562,791.3552856445312,796.996337890625
1185,792.1611938476562,794.1758422851562,787.3259887695312,793.7728881835938
1186,794.981689453125,786.923095703125,788.5347900390625,789.7435913085938
1187,792.1611938476562,786.923095703125,786.1171875,787.7289428710938
1188,791.3552856445312,789.7435913085938,786.1171875,794.1758422851562
1189,791.3552856445312,787.3259887695312,793.3699340820312,795.3846435546875
1190,792.967041015625,787.7289428710938,796.996337890625,794.981689453125
1191,793.3699340820312,790.1465454101562,794.5787353515625,794.5787353515625
1192,790.5494384765625,791.7582397460938,793.7728881835938,793.7728881835938
1193,792.5640869140625,795.7875366210938,793.7728881835938,797.8021850585938
1194,790.952392578125,787.3259887695312,797.3992919921875,803.8461303710938
1195,790.1465454101562,781.2820434570312,798.2051391601562,801.025634765625
1196,793.3699340820312,784.5054931640625,795.3846435546875,793.7728881835938
1197,792.5640869140625,791.3552856445312,798.2051391601562,786.923095703125
1198,785.7142944335938,794.5787353515625,786.923095703125,784.1025390625
1199,789.3406372070312,791.7582397460938,784.1025390625,789.3406372070312
1200,792.967041015625,792.5640869140625,796.5933837890625,786.923095703125
1201,784.1025390625,787.3259887695312,794.1758422851562,782.893798828125
1202,784.5054931640625,777.2527465820312,794.5787353515625,792.1611938476562
1203,790.5494384765625,778.4615478515625,799.8168334960938,806.2637329101562
1204,793.7728881835938,792.5640869140625,796.996337890625,798.2051391601562
1205,800.6226806640625,790.952392578125,792.967041015625,788.937744140625
1206,802.6373901367188,786.923095703125,790.5494384765625,800.6226806640625
1207,806.6666870117188,796.5933837890625,791.7582397460938,806.2637329101562
1208,811.90478515625,802.6373901367188,795.3846435546875,798.6080322265625
1209,809.4871826171875,797.8021850585938,789.7435913085938,794.1758422851562
1210,807.069580078125,793.7728881835938,787.3259887695312,794.5787353515625
1211,801.8314819335938,793.3699340820312,790.952392578125,797.8021850585938
1212,794.1758422851562,793.7728881835938,792.967041015625,791.7582397460938
1213,796.996337890625,792.5640869140625,795.7875366210938,790.952392578125
1214,800.2197875976562,789.7435913085938,800.2197875976562,800.2197875976562
1215,797.3992919921875,797.3992919921875,801.025634765625,804.2490844726562
1216,796.1904907226562,799.010986328125,797.3992919921875,807.069580078125
1217,800.6226806640625,791.7582397460938,796.1904907226562,813.5164794921875
1218,801.8314819335938,796.996337890625,794.5787353515625,814.7252807617188
1219,796.1904907226562,801.4285888671875,793.7728881835938,805.4578857421875
1220,788.937744140625,794.5787353515625,791.7582397460938,794.5787353515625
1221,788.1318969726562,796.5933837890625,786.923095703125,791.7582397460938
1222,790.952392578125,802.2344360351562,791.3552856445312,793.7728881835938
1223,790.5494384765625,798.2051391601562,792.1611938476562,786.5201416015625
1224,792.5640869140625,792.967041015625,789.7435913085938,778.4615478515625
1225,794.981689453125,794.981689453125,790.952392578125,784.908447265625
1226,793.3699340820312,792.967041015625,788.5347900390625,799.8168334960938
1227,791.3552856445312,788.937744140625,793.7728881835938,801.025634765625
1228,795.3846435546875,803.8461303710938,801.8314819335938,802.6373901367188
1229,796.1904907226562,805.054931640625,804.2490844726562,805.054931640625
1230,790.952392578125,792.1611938476562,804.2490844726562,800.6226806640625
1231,794.5787353515625,797.8021850585938,801.8314819335938,801.025634765625
1232,799.010986328125,801.4285888671875,796.1904907226562,799.4139404296875
1233,803.4432373046875,798.6080322265625,795.7875366210938,794.5787353515625
1234,803.4432373046875,801.025634765625,799.010986328125,796.5933837890625
1235,795.7875366210938,799.8168334960938,794.5787353515625,799.010986328125
1236,794.1758422851562,797.8021850585938,792.967041015625,792.5640869140625
1237,795.7875366210938,788.937744140625,793.3699340820312,796.1904907226562
1238,794.1758422851562,785.3113403320312,790.5494384765625,800.2197875976562
1239,792.967041015625,790.5494384765625,792.1611938476562,801.4285888671875
1240,793.3699340820312,792.1611938476562,793.3699340820312,798.2051391601562
1241,792.967041015625,794.981689453125,791.7582397460938,795.7875366210938
1242,792.5640869140625,801.025634765625,791.7582397460938,802.6373901367188
1243,797.8021850585938,795.7875366210938,794.1758422851562,797.8021850585938
1244,799.4139404296875,794.981689453125,791.7582397460938,790.5494384765625
1245,791.7582397460938,799.010986328125,788.937744140625,786.923095703125
1246,788.5347900390625,796.5933837890625,788.937744140625,781.6849975585938
1247,792.967041015625,794.5787353515625,792.5640869140625,787.3259887695312
1248,799.4139404296875,792.967041015625,796.996337890625,791.3552856445312
1249,795.3846435546875,792.1611938476562,800.2197875976562,795.3846435546875
1250,792.1611938476562,790.5494384765625,802.2344360351562,794.1758422851562
1251,793.3699340820312,792.5640869140625,800.6226806640625,790.5494384765625
1252,792.967041015625,796.996337890625,796.1904907226562,799.010986328125
1253,792.967041015625,796.996337890625,792.967041015625,803.4432373046875
1254,794.981689453125,796.996337890625,794.981689453125,796.996337890625
1255,798.2051391601562,801.8314819335938,799.8168334960938,794.1758422851562
1256,795.7875366210938,799.010986328125,796.996337890625,788.1318969726562
1257,792.1611938476562,792.967041015625,790.952392578125,786.1171875
1258,792.1611938476562,792.1611938476562,793.3699340820312,789.3406372070312
1259,794.1758422851562,792.5640869140625,798.6080322265625,793.7728881835938
1260,795.3846435546875,787.7289428710938,798.6080322265625,800.2197875976562
1261,786.1171875,779.2673950195312,796.5933837890625,798.2051391601562
1262,784.908447265625,781.6849975585938,796.1904907226562,795.7875366210938
1263,792.967041015625,788.1318969726562,799.010986328125,799.010986328125
1264,795.3846435546875,788.937744140625,796.5933837890625,801.4285888671875
1265,792.5640869140625,792.5640869140625,792.1611938476562,794.981689453125
1266,792.5640869140625,798.2051391601562,795.7875366210938,788.5347900390625
1267,793.7728881835938,798.2051391601562,793.7728881835938,792.1611938476562
1268,789.7435913085938,793.7728881835938,794.5787353515625,792.967041015625
1269,789.7435913085938,790.1465454101562,801.4285888671875,792.5640869140625
1270,792.1611938476562,797.8021850585938,800.6226806640625,796.5933837890625
1271,790.5494384765625,799.4139404296875,799.010986328125,794.1758422851562
1272,788.937744140625,792.967041015625,796.1904907226562,792.5640869140625
1273,796.996337890625,788.5347900390625,800.2197875976562,793.7728881835938
1274,803.040283203125,794.5787353515625,802.2344360351562,793.7728881835938
1275,799.4139404296875,801.025634765625,802.6373901367188,801.4285888671875
1276,797.8021850585938,801.8314819335938,799.8168334960938,814.3223266601562
1277,794.981689453125,803.8461303710938,794.5787353515625,807.069580078125
1278,798.6080322265625,803.8461303710938,795.7875366210938,799.8168334960938
1279,803.8461303710938,799.8168334960938,801.8314819335938,796.1904907226562
1280,800.6226806640625,799.010986328125,803.4432373046875,796.5933837890625
1281,799.4139404296875,795.3846435546875,795.7875366210938,803.040283203125
1282,801.4285888671875,791.3552856445312,791.7582397460938,797.8021850585938
1283,801.025634765625,795.3846435546875,797.3992919921875,794.1758422851562
1284,804.2490844726562,800.6226806640625,799.010986328125,797.8021850585938
1285,802.6373901367188,803.040283203125,797.8021850585938,797.3992919921875
1286,802.2344360351562,795.3846435546875,796.1904907226562,799.010986328125
1287,807.87548828125,792.967041015625,795.7875366210938,809.084228515625
1288,799.8168334960938,796.5933837890625,796.1904907226562,811.5018310546875
1289,791.3552856445312,793.3699340820312,794.981689453125,796.1904907226562
1290,796.5933837890625,792.1611938476562,795.3846435546875,791.3552856445312
1291,794.981689453125,796.1904907226562,798.6080322265625,796.996337890625
1292,790.1465454101562,800.2197875976562,798.6080322265625,793.7728881835938
1293,794.1758422851562,801.4285888671875,796.1904907226562,788.937744140625
1294,792.5640869140625,798.6080322265625,796.5933837890625,790.952392578125
1295,791.7582397460938,792.1611938476562,799.010986328125,793.7728881835938
1296,793.7728881835938,797.3992919921875,796.5933837890625,794.1758422851562
1297,793.3699340820312,798.6080322265625,796.5933837890625,792.967041015625
1298,792.967041015625,795.7875366210938,792.967041015625,785.7142944335938
1299,786.923095703125,793.7728881835938,784.908447265625,784.5054931640625
1300,783.6996459960938,790.5494384765625,788.937744140625,785.7142944335938
1301,785.7142944335938,793.7728881835938,797.8021850585938,789.7435913085938
1302,784.908447265625,793.7728881835938,799.4139404296875,798.2051391601562
1303,785.3113403320312,794.981689453125,792.5640869140625,796.1904907226562
1304,790.952392578125,798.2051391601562,791.3552856445312,790.5494384765625
1305,792.967041015625,789.7435913085938,796.5933837890625,790.952392578125
1306,791.7582397460938,784.908447265625,795.7875366210938,794.5787353515625
1307,785.7142944335938,792.1611938476562,793.3699340820312,797.3992919921875
1308,786.5201416015625,793.3699340820312,796.5933837890625,793.3699340820312
1309,792.967041015625,781.6849975585938,796.5933837890625,785.7142944335938
1310,790.5494384765625,782.087890625,792.1611938476562,787.3259887695312
1311,778.8644409179688,787.7289428710938,786.5201416015625,790.5494384765625
1312,774.029296875,790.952392578125,784.1025390625,777.2527465820312
1313,782.893798828125,797.8021850585938,789.3406372070312,777.6557006835938
1314,788.1318969726562,794.1758422851562,792.5640869140625,788.5347900390625
1315,788.937744140625,791.3552856445312,789.3406372070312,782.087890625
1316,791.3552856445312,786.923095703125,796.5933837890625,775.6410522460938
1317,792.5640869140625,779.6703491210938,799.010986328125,777.6557006835938
1318,792.5640869140625,787.7289428710938,794.5787353515625,782.4908447265625
1319,794.5787353515625,797.8021850585938,795.7875366210938,788.937744140625
1320,794.1758422851562,796.996337890625,790.5494384765625,788.5347900390625
1321,794.981689453125,794.5787353515625,790.5494384765625,793.7728881835938
1322,797.8021850585938,792.5640869140625,791.3552856445312,801.8314819335938
1323,794.981689453125,790.5494384765625,789.7435913085938,796.1904907226562
1324,789.3406372070312,793.7728881835938,788.937744140625,790.1465454101562
1325,795.3846435546875,799.8168334960938,788.5347900390625,792.5640869140625
1326,803.8461303710938,798.2051391601562,790.5494384765625,794.981689453125
1327,795.7875366210938,792.1611938476562,793.3699340820312,794.981689453125
1328,797.3992919921875,796.5933837890625,799.010986328125,794.1758422851562
1329,800.6226806640625,792.967041015625,802.6373901367188,801.8314819335938
1330,797.3992919921875,789.3406372070312,797.8021850585938,804.2490844726562
1331,802.6373901367188,797.8021850585938,794.981689453125,799.8168334960938
1332,801.4285888671875,800.2197875976562,796.996337890625,801.8314819335938
1333,795.7875366210938,791.3552856445312,794.5787353515625,794.981689453125
1334,795.7875366210938,783.2966918945312,793.3699340820312,784.5054931640625
1335,803.4432373046875,787.3259887695312,795.3846435546875,791.3552856445312
1336,805.054931640625,793.3699340820312,796.5933837890625,794.1758422851562
1337,802.2344360351562,799.8168334960938,796.5933837890625,795.3846435546875
1338,800.2197875976562,797.3992919921875,791.7582397460938,794.981689453125
1339,792.5640869140625,793.7728881835938,790.1465454101562,792.1611938476562
1340,793.7728881835938,794.5787353515625,792.1611938476562,792.1611938476562
1341,808.2783813476562,794.5787353515625,794.5787353515625,802.6373901367188
1342,813.113525390625,793.7728881835938,800.6226806640625,812.3076782226562
1343,802.2344360351562,790.1465454101562,803.8461303710938,797.3992919921875
1344,790.5494384765625,782.087890625,800.2197875976562,788.5347900390625
1345,792.5640869140625,779.2673950195312,796.1904907226562,791.3552856445312
1346,796.1904907226562,785.3113403320312,797.3992919921875,787.7289428710938
1347,798.6080322265625,790.952392578125,795.3846435546875,778.05859375
1348,802.6373901367188,792.967041015625,794.981689453125,780.879150390625
1349,797.8021850585938,790.952392578125,797.3992919921875,792.5640869140625
1350,790.5494384765625,792.1611938476562,796.1904907226562,788.937744140625
1351,793.3699340820312,797.8021850585938,792.5640869140625,791.3552856445312
1352,799.010986328125,792.967041015625,788.937744140625,790.1465454101562
1353,799.4139404296875,792.967041015625,794.5787353515625,790.952392578125
1354,797.8021850585938,798.2051391601562,796.1904907226562,800.2197875976562
1355,796.5933837890625,790.952392578125,792.5640869140625,797.3992919921875
1356,796.5933837890625,790.952392578125,799.010986328125,793.7728881835938
1357,793.7728881835938,795.3846435546875,799.4139404296875,786.923095703125
1358,790.5494384765625,800.2197875976562,797.8021850585938,785.7142944335938
1359,789.7435913085938,800.6226806640625,797.8021850585938,786.923095703125
1360,793.3699340820312,797.3992919921875,793.3699340820312,788.5347900390625
1361,793.7728881835938,801.4285888671875,790.952392578125,792.967041015625
1362,791.7582397460938,801.025634765625,795.3846435546875,793.3699340820312
1363,790.1465454101562,796.5933837890625,797.8021850585938,789.3406372070312
1364,788.1318969726562,796.5933837890625,797.3992919921875,786.5201416015625
1365,792.967041015625,800.6226806640625,797.8021850585938,794.981689453125
1366,792.967041015625,801.025634765625,795.7875366210938,794.5787353515625
1367,791.3552856445312,797.8021850585938,791.7582397460938,785.3113403320312
1368,791.3552856445312,784.908447265625,790.5494384765625,786.923095703125
1369,793.7728881835938,785.7142944335938,795.3846435546875,797.8021850585938
1370,793.3699340820312,794.981689453125,792.967041015625,796.1904907226562
1371,788.1318969726562,797.8021850585938,787.7289428710938,784.908447265625
1372,792.1611938476562,791.3552856445312,787.7289428710938,789.7435913085938
1373,790.5494384765625,788.937744140625,790.1465454101562,783.6996459960938
1374,788.1318969726562,794.5787353515625,786.5201416015625,774.8351440429688
1375,790.952392578125,795.3846435546875,786.5201416015625,783.2966918945312
1376,793.7728881835938,791.3552856445312,793.3699340820312,787.3259887695312
1377,800.2197875976562,787.3259887695312,793.3699340820312,793.3699340820312
1378,794.981689453125,793.3699340820312,792.5640869140625,798.6080322265625
1379,792.5640869140625,798.6080322265625,796.1904907226562,793.7728881835938
1380,796.5933837890625,792.5640869140625,799.010986328125,794.1758422851562
1381,793.3699340820312,786.5201416015625,798.2051391601562,796.1904907226562
1382,795.3846435546875,790.952392578125,797.8021850585938,793.7728881835938
1383,800.6226806640625,794.981689453125,794.5787353515625,796.5933837890625
1384,794.981689453125,797.3992919921875,796.1904907226562,796.5933837890625
1385,791.7582397460938,799.8168334960938,805.8607788085938,797.3992919921875
1386,795.3846435546875,796.5933837890625,804.2490844726562,801.4285888671875
1387,796.1904907226562,788.1318969726562,798.6080322265625,800.2197875976562
1388,795.3846435546875,790.1465454101562,798.6080322265625,792.5640869140625
1389,790.952392578125,788.937744140625,797.8021850585938,787.3259887695312
1390,787.7289428710938,781.6849975585938,797.8021850585938,784.5054931640625
1391,792.1611938476562,786.5201416015625,793.7728881835938,793.3699340820312
1392,796.1904907226562,799.010986328125,792.967041015625,802.6373901367188
1393,799.8168334960938,801.025634765625,800.2197875976562,797.3992919921875
1394,793.7728881835938,795.3846435546875,796.1904907226562,792.1611938476562
1395,789.7435913085938,794.1758422851562,792.5640869140625,797.3992919921875
1396,797.8021850585938,789.3406372070312,790.952392578125,793.3699340820312
1397,801.025634765625,788.1318969726562,788.937744140625,786.1171875
1398,797.8021850585938,789.7435913085938,788.1318969726562,782.893798828125
1399,792.5640869140625,787.7289428710938,789.3406372070312,786.1171875
1400,786.923095703125,786.923095703125,794.5787353515625,792.5640869140625
1401,788.1318969726562,791.3552856445312,792.1611938476562,792.5640869140625
1402,794.1758422851562,784.5054931640625,788.1318969726562,792.967041015625
1403,794.981689453125,784.5054931640625,788.1318969726562,792.1611938476562
1404,794.5787353515625,796.1904907226562,786.5201416015625,790.952392578125
1405,794.5787353515625,800.2197875976562,788.5347900390625,787.3259887695312
1406,797.3992919921875,796.5933837890625,790.952392578125,788.5347900390625
1407,797.8021850585938,788.937744140625,788.1318969726562,797.3992919921875
1408,790.952392578125,788.5347900390625,790.952392578125,794.5787353515625
1409,793.3699340820312,796.5933837890625,794.5787353515625,786.5201416015625
1410,794.1758422851562,794.5787353515625,793.7728881835938,785.7142944335938
1411,791.7582397460938,793.3699340820312,793.7728881835938,784.908447265625
1412,793.7728881835938,790.5494384765625,796.1904907226562,781.2820434570312
1413,794.5787353515625,784.5054931640625,803.040283203125,782.893798828125
1414,791.7582397460938,788.1318969726562,798.6080322265625,779.6703491210938
1415,791.7582397460938,796.5933837890625,792.5640869140625,778.4615478515625
1416,792.1611938476562,794.5787353515625,791.7582397460938,782.4908447265625
1417,793.7728881835938,790.952392578125,791.7582397460938,791.3552856445312
1418,794.5787353515625,794.981689453125,791.3552856445312,795.3846435546875
1419,792.5640869140625,797.3992919921875,793.7728881835938,788.937744140625
1420,793.3699340820312,794.5787353515625,794.1758422851562,788.1318969726562
1421,789.7435913085938,793.7728881835938,792.1611938476562,788.1318969726562
1422,788.1318969726562,795.7875366210938,794.5787353515625,783.6996459960938
1423,796.996337890625,792.1611938476562,791.7582397460938,790.952392578125
1424,798.2051391601562,790.1465454101562,788.937744140625,791.3552856445312
1425,796.1904907226562,797.8021850585938,796.996337890625,793.3699340820312
1426,792.1611938476562,794.5787353515625,797.8021850585938,799.8168334960938
1427,792.5640869140625,796.1904907226562,791.3552856445312,797.3992919921875
1428,793.3699340820312,799.4139404296875,790.1465454101562,798.2051391601562
1429,792.5640869140625,792.5640869140625,788.937744140625,799.4139404296875
1430,796.996337890625,788.5347900390625,788.5347900390625,798.6080322265625
1431,799.8168334960938,795.3846435546875,792.5640869140625,795.7875366210938
1432,798.6080322265625,796.1904907226562,790.5494384765625,790.952392578125
1433,799.4139404296875,790.952392578125,790.952392578125,796.1904907226562
1434,798.6080322265625,792.5640869140625,792.967041015625,801.025634765625
1435,797.3992919921875,795.3846435546875,795.7875366210938,796.5933837890625
1436,796.996337890625,791.7582397460938,798.2051391601562,793.7728881835938
1437,801.025634765625,790.1465454101562,797.3992919921875,796.996337890625
1438,800.2197875976562,788.1318969726562,796.1904907226562,791.7582397460938
1439,795.3846435546875,795.3846435546875,799.4139404296875,786.5201416015625
1440,796.1904907226562,803.040283203125,800.2197875976562,790.5494384765625
1441,788.1318969726562,802.2344360351562,799.8168334960938,794.981689453125
1442,789.7435913085938,803.040283203125,803.040283203125,799.010986328125
1443,799.010986328125,798.6080322265625,802.2344360351562,808.6813354492188
1444,796.1904907226562,792.5640869140625,798.6080322265625,808.6813354492188
1445,791.3552856445312,787.7289428710938,797.3992919921875,798.6080322265625
1446,788.1318969726562,787.3259887695312,795.3846435546875,787.3259887695312
1447,786.923095703125,791.3552856445312,793.7728881835938,785.3113403320312
1448,788.1318969726562,789.3406372070312,795.7875366210938,790.1465454101562
1449,788.5347900390625,788.5347900390625,799.010986328125,793.7728881835938
1450,790.5494384765625,793.3699340820312,801.4285888671875,798.2051391601562
1451,789.7435913085938,800.2197875976562,801.025634765625,797.3992919921875
1452,789.7435913085938,797.8021850585938,793.7728881835938,795.3846435546875
1453,792.967041015625,791.3552856445312,794.1758422851562,799.010986328125
1454,800.2197875976562,795.3846435546875,800.6226806640625,799.4139404296875
1455,800.2197875976562,796.1904907226562,798.2051391601562,795.7875366210938
1456,798.2051391601562,796.5933837890625,798.2051391601562,800.2197875976562
1457,798.2051391601562,798.6080322265625,799.010986328125,805.4578857421875
1458,796.5933837890625,794.1758422851562,794.981689453125,794.981689453125
1459,796.1904907226562,789.7435913085938,797.8021850585938,794.1758422851562
1460,795.3846435546875,794.981689453125,799.4139404296875,801.025634765625
1461,790.952392578125,799.010986328125,799.4139404296875,797.3992919921875
1462,789.7435913085938,793.7728881835938,802.2344360351562,793.3699340820312
1463,796.1904907226562,795.3846435546875,799.4139404296875,795.3846435546875
1464,796.1904907226562,793.3699340820312,797.8021850585938,795.3846435546875
1465,793.3699340820312,788.5347900390625,799.4139404296875,790.5494384765625
1466,794.5787353515625,794.1758422851562,794.1758422851562,790.5494384765625
1467,793.3699340820312,798.2051391601562,796.1904907226562,794.1758422851562
1468,791.3552856445312,795.7875366210938,793.3699340820312,797.3992919921875
1469,790.5494384765625,797.8021850585938,791.7582397460938,800.2197875976562
1470,790.5494384765625,790.952392578125,799.010986328125,794.5787353515625
1471,788.5347900390625,785.3113403320312,799.4139404296875,792.1611938476562
1472,784.5054931640625,792.1611938476562,796.1904907226562,789.7435913085938
1473,788.1318969726562,796.5933837890625,793.7728881835938,785.3113403320312
1474,788.1318969726562,789.7435913085938,786.1171875,782.087890625
1475,784.5054931640625,790.952392578125,784.908447265625,778.8644409179688
1476,786.923095703125,799.4139404296875,792.5640869140625,778.8644409179688
1477,792.1611938476562,792.5640869140625,788.937744140625,780.4761962890625
1478,792.5640869140625,789.7435913085938,792.1611938476562,780.879150390625
1479,790.952392578125,794.1758422851562,799.010986328125,787.7289428710938
1480,792.967041015625,789.3406372070312,788.1318969726562,796.1904907226562
1481,797.8021850585938,797.8021850585938,788.937744140625,793.3699340820312
1482,798.2051391601562,799.8168334960938,798.6080322265625,788.1318969726562
1483,794.5787353515625,796.996337890625,794.5787353515625,786.1171875
1484,789.7435913085938,801.4285888671875,793.3699340820312,782.4908447265625
1485,786.923095703125,796.1904907226562,795.7875366210938,779.6703491210938
1486,786.1171875,793.3699340820312,794.5787353515625,780.4761962890625
1487,789.7435913085938,795.7875366210938,797.8021850585938,786.5201416015625
1488,789.7435913085938,792.1611938476562,796.1904907226562,790.952392578125
1489,791.7582397460938,791.3552856445312,796.1904907226562,792.1611938476562
1490,797.3992919921875,796.1904907226562,799.010986328125,793.7728881835938
1491,797.8021850585938,798.2051391601562,799.4139404296875,801.025634765625
1492,793.7728881835938,790.952392578125,798.6080322265625,800.2197875976562
1493,793.3699340820312,788.1318969726562,795.3846435546875,794.5787353515625
1494,795.7875366210938,789.7435913085938,793.3699340820312,794.5787353515625
1495,791.3552856445312,790.952392578125,794.1758422851562,794.981689453125
1496,782.893798828125,793.3699340820312,799.8168334960938,790.952392578125
1497,786.923095703125,800.2197875976562,801.8314819335938,796.1904907226562
1498,792.1611938476562,791.7582397460938,798.2051391601562,797.8021850585938
1499,786.1171875,790.1465454101562,800.2197875976562,791.3552856445312
1500,785.7142944335938,799.4139404296875,797.8021850585938,792.5640869140625
1501,794.1758422851562,797.8021850585938,795.7875366210938,789.7435913085938
1502,794.5787353515625,791.3552856445312,794.5787353515625,787.3259887695312
1503,788.937744140625,789.3406372070312,793.3699340820312,793.3699340820312
1504,786.1171875,792.5640869140625,797.8021850585938,790.952392578125
1505,789.7435913085938,790.952392578125,794.5787353515625,794.1758422851562
1506,790.1465454101562,790.1465454101562,792.967041015625,793.7728881835938
1507,787.7289428710938,790.1465454101562,795.3846435546875,785.7142944335938
1508,788.5347900390625,791.3552856445312,796.996337890625,782.4908447265625
1509,786.1171875,790.5494384765625,798.6080322265625,790.1465454101562
1510,782.4908447265625,782.893798828125,794.5787353515625,796.5933837890625
1511,779.2673950195312,784.908447265625,792.967041015625,792.1611938476562
1512,783.6996459960938,789.7435913085938,797.3992919921875,788.1318969726562
1513,788.1318969726562,792.967041015625,797.3992919921875,788.937744140625
1514,795.7875366210938,799.8168334960938,796.5933837890625,796.5933837890625
1515,799.010986328125,803.4432373046875,801.025634765625,788.937744140625
1516,792.1611938476562,803.4432373046875,801.4285888671875,782.4908447265625
1517,795.3846435546875,799.4139404296875,800.6226806640625,784.908447265625
1518,800.6226806640625,797.8021850585938,801.4285888671875,782.893798828125
1519,792.1611938476562,796.1904907226562,799.4139404296875,774.8351440429688
1520,791.7582397460938,790.952392578125,793.3699340820312,782.087890625
1521,795.7875366210938,794.5787353515625,794.5787353515625,793.3699340820312
1522,791.3552856445312,792.5640869140625,797.8021850585938,788.1318969726562
1523,792.967041015625,793.3699340820312,792.967041015625,780.4761962890625
1524,793.3699340820312,799.010986328125,795.3846435546875,783.2966918945312
1525,792.967041015625,797.3992919921875,796.1904907226562,800.2197875976562
1526,788.1318969726562,792.967041015625,796.5933837890625,801.025634765625
1527,783.2966918945312,799.4139404296875,801.4285888671875,786.5201416015625
1528,787.7289428710938,803.040283203125,798.2051391601562,784.5054931640625
1529,794.981689453125,794.981689453125,792.5640869140625,788.5347900390625
1530,798.6080322265625,791.3552856445312,792.5640869140625,792.967041015625
1531,801.4285888671875,792.1611938476562,797.8021850585938,796.996337890625
1532,796.996337890625,798.6080322265625,802.2344360351562,796.996337890625
1533,793.3699340820312,797.8021850585938,803.4432373046875,795.7875366210938
1534,792.5640869140625,792.5640869140625,803.4432373046875,794.981689453125
1535,786.923095703125,796.996337890625,800.2197875976562,789.7435913085938
1536,788.1318969726562,793.3699340820312,794.5787353515625,786.5201416015625
1537,793.3699340820312,784.5054931640625,796.5933837890625,789.3406372070312
1538,786.5201416015625,794.5787353515625,798.6080322265625,776.8497924804688
1539,785.3113403320312,802.6373901367188,792.5640869140625,775.6410522460938
1540,791.7582397460938,801.025634765625,792.5640869140625,787.3259887695312
1541,793.7728881835938,798.6080322265625,799.010986328125,793.3699340820312
1542,798.2051391601562,793.7728881835938,803.8461303710938,794.1758422851562
1543,794.5787353515625,796.1904907226562,802.2344360351562,790.1465454101562
1544,793.3699340820312,799.010986328125,799.010986328125,790.5494384765625
1545,798.6080322265625,803.8461303710938,803.8461303710938,792.5640869140625
1546,793.7728881835938,803.8461303710938,803.8461303710938,786.5201416015625
1547,791.7582397460938,791.3552856445312,803.040283203125,785.3113403320312
1548,796.996337890625,780.4761962890625,801.025634765625,784.908447265625
1549,792.5640869140625,790.5494384765625,795.7875366210938,787.7289428710938
1550,784.5054931640625,798.2051391601562,793.3699340820312,790.5494384765625
1551,782.087890625,789.7435913085938,792.967041015625,786.5201416015625
1552,780.4761962890625,791.3552856445312,793.3699340820312,792.1611938476562
1553,786.5201416015625,801.025634765625,800.6226806640625,800.2197875976562
1554,784.5054931640625,800.2197875976562,799.8168334960938,795.7875366210938
1555,783.2966918945312,795.3846435546875,792.5640869140625,786.5201416015625
1556,796.1904907226562,790.952392578125,792.5640869140625,793.7728881835938
1557,795.3846435546875,790.1465454101562,796.996337890625,794.981689453125
1558,789.3406372070312,791.7582397460938,802.6373901367188,793.7728881835938
1559,795.3846435546875,788.1318969726562,805.054931640625,802.2344360351562
1560,800.2197875976562,787.3259887695312,804.2490844726562,807.069580078125
1561,796.996337890625,792.1611938476562,794.981689453125,800.6226806640625
1562,793.3699340820312,794.981689453125,787.3259887695312,781.2820434570312
1563,791.7582397460938,794.5787353515625,791.3552856445312,779.2673950195312
1564,797.3992919921875,792.1611938476562,790.1465454101562,795.3846435546875
1565,801.8314819335938,796.1904907226562,797.3992919921875,798.6080322265625
1566,801.025634765625,792.5640869140625,807.87548828125,797.3992919921875
1567,799.8168334960938,785.7142944335938,796.996337890625,799.8168334960938
1568,791.7582397460938,786.923095703125,792.1611938476562,795.7875366210938
1569,790.5494384765625,794.981689453125,798.2051391601562,800.2197875976562
1570,797.8021850585938,797.3992919921875,798.2051391601562,801.025634765625
1571,799.4139404296875,789.7435913085938,791.3552856445312,794.5787353515625
1572,797.3992919921875,792.1611938476562,793.7728881835938,794.5787353515625
1573,795.7875366210938,802.6373901367188,799.4139404296875,797.3992919921875
1574,798.6080322265625,808.2783813476562,796.996337890625,799.4139404296875
1575,795.7875366210938,799.010986328125,791.3552856445312,791.7582397460938
1576,793.7728881835938,790.5494384765625,790.5494384765625,787.3259887695312
1577,796.5933837890625,792.967041015625,795.7875366210938,794.1758422851562
