timestamp,RAW_TP9,RAW_AF7,RAW_AF8,RAW_TP10
1,788.937744140625,786.1171875,797.3992919921875,784.1025390625
2,791.3552856445312,788.1318969726562,795.3846435546875,791.7582397460938
3,793.3699340820312,787.3259887695312,795.7875366210938,790.5494384765625
4,790.5494384765625,785.3113403320312,796.996337890625,784.1025390625
5,792.5640869140625,786.5201416015625,798.6080322265625,794.1758422851562
6,794.981689453125,784.1025390625,799.010986328125,800.2197875976562
7,796.1904907226562,784.908447265625,801.025634765625,796.1904907226562
8,796.996337890625,789.3406372070312,801.025634765625,795.3846435546875
9,796.1904907226562,793.3699340820312,801.8314819335938,796.1904907226562
10,792.5640869140625,786.1171875,800.2197875976562,791.3552856445312
11,791.7582397460938,786.5201416015625,797.3992919921875,789.7435913085938
12,793.7728881835938,796.1904907226562,798.6080322265625,796.5933837890625
13,799.010986328125,794.981689453125,797.8021850585938,801.025634765625
14,799.8168334960938,789.7435913085938,797.3992919921875,803.040283203125
15,800.6226806640625,792.967041015625,803.040283203125,801.8314819335938
16,801.4285888671875,790.1465454101562,804.2490844726562,797.8021850585938
17,798.2051391601562,783.6996459960938,799.010986328125,795.3846435546875
18,801.8314819335938,790.1465454101562,795.3846435546875,802.2344360351562
19,803.040283203125,794.981689453125,797.8021850585938,806.2637329101562
20,803.4432373046875,792.5640869140625,796.5933837890625,804.6520385742188
21,808.2783813476562,792.1611938476562,794.1758422851562,805.054931640625
22,801.4285888671875,791.3552856445312,797.3992919921875,800.2197875976562
23,794.1758422851562,793.7728881835938,801.4285888671875,797.3992919921875
24,795.7875366210938,797.3992919921875,801.4285888671875,797.8021850585938
25,796.996337890625,796.1904907226562,799.010986328125,796.996337890625
26,798.2051391601562,791.3552856445312,799.8168334960938,794.5787353515625
27,797.8021850585938,788.5347900390625,796.1904907226562,791.7582397460938
28,798.6080322265625,790.952392578125,791.3552856445312,787.3259887695312
29,803.4432373046875,788.5347900390625,789.7435913085938,795.7875366210938
30,802.2344360351562,788.937744140625,789.3406372070312,807.069580078125
31,799.010986328125,796.996337890625,791.3552856445312,797.8021850585938
32,801.025634765625,799.8168334960938,792.1611938476562,795.7875366210938
33,798.6080322265625,798.6080322265625,792.1611938476562,796.5933837890625
34,796.5933837890625,796.1904907226562,794.5787353515625,796.996337890625
35,800.2197875976562,790.952392578125,793.3699340820312,806.6666870117188
36,796.5933837890625,787.3259887695312,792.1611938476562,803.4432373046875
37,792.5640869140625,788.5347900390625,790.1465454101562,794.981689453125
38,793.7728881835938,792.1611938476562,790.952392578125,797.3992919921875
39,791.7582397460938,790.1465454101562,788.937744140625,798.6080322265625
40,790.952392578125,790.952392578125,790.1465454101562,797.8021850585938
41,786.1171875,792.5640869140625,792.967041015625,792.5640869140625
42,782.893798828125,790.5494384765625,794.5787353515625,786.5201416015625
43,783.2966918945312,787.7289428710938,797.8021850585938,783.6996459960938
44,787.7289428710938,785.7142944335938,797.8021850585938,790.5494384765625
45,788.5347900390625,788.1318969726562,795.7875366210938,802.6373901367188
46,782.893798828125,792.1611938476562,798.6080322265625,796.1904907226562
47,787.7289428710938,792.967041015625,798.6080322265625,789.7435913085938
48,792.967041015625,788.5347900390625,796.1904907226562,792.967041015625
49,792.1611938476562,785.7142944335938,795.7875366210938,788.1318969726562
50,795.7875366210938,786.923095703125,792.5640869140625,788.1318969726562
51,801.025634765625,791.7582397460938,794.1758422851562,796.996337890625
52,801.025634765625,788.937744140625,796.996337890625,801.8314819335938
53,797.8021850585938,786.5201416015625,797.3992919921875,798.2051391601562
54,798.2051391601562,789.3406372070312,799.8168334960938,793.3699340820312
55,804.2490844726562,786.5201416015625,803.040283203125,792.5640869140625
56,804.6520385742188,787.3259887695312,801.8314819335938,800.2197875976562
57,798.2051391601562,786.923095703125,801.4285888671875,796.1904907226562
58,795.7875366210938,782.893798828125,797.3992919921875,790.5494384765625
59,800.2197875976562,782.893798828125,794.5787353515625,799.010986328125
60,799.8168334960938,788.1318969726562,796.996337890625,796.1904907226562
61,796.5933837890625,788.1318969726562,798.2051391601562,796.1904907226562
62,799.010986328125,785.3113403320312,797.3992919921875,799.8168334960938
63,805.054931640625,789.3406372070312,797.3992919921875,801.025634765625
64,797.8021850585938,792.5640869140625,801.025634765625,801.8314819335938
65,793.3699340820312,790.952392578125,804.2490844726562,798.2051391601562
66,794.981689453125,788.937744140625,801.8314819335938,795.3846435546875
67,794.1758422851562,791.3552856445312,800.2197875976562,791.7582397460938
68,790.952392578125,791.3552856445312,800.6226806640625,787.3259887695312
69,792.1611938476562,784.1025390625,795.7875366210938,788.937744140625
70,799.8168334960938,786.5201416015625,798.2051391601562,800.2197875976562
71,805.054931640625,792.5640869140625,801.8314819335938,807.4725341796875
72,803.4432373046875,788.5347900390625,802.6373901367188,803.8461303710938
73,800.6226806640625,786.1171875,803.4432373046875,797.8021850585938
74,799.8168334960938,789.7435913085938,799.010986328125,791.3552856445312
75,796.5933837890625,788.1318969726562,794.1758422851562,793.3699340820312
76,794.1758422851562,785.3113403320312,795.7875366210938,794.981689453125
77,794.5787353515625,784.5054931640625,797.3992919921875,790.5494384765625
78,803.4432373046875,790.5494384765625,798.6080322265625,796.996337890625
79,807.4725341796875,792.5640869140625,797.3992919921875,799.8168334960938
80,803.8461303710938,791.7582397460938,796.1904907226562,800.6226806640625
81,803.040283203125,794.981689453125,799.8168334960938,801.025634765625
82,799.8168334960938,797.3992919921875,797.8021850585938,799.8168334960938
83,797.3992919921875,795.7875366210938,794.1758422851562,801.025634765625
84,794.981689453125,789.7435913085938,799.010986328125,802.2344360351562
85,795.3846435546875,791.7582397460938,801.8314819335938,804.2490844726562
86,799.010986328125,793.3699340820312,800.6226806640625,810.2930297851562
87,797.3992919921875,789.3406372070312,799.8168334960938,814.7252807617188
88,796.1904907226562,792.5640869140625,794.5787353515625,808.6813354492188
89,795.3846435546875,799.8168334960938,792.1611938476562,803.040283203125
90,785.7142944335938,796.5933837890625,791.7582397460938,794.981689453125
91,786.1171875,794.5787353515625,794.5787353515625,794.1758422851562
92,794.5787353515625,800.2197875976562,793.7728881835938,796.996337890625
93,795.3846435546875,801.8314819335938,790.952392578125,803.8461303710938
94,788.5347900390625,798.2051391601562,791.3552856445312,808.6813354492188
95,782.087890625,794.981689453125,792.5640869140625,803.040283203125
96,783.2966918945312,792.967041015625,788.5347900390625,795.3846435546875
97,785.7142944335938,791.3552856445312,790.1465454101562,792.5640869140625
98,791.3552856445312,792.5640869140625,797.3992919921875,801.4285888671875
99,794.5787353515625,793.7728881835938,799.010986328125,801.8314819335938
100,792.1611938476562,797.3992919921875,799.8168334960938,790.1465454101562
101,788.937744140625,796.5933837890625,799.010986328125,790.952392578125
102,795.3846435546875,790.1465454101562,794.5787353515625,801.025634765625
103,793.3699340820312,786.5201416015625,793.7728881835938,796.1904907226562
104,790.952392578125,789.3406372070312,796.996337890625,784.5054931640625
105,797.3992919921875,797.3992919921875,794.981689453125,783.6996459960938
106,794.981689453125,798.6080322265625,788.937744140625,782.893798828125
107,792.967041015625,793.3699340820312,786.1171875,782.893798828125
108,794.1758422851562,790.5494384765625,788.1318969726562,787.7289428710938
109,801.8314819335938,796.5933837890625,790.5494384765625,801.4285888671875
110,808.2783813476562,796.1904907226562,790.1465454101562,807.4725341796875
111,803.4432373046875,789.7435913085938,789.3406372070312,805.4578857421875
112,799.010986328125,792.1611938476562,790.1465454101562,804.6520385742188
113,799.010986328125,792.967041015625,792.5640869140625,805.4578857421875
114,798.6080322265625,792.1611938476562,791.3552856445312,813.91943359375
115,796.1904907226562,796.5933837890625,793.7728881835938,809.084228515625
116,796.1904907226562,794.1758422851562,799.4139404296875,799.8168334960938
117,796.996337890625,786.1171875,795.7875366210938,796.996337890625
118,797.8021850585938,787.7289428710938,791.3552856445312,794.5787353515625
119,796.996337890625,790.5494384765625,796.1904907226562,786.923095703125
120,799.010986328125,788.1318969726562,794.981689453125,786.923095703125
121,802.2344360351562,786.923095703125,791.7582397460938,797.8021850585938
122,798.2051391601562,787.7289428710938,792.1611938476562,797.3992919921875
123,797.8021850585938,790.1465454101562,794.1758422851562,800.2197875976562
124,796.1904907226562,790.952392578125,795.7875366210938,800.2197875976562
125,795.7875366210938,794.1758422851562,795.7875366210938,796.996337890625
126,797.8021850585938,796.1904907226562,794.5787353515625,795.3846435546875
127,794.1758422851562,790.1465454101562,796.5933837890625,785.7142944335938
128,794.1758422851562,792.1611938476562,796.996337890625,785.7142944335938
129,796.5933837890625,796.5933837890625,796.1904907226562,789.3406372070312
130,793.3699340820312,795.3846435546875,798.2051391601562,788.1318969726562
131,791.3552856445312,793.7728881835938,797.3992919921875,786.1171875
132,794.1758422851562,790.5494384765625,796.996337890625,785.7142944335938
133,798.2051391601562,794.5787353515625,799.8168334960938,784.5054931640625
134,798.2051391601562,802.2344360351562,804.2490844726562,790.952392578125
135,792.1611938476562,799.8168334960938,801.8314819335938,796.996337890625
136,793.3699340820312,797.8021850585938,797.8021850585938,803.040283203125
137,797.8021850585938,798.2051391601562,798.6080322265625,811.098876953125
138,794.981689453125,799.8168334960938,796.996337890625,800.2197875976562
139,790.5494384765625,803.040283203125,795.3846435546875,792.967041015625
140,786.1171875,804.2490844726562,794.1758422851562,798.2051391601562
141,783.6996459960938,801.8314819335938,795.7875366210938,798.2051391601562
142,786.5201416015625,804.6520385742188,796.1904907226562,792.1611938476562
143,795.3846435546875,808.2783813476562,797.3992919921875,795.7875366210938
144,793.7728881835938,802.6373901367188,794.981689453125,796.1904907226562
145,793.7728881835938,803.040283203125,794.981689453125,793.3699340820312
146,799.010986328125,804.2490844726562,795.7875366210938,792.967041015625
147,796.1904907226562,801.8314819335938,797.8021850585938,791.3552856445312
148,796.1904907226562,801.8314819335938,799.4139404296875,792.1611938476562
149,795.3846435546875,802.2344360351562,798.2051391601562,788.5347900390625
150,793.3699340820312,803.040283203125,800.6226806640625,784.5054931640625
151,788.937744140625,803.040283203125,797.8021850585938,782.4908447265625
152,784.5054931640625,801.025634765625,790.952392578125,782.4908447265625
153,783.2966918945312,799.4139404296875,790.952392578125,785.3113403320312
154,786.5201416015625,796.1904907226562,790.5494384765625,786.5201416015625
155,788.1318969726562,796.5933837890625,788.937744140625,782.893798828125
156,786.923095703125,797.8021850585938,792.1611938476562,786.923095703125
157,789.3406372070312,800.6226806640625,794.981689453125,792.1611938476562
158,791.3552856445312,796.996337890625,792.967041015625,793.7728881835938
159,788.937744140625,796.1904907226562,795.3846435546875,800.6226806640625
160,794.5787353515625,796.1904907226562,799.8168334960938,807.4725341796875
161,792.967041015625,792.1611938476562,796.996337890625,799.010986328125
162,789.3406372070312,791.7582397460938,794.1758422851562,792.967041015625
163,796.1904907226562,795.3846435546875,795.7875366210938,800.2197875976562
164,796.996337890625,798.2051391601562,799.010986328125,804.6520385742188
165,791.3552856445312,792.967041015625,799.010986328125,797.3992919921875
166,790.952392578125,789.7435913085938,798.6080322265625,798.2051391601562
167,796.1904907226562,790.5494384765625,795.3846435546875,807.069580078125
168,800.6226806640625,789.7435913085938,794.5787353515625,803.4432373046875
169,800.2197875976562,790.1465454101562,795.3846435546875,799.010986328125
170,798.6080322265625,790.5494384765625,792.1611938476562,796.1904907226562
171,797.3992919921875,788.937744140625,795.7875366210938,801.025634765625
172,801.8314819335938,787.7289428710938,799.4139404296875,811.098876953125
173,800.6226806640625,796.5933837890625,799.010986328125,802.2344360351562
174,792.5640869140625,799.4139404296875,799.4139404296875,795.3846435546875
175,792.5640869140625,793.3699340820312,796.5933837890625,796.5933837890625
176,792.967041015625,796.1904907226562,796.1904907226562,791.3552856445312
177,788.937744140625,801.025634765625,802.2344360351562,787.7289428710938
178,789.3406372070312,799.010986328125,806.2637329101562,792.5640869140625
179,794.981689453125,795.7875366210938,803.8461303710938,795.3846435546875
180,791.3552856445312,798.6080322265625,799.8168334960938,788.937744140625
181,789.7435913085938,799.4139404296875,796.5933837890625,785.7142944335938
182,793.3699340820312,793.3699340820312,792.5640869140625,794.981689453125
183,797.8021850585938,789.7435913085938,791.7582397460938,795.7875366210938
184,805.4578857421875,794.1758422851562,796.5933837890625,794.981689453125
185,801.8314819335938,792.1611938476562,799.4139404296875,792.5640869140625
186,800.2197875976562,792.1611938476562,801.025634765625,792.5640869140625
187,798.6080322265625,794.1758422851562,798.6080322265625,794.981689453125
188,797.8021850585938,791.7582397460938,795.3846435546875,796.996337890625
189,802.2344360351562,791.3552856445312,796.996337890625,801.8314819335938
190,803.8461303710938,790.5494384765625,801.8314819335938,807.4725341796875
191,801.4285888671875,789.3406372070312,801.4285888671875,813.5164794921875
192,799.4139404296875,792.5640869140625,802.2344360351562,804.2490844726562
193,799.4139404296875,793.7728881835938,798.6080322265625,800.6226806640625
194,798.2051391601562,792.967041015625,792.5640869140625,804.2490844726562
195,788.5347900390625,790.5494384765625,793.3699340820312,792.1611938476562
196,786.1171875,787.7289428710938,794.1758422851562,784.5054931640625
197,790.952392578125,789.3406372070312,790.5494384765625,782.4908447265625
198,801.025634765625,792.1611938476562,790.1465454101562,792.967041015625
199,798.2051391601562,792.967041015625,794.1758422851562,804.2490844726562
200,795.7875366210938,796.996337890625,799.4139404296875,799.8168334960938
201,797.3992919921875,795.3846435546875,799.8168334960938,796.5933837890625
202,795.7875366210938,791.7582397460938,796.1904907226562,794.5787353515625
203,799.4139404296875,793.7728881835938,795.7875366210938,795.3846435546875
204,803.040283203125,792.1611938476562,797.8021850585938,794.1758422851562
205,803.8461303710938,791.3552856445312,799.8168334960938,793.7728881835938
206,798.2051391601562,791.7582397460938,796.996337890625,796.1904907226562
207,792.967041015625,790.5494384765625,794.5787353515625,794.5787353515625
208,796.5933837890625,792.5640869140625,794.5787353515625,791.7582397460938
209,798.2051391601562,789.3406372070312,796.5933837890625,788.1318969726562
210,797.8021850585938,788.1318969726562,794.981689453125,794.1758422851562
211,794.5787353515625,790.5494384765625,791.7582397460938,797.8021850585938
212,794.5787353515625,789.3406372070312,792.967041015625,793.3699340820312
213,801.4285888671875,791.3552856445312,792.5640869140625,791.3552856445312
214,802.2344360351562,790.5494384765625,791.3552856445312,791.7582397460938
215,795.7875366210938,791.3552856445312,795.7875366210938,792.5640869140625
216,793.3699340820312,793.7728881835938,796.5933837890625,793.7728881835938
217,791.3552856445312,787.3259887695312,795.7875366210938,799.010986328125
218,792.5640869140625,786.5201416015625,797.8021850585938,809.4871826171875
219,792.5640869140625,790.1465454101562,799.4139404296875,809.4871826171875
220,786.1171875,791.3552856445312,799.010986328125,801.4285888671875
221,788.1318969726562,787.7289428710938,794.5787353515625,797.3992919921875
222,794.1758422851562,787.3259887695312,795.7875366210938,797.3992919921875
223,796.5933837890625,790.952392578125,795.3846435546875,796.996337890625
224,801.025634765625,789.3406372070312,797.8021850585938,800.6226806640625
225,806.2637329101562,788.937744140625,800.6226806640625,804.6520385742188
226,801.4285888671875,790.1465454101562,801.8314819335938,791.7582397460938
227,800.2197875976562,793.3699340820312,799.8168334960938,792.5640869140625
228,796.5933837890625,791.7582397460938,799.010986328125,794.981689453125
229,796.1904907226562,786.923095703125,798.6080322265625,794.5787353515625
230,800.2197875976562,784.5054931640625,797.8021850585938,799.8168334960938
231,796.1904907226562,785.3113403320312,799.8168334960938,798.6080322265625
232,794.5787353515625,787.3259887695312,800.2197875976562,800.2197875976562
233,792.5640869140625,786.5201416015625,794.1758422851562,803.8461303710938
234,788.5347900390625,790.952392578125,792.5640869140625,792.967041015625
235,791.3552856445312,792.1611938476562,796.1904907226562,786.923095703125
236,792.1611938476562,788.1318969726562,795.3846435546875,793.3699340820312
237,787.7289428710938,792.5640869140625,795.3846435546875,790.952392578125
238,794.5787353515625,795.3846435546875,793.3699340820312,790.952392578125
239,798.2051391601562,793.3699340820312,792.1611938476562,791.3552856445312
240,791.7582397460938,791.7582397460938,794.981689453125,797.8021850585938
241,790.5494384765625,797.3992919921875,796.996337890625,805.054931640625
242,794.5787353515625,795.3846435546875,794.5787353515625,799.4139404296875
243,796.5933837890625,790.1465454101562,792.5640869140625,794.981689453125
244,801.8314819335938,790.952392578125,792.967041015625,802.2344360351562
245,805.8607788085938,790.5494384765625,796.5933837890625,810.2930297851562
246,797.3992919921875,788.937744140625,796.5933837890625,801.8314819335938
247,794.981689453125,790.5494384765625,796.996337890625,798.6080322265625
248,801.025634765625,793.3699340820312,801.4285888671875,797.8021850585938
249,800.6226806640625,795.7875366210938,798.2051391601562,794.1758422851562
250,801.8314819335938,796.5933837890625,796.1904907226562,788.1318969726562
251,804.2490844726562,795.3846435546875,795.3846435546875,787.3259887695312
252,800.2197875976562,797.3992919921875,796.5933837890625,794.1758422851562
253,798.2051391601562,802.6373901367188,799.010986328125,797.8021850585938
254,802.6373901367188,802.6373901367188,795.3846435546875,796.5933837890625
255,806.2637329101562,800.2197875976562,796.1904907226562,799.010986328125
256,805.4578857421875,802.2344360351562,797.3992919921875,813.113525390625
257,800.6226806640625,802.6373901367188,801.025634765625,813.5164794921875
258,796.5933837890625,802.2344360351562,802.6373901367188,803.8461303710938
259,795.7875366210938,803.4432373046875,798.2051391601562,808.6813354492188
260,801.8314819335938,799.8168334960938,802.2344360351562,811.098876953125
261,803.040283203125,803.8461303710938,803.040283203125,809.084228515625
262,798.2051391601562,807.069580078125,804.6520385742188,813.113525390625
263,793.3699340820312,808.6813354492188,805.8607788085938,809.89013671875
264,792.5640869140625,809.4871826171875,805.8607788085938,801.8314819335938
265,796.5933837890625,805.054931640625,805.8607788085938,806.6666870117188
266,803.040283203125,802.6373901367188,802.6373901367188,809.89013671875
267,803.8461303710938,807.069580078125,799.010986328125,809.4871826171875
268,798.2051391601562,810.6959838867188,794.1758422851562,807.87548828125
269,795.3846435546875,808.2783813476562,796.5933837890625,796.996337890625
270,801.8314819335938,805.8607788085938,799.4139404296875,796.996337890625
271,807.87548828125,799.4139404296875,795.3846435546875,801.4285888671875
272,803.8461303710938,797.3992919921875,793.7728881835938,799.8168334960938
273,801.8314819335938,802.2344360351562,793.7728881835938,792.5640869140625
274,806.6666870117188,804.6520385742188,792.1611938476562,793.3699340820312
275,807.069580078125,800.6226806640625,789.7435913085938,795.7875366210938
276,804.2490844726562,795.7875366210938,794.1758422851562,794.981689453125
277,799.010986328125,796.5933837890625,797.8021850585938,794.1758422851562
278,796.996337890625,792.967041015625,795.7875366210938,793.7728881835938
279,794.981689453125,791.3552856445312,792.967041015625,801.8314819335938
280,790.952392578125,797.3992919921875,795.3846435546875,800.2197875976562
281,789.3406372070312,799.4139404296875,800.2197875976562,797.8021850585938
282,791.7582397460938,797.3992919921875,799.8168334960938,808.2783813476562
283,792.1611938476562,796.5933837890625,796.5933837890625,806.2637329101562
284,790.952392578125,795.3846435546875,796.1904907226562,799.8168334960938
285,790.5494384765625,791.7582397460938,799.4139404296875,800.2197875976562
286,794.1758422851562,792.5640869140625,799.010986328125,795.7875366210938
287,797.8021850585938,794.1758422851562,797.8021850585938,797.8021850585938
288,790.1465454101562,797.8021850585938,796.996337890625,799.4139404296875
289,784.908447265625,805.4578857421875,797.8021850585938,794.981689453125
290,788.5347900390625,800.2197875976562,799.4139404296875,791.7582397460938
291,790.5494384765625,796.996337890625,800.2197875976562,794.1758422851562
292,790.5494384765625,802.6373901367188,801.8314819335938,793.3699340820312
293,787.7289428710938,803.8461303710938,799.8168334960938,788.5347900390625
294,789.3406372070312,803.040283203125,796.1904907226562,791.3552856445312
295,791.7582397460938,801.8314819335938,793.3699340820312,788.5347900390625
296,796.5933837890625,803.8461303710938,796.1904907226562,784.5054931640625
297,799.010986328125,798.6080322265625,798.6080322265625,791.7582397460938
298,792.1611938476562,791.3552856445312,796.996337890625,792.1611938476562
299,787.3259887695312,792.1611938476562,795.7875366210938,793.7728881835938
300,790.952392578125,797.3992919921875,792.5640869140625,796.996337890625
301,795.3846435546875,794.1758422851562,799.4139404296875,799.4139404296875
302,798.6080322265625,791.7582397460938,803.8461303710938,810.2930297851562
303,798.6080322265625,794.1758422851562,799.010986328125,807.87548828125
304,798.2051391601562,795.7875366210938,798.6080322265625,791.3552856445312
305,798.6080322265625,798.2051391601562,801.4285888671875,790.1465454101562
306,797.8021850585938,796.996337890625,800.6226806640625,799.8168334960938
307,796.5933837890625,796.5933837890625,802.6373901367188,797.8021850585938
308,794.981689453125,796.5933837890625,802.2344360351562,797.3992919921875
309,798.2051391601562,793.3699340820312,794.981689453125,804.6520385742188
310,796.5933837890625,786.923095703125,794.5787353515625,803.8461303710938
311,794.5787353515625,786.5201416015625,794.981689453125,796.5933837890625
312,794.5787353515625,785.3113403320312,795.3846435546875,789.7435913085938
313,794.1758422851562,789.7435913085938,799.010986328125,794.5787353515625
314,795.3846435546875,788.937744140625,796.996337890625,799.4139404296875
315,795.3846435546875,788.5347900390625,798.6080322265625,801.025634765625
316,797.8021850585938,792.1611938476562,801.025634765625,801.4285888671875
317,800.2197875976562,787.7289428710938,799.4139404296875,802.6373901367188
318,796.996337890625,787.3259887695312,799.8168334960938,802.2344360351562
319,796.1904907226562,792.1611938476562,800.6226806640625,800.2197875976562
320,796.996337890625,797.8021850585938,803.8461303710938,801.025634765625
321,797.3992919921875,797.8021850585938,803.8461303710938,797.3992919921875
322,799.4139404296875,793.3699340820312,806.2637329101562,794.981689453125
323,797.3992919921875,794.1758422851562,805.8607788085938,797.3992919921875
324,797.3992919921875,796.1904907226562,804.2490844726562,804.6520385742188
325,797.8021850585938,795.7875366210938,806.2637329101562,803.8461303710938
326,796.1904907226562,793.7728881835938,805.8607788085938,798.6080322265625
327,794.5787353515625,792.5640869140625,805.4578857421875,803.4432373046875
328,797.8021850585938,793.3699340820312,802.2344360351562,816.7399291992188
329,799.4139404296875,788.1318969726562,801.025634765625,815.1282348632812
330,796.5933837890625,785.3113403320312,801.4285888671875,800.6226806640625
331,805.054931640625,792.5640869140625,801.025634765625,801.8314819335938
332,812.7106323242188,790.5494384765625,803.8461303710938,807.87548828125
333,815.5311279296875,789.7435913085938,807.069580078125,815.93408203125
334,812.3076782226562,796.996337890625,806.6666870117188,817.1428833007812
335,811.098876953125,800.2197875976562,802.2344360351562,809.084228515625
336,811.098876953125,795.7875366210938,800.2197875976562,801.8314819335938
337,806.6666870117188,795.7875366210938,792.5640869140625,793.7728881835938
338,807.87548828125,803.8461303710938,790.1465454101562,792.1611938476562
339,805.8607788085938,798.2051391601562,792.5640869140625,792.5640869140625
340,797.3992919921875,789.3406372070312,794.981689453125,798.6080322265625
341,792.1611938476562,792.5640869140625,794.1758422851562,793.3699340820312
342,794.1758422851562,797.3992919921875,794.5787353515625,783.6996459960938
343,801.4285888671875,800.6226806640625,800.2197875976562,790.1465454101562
344,803.040283203125,798.2051391601562,802.2344360351562,794.1758422851562
345,798.2051391601562,792.1611938476562,796.1904907226562,792.967041015625
346,793.3699340820312,792.1611938476562,795.7875366210938,797.8021850585938
347,792.1611938476562,786.1171875,800.2197875976562,798.2051391601562
348,790.5494384765625,783.6996459960938,795.7875366210938,793.7728881835938
349,788.5347900390625,789.3406372070312,794.1758422851562,796.996337890625
350,786.5201416015625,783.6996459960938,795.7875366210938,792.1611938476562
351,790.1465454101562,778.8644409179688,794.5787353515625,793.3699340820312
352,793.3699340820312,782.4908447265625,796.5933837890625,804.6520385742188
353,793.7728881835938,786.5201416015625,803.040283203125,806.6666870117188
354,790.952392578125,786.923095703125,808.2783813476562,805.4578857421875
355,789.7435913085938,784.908447265625,803.040283203125,809.4871826171875
356,786.923095703125,784.1025390625,798.2051391601562,807.87548828125
357,785.3113403320312,782.4908447265625,796.996337890625,801.4285888671875
358,792.967041015625,780.879150390625,798.6080322265625,803.040283203125
359,797.3992919921875,783.6996459960938,804.2490844726562,807.069580078125
360,799.010986328125,791.3552856445312,808.2783813476562,811.90478515625
361,799.8168334960938,794.1758422851562,806.6666870117188,808.2783813476562
362,807.87548828125,791.7582397460938,801.025634765625,807.069580078125
363,813.5164794921875,795.3846435546875,795.3846435546875,816.3369750976562
364,809.89013671875,794.1758422851562,788.1318969726562,810.2930297851562
365,808.6813354492188,788.937744140625,787.3259887695312,797.3992919921875
366,807.87548828125,790.1465454101562,787.3259887695312,790.1465454101562
367,807.87548828125,789.7435913085938,788.5347900390625,789.7435913085938
368,803.4432373046875,792.1611938476562,794.1758422851562,785.3113403320312
369,794.5787353515625,790.952392578125,793.7728881835938,778.8644409179688
370,793.3699340820312,786.1171875,793.7728881835938,784.908447265625
371,789.7435913085938,784.908447265625,792.1611938476562,786.1171875
372,788.1318969726562,785.3113403320312,788.937744140625,782.4908447265625
373,794.5787353515625,789.3406372070312,788.937744140625,788.1318969726562
374,793.3699340820312,790.1465454101562,791.7582397460938,790.1465454101562
375,784.908447265625,791.3552856445312,794.981689453125,791.7582397460938
376,784.5054931640625,790.5494384765625,795.3846435546875,796.1904907226562
377,789.3406372070312,788.937744140625,795.3846435546875,798.2051391601562
378,787.7289428710938,788.1318969726562,794.981689453125,802.6373901367188
379,784.5054931640625,790.952392578125,795.3846435546875,802.2344360351562
380,787.7289428710938,790.1465454101562,799.010986328125,799.8168334960938
381,792.5640869140625,790.1465454101562,799.8168334960938,801.8314819335938
382,793.7728881835938,793.3699340820312,796.5933837890625,800.2197875976562
383,790.952392578125,788.5347900390625,796.5933837890625,797.8021850585938
384,788.937744140625,787.7289428710938,795.3846435546875,796.996337890625
385,793.7728881835938,790.5494384765625,797.8021850585938,798.6080322265625
386,794.5787353515625,792.5640869140625,798.2051391601562,795.7875366210938
387,794.1758422851562,792.1611938476562,796.5933837890625,792.5640869140625
388,796.5933837890625,793.3699340820312,798.2051391601562,789.7435913085938
389,798.2051391601562,793.7728881835938,795.3846435546875,792.5640869140625
390,798.2051391601562,793.3699340820312,793.3699340820312,804.2490844726562
391,793.3699340820312,795.3846435546875,797.8021850585938,801.8314819335938
392,795.3846435546875,799.8168334960938,798.6080322265625,792.967041015625
393,797.8021850585938,800.6226806640625,797.3992919921875,798.2051391601562
394,791.3552856445312,795.3846435546875,796.996337890625,794.5787353515625
395,799.4139404296875,796.5933837890625,799.4139404296875,791.3552856445312
396,809.89013671875,799.010986328125,797.3992919921875,799.4139404296875
397,806.2637329101562,802.6373901367188,796.1904907226562,800.2197875976562
398,797.3992919921875,800.6226806640625,794.981689453125,792.967041015625
399,795.3846435546875,791.3552856445312,792.5640869140625,790.5494384765625
400,797.8021850585938,793.7728881835938,794.1758422851562,794.5787353515625
401,797.8021850585938,793.3699340820312,795.3846435546875,800.2197875976562
402,790.952392578125,787.3259887695312,793.3699340820312,799.4139404296875
403,788.937744140625,793.3699340820312,791.7582397460938,792.1611938476562
404,790.5494384765625,788.1318969726562,791.3552856445312,792.5640869140625
405,788.1318969726562,785.3113403320312,792.967041015625,798.6080322265625
406,788.1318969726562,789.7435913085938,793.7728881835938,796.5933837890625
407,789.3406372070312,789.7435913085938,794.5787353515625,794.1758422851562
408,792.5640869140625,791.7582397460938,794.981689453125,796.5933837890625
409,799.010986328125,793.7728881835938,792.967041015625,801.8314819335938
410,797.3992919921875,791.7582397460938,791.3552856445312,798.2051391601562
411,795.3846435546875,790.5494384765625,789.3406372070312,793.3699340820312
412,793.7728881835938,792.967041015625,784.908447265625,794.5787353515625
413,790.952392578125,794.5787353515625,786.5201416015625,802.2344360351562
414,792.967041015625,794.1758422851562,791.7582397460938,803.040283203125
415,797.8021850585938,794.5787353515625,795.7875366210938,799.8168334960938
416,797.3992919921875,797.3992919921875,795.3846435546875,803.8461303710938
417,793.3699340820312,797.3992919921875,794.5787353515625,805.4578857421875
418,792.5640869140625,799.010986328125,791.3552856445312,796.1904907226562
419,792.1611938476562,797.8021850585938,789.3406372070312,782.893798828125
420,794.5787353515625,796.5933837890625,789.7435913085938,780.0732421875
421,792.5640869140625,792.967041015625,789.3406372070312,783.2966918945312
422,796.1904907226562,795.3846435546875,790.5494384765625,785.7142944335938
423,803.040283203125,801.4285888671875,790.952392578125,789.3406372070312
424,804.6520385742188,801.025634765625,789.3406372070312,793.3699340820312
425,800.2197875976562,796.1904907226562,790.5494384765625,794.1758422851562
426,796.996337890625,794.5787353515625,796.1904907226562,796.5933837890625
427,799.8168334960938,795.7875366210938,794.1758422851562,792.1611938476562
428,800.6226806640625,790.5494384765625,792.1611938476562,801.4285888671875
429,800.2197875976562,788.937744140625,799.4139404296875,815.1282348632812
430,794.981689453125,794.1758422851562,798.6080322265625,801.8314819335938
431,795.7875366210938,795.3846435546875,795.3846435546875,798.2051391601562
432,798.2051391601562,795.7875366210938,798.2051391601562,803.8461303710938
433,795.3846435546875,794.981689453125,796.996337890625,799.010986328125
434,793.3699340820312,794.981689453125,796.1904907226562,803.040283203125
435,797.8021850585938,794.1758422851562,796.996337890625,809.084228515625
436,799.8168334960938,789.7435913085938,799.4139404296875,812.7106323242188
437,792.5640869140625,787.7289428710938,802.2344360351562,804.6520385742188
438,789.3406372070312,788.5347900390625,798.6080322265625,790.1465454101562
439,788.937744140625,782.087890625,790.952392578125,786.923095703125
440,794.1758422851562,784.5054931640625,794.1758422851562,796.996337890625
441,791.7582397460938,792.967041015625,796.996337890625,795.3846435546875
442,787.7289428710938,795.7875366210938,795.3846435546875,787.7289428710938
443,791.7582397460938,791.3552856445312,796.5933837890625,792.5640869140625
444,795.3846435546875,784.5054931640625,796.996337890625,789.7435913085938
445,791.7582397460938,782.893798828125,793.7728881835938,787.7289428710938
446,790.952392578125,782.893798828125,793.3699340820312,791.7582397460938
447,792.1611938476562,782.087890625,797.3992919921875,796.996337890625
448,791.3552856445312,784.908447265625,799.010986328125,801.4285888671875
449,790.1465454101562,784.5054931640625,797.8021850585938,797.3992919921875
450,790.1465454101562,784.908447265625,794.5787353515625,795.3846435546875
451,794.5787353515625,787.3259887695312,796.1904907226562,799.010986328125
452,794.981689453125,788.937744140625,796.1904907226562,799.8168334960938
453,787.7289428710938,790.5494384765625,796.5933837890625,793.3699340820312
454,790.952392578125,787.3259887695312,800.2197875976562,791.7582397460938
455,800.6226806640625,788.5347900390625,797.3992919921875,795.7875366210938
456,798.6080322265625,788.1318969726562,793.3699340820312,791.7582397460938
457,800.6226806640625,788.5347900390625,794.981689453125,792.5640869140625
458,802.2344360351562,786.5201416015625,797.3992919921875,796.996337890625
459,799.010986328125,784.5054931640625,796.996337890625,804.2490844726562
460,796.996337890625,790.952392578125,798.6080322265625,801.8314819335938
461,802.6373901367188,793.7728881835938,798.2051391601562,799.010986328125
462,811.5018310546875,789.7435913085938,797.8021850585938,807.87548828125
463,815.5311279296875,792.1611938476562,798.6080322265625,813.91943359375
464,817.5457763671875,789.3406372070312,797.8021850585938,811.90478515625
465,820.7692260742188,790.1465454101562,805.8607788085938,806.2637329101562
466,817.94873046875,796.5933837890625,804.6520385742188,803.8461303710938
467,813.91943359375,794.981689453125,795.7875366210938,800.2197875976562
468,811.5018310546875,791.3552856445312,796.1904907226562,799.010986328125
469,806.6666870117188,788.937744140625,797.8021850585938,800.6226806640625
470,800.6226806640625,787.3259887695312,796.1904907226562,797.3992919921875
471,797.8021850585938,788.1318969726562,798.6080322265625,797.8021850585938
472,799.4139404296875,790.5494384765625,802.2344360351562,800.6226806640625
473,800.2197875976562,790.952392578125,801.4285888671875,805.8607788085938
474,795.7875366210938,787.3259887695312,796.1904907226562,806.2637329101562
475,796.1904907226562,786.923095703125,791.7582397460938,805.8607788085938
476,805.4578857421875,793.3699340820312,799.010986328125,806.2637329101562
477,806.2637329101562,798.2051391601562,802.6373901367188,804.6520385742188
478,795.3846435546875,798.2051391601562,795.7875366210938,796.996337890625
479,791.7582397460938,798.2051391601562,792.967041015625,797.8021850585938
480,792.1611938476562,794.5787353515625,795.7875366210938,797.3992919921875
481,799.4139404296875,793.7728881835938,794.5787353515625,799.010986328125
482,799.010986328125,791.7582397460938,789.7435913085938,808.6813354492188
483,788.5347900390625,792.1611938476562,790.1465454101562,798.6080322265625
484,796.996337890625,800.6226806640625,797.3992919921875,790.1465454101562
485,801.4285888671875,796.996337890625,799.8168334960938,795.3846435546875
486,798.2051391601562,790.5494384765625,799.010986328125,795.3846435546875
487,799.8168334960938,792.967041015625,798.6080322265625,792.967041015625
488,794.5787353515625,793.3699340820312,796.5933837890625,798.2051391601562
489,794.5787353515625,799.010986328125,799.8168334960938,800.6226806640625
490,800.6226806640625,803.4432373046875,803.040283203125,796.996337890625
491,799.010986328125,801.4285888671875,807.069580078125,794.5787353515625
492,800.2197875976562,796.1904907226562,805.8607788085938,798.2051391601562
493,794.981689453125,790.5494384765625,795.3846435546875,799.8168334960938
494,789.7435913085938,790.5494384765625,794.5787353515625,800.2197875976562
495,791.3552856445312,793.7728881835938,798.6080322265625,799.010986328125
496,797.3992919921875,792.5640869140625,799.010986328125,799.4139404296875
497,801.025634765625,792.5640869140625,794.981689453125,802.2344360351562
498,795.3846435546875,794.981689453125,794.1758422851562,795.3846435546875
499,788.5347900390625,794.1758422851562,797.3992919921875,784.5054931640625
500,790.952392578125,786.1171875,795.7875366210938,788.5347900390625
501,791.3552856445312,782.4908447265625,792.967041015625,791.3552856445312
502,788.937744140625,786.5201416015625,795.3846435546875,788.937744140625
503,795.3846435546875,789.3406372070312,798.2051391601562,791.3552856445312
504,797.3992919921875,786.923095703125,798.2051391601562,795.7875366210938
505,799.8168334960938,785.3113403320312,798.6080322265625,798.2051391601562
506,794.5787353515625,784.1025390625,798.2051391601562,793.7728881835938
507,779.6703491210938,784.908447265625,796.1904907226562,784.5054931640625
508,777.6557006835938,790.1465454101562,794.981689453125,780.4761962890625
509,781.6849975585938,788.937744140625,796.5933837890625,792.1611938476562
510,782.893798828125,787.7289428710938,801.4285888671875,798.2051391601562
511,787.3259887695312,786.5201416015625,805.4578857421875,786.923095703125
512,790.1465454101562,785.7142944335938,800.2197875976562,791.3552856445312
513,788.937744140625,787.3259887695312,793.7728881835938,790.1465454101562
514,789.3406372070312,787.3259887695312,794.5787353515625,785.3113403320312
515,787.3259887695312,782.893798828125,792.1611938476562,783.2966918945312
516,788.937744140625,787.3259887695312,794.981689453125,784.1025390625
517,799.010986328125,790.5494384765625,796.5933837890625,793.7728881835938
518,801.4285888671875,784.5054931640625,794.1758422851562,799.4139404296875
519,792.5640869140625,782.087890625,793.7728881835938,792.5640869140625
520,792.1611938476562,784.1025390625,791.3552856445312,796.1904907226562
521,794.1758422851562,784.908447265625,790.952392578125,804.6520385742188
522,788.1318969726562,787.7289428710938,794.5787353515625,796.1904907226562
523,790.5494384765625,790.1465454101562,794.5787353515625,794.5787353515625
524,794.981689453125,791.3552856445312,792.1611938476562,799.010986328125
525,792.5640869140625,793.3699340820312,796.5933837890625,792.967041015625
526,798.6080322265625,796.996337890625,796.996337890625,793.3699340820312
527,806.6666870117188,796.1904907226562,797.8021850585938,800.2197875976562
528,800.6226806640625,792.5640869140625,799.010986328125,796.996337890625
529,790.1465454101562,790.1465454101562,792.967041015625,795.7875366210938
530,788.1318969726562,789.3406372070312,791.7582397460938,796.1904907226562
531,792.1611938476562,797.8021850585938,794.5787353515625,798.2051391601562
532,799.4139404296875,801.4285888671875,796.996337890625,803.8461303710938
533,801.4285888671875,793.3699340820312,795.3846435546875,799.4139404296875
534,792.1611938476562,787.3259887695312,793.7728881835938,788.937744140625
535,790.5494384765625,784.1025390625,795.3846435546875,786.5201416015625
536,794.5787353515625,783.2966918945312,796.1904907226562,795.3846435546875
537,793.7728881835938,780.0732421875,795.7875366210938,790.5494384765625
538,788.937744140625,783.2966918945312,793.3699340820312,784.908447265625
539,784.908447265625,786.5201416015625,794.981689453125,790.1465454101562
540,781.2820434570312,786.1171875,796.996337890625,786.5201416015625
541,787.3259887695312,788.5347900390625,793.7728881835938,788.5347900390625
542,787.3259887695312,788.937744140625,789.7435913085938,788.937744140625
543,788.1318969726562,786.5201416015625,791.3552856445312,791.3552856445312
544,790.1465454101562,788.5347900390625,796.5933837890625,797.3992919921875
545,788.937744140625,796.5933837890625,794.981689453125,792.967041015625
546,795.3846435546875,792.967041015625,792.967041015625,796.5933837890625
547,801.025634765625,789.3406372070312,792.967041015625,796.5933837890625
548,800.2197875976562,793.7728881835938,794.981689453125,794.1758422851562
549,793.3699340820312,792.1611938476562,795.3846435546875,792.5640869140625
550,794.5787353515625,794.1758422851562,792.967041015625,791.7582397460938
551,793.3699340820312,798.2051391601562,794.981689453125,797.3992919921875
552,795.3846435546875,801.4285888671875,793.7728881835938,797.3992919921875
553,803.4432373046875,804.6520385742188,795.3846435546875,796.996337890625
554,802.2344360351562,803.4432373046875,800.2197875976562,796.1904907226562
555,800.2197875976562,801.4285888671875,799.010986328125,793.7728881835938
556,799.8168334960938,798.6080322265625,798.6080322265625,798.6080322265625
557,795.3846435546875,801.025634765625,799.8168334960938,799.010986328125
558,794.5787353515625,803.4432373046875,796.5933837890625,793.3699340820312
559,791.3552856445312,792.967041015625,796.996337890625,788.1318969726562
560,787.3259887695312,792.1611938476562,800.2197875976562,790.952392578125
561,784.1025390625,795.7875366210938,797.3992919921875,796.5933837890625
562,788.937744140625,794.1758422851562,796.1904907226562,795.7875366210938
563,795.3846435546875,792.967041015625,797.8021850585938,794.1758422851562
564,796.5933837890625,789.7435913085938,796.5933837890625,794.981689453125
565,798.2051391601562,793.3699340820312,796.996337890625,792.1611938476562
566,794.981689453125,792.5640869140625,800.2197875976562,796.5933837890625
567,793.3699340820312,794.5787353515625,796.996337890625,801.4285888671875
568,795.7875366210938,796.996337890625,796.996337890625,795.3846435546875
569,796.5933837890625,795.7875366210938,803.040283203125,796.1904907226562
570,797.3992919921875,793.3699340820312,801.4285888671875,801.8314819335938
571,797.8021850585938,791.7582397460938,795.3846435546875,799.8168334960938
572,792.967041015625,790.1465454101562,800.6226806640625,789.3406372070312
573,787.7289428710938,787.3259887695312,799.010986328125,784.5054931640625
574,793.3699340820312,791.3552856445312,795.3846435546875,795.7875366210938
575,796.996337890625,793.3699340820312,801.025634765625,804.2490844726562
576,797.3992919921875,795.3846435546875,799.4139404296875,803.8461303710938
577,797.3992919921875,795.3846435546875,793.3699340820312,803.4432373046875
578,800.6226806640625,794.5787353515625,794.1758422851562,805.8607788085938
579,799.4139404296875,798.2051391601562,796.5933837890625,803.8461303710938
580,792.5640869140625,800.2197875976562,798.6080322265625,801.025634765625
581,790.952392578125,796.5933837890625,800.2197875976562,803.4432373046875
582,796.1904907226562,789.3406372070312,795.7875366210938,811.098876953125
583,796.996337890625,792.5640869140625,794.981689453125,806.6666870117188
584,796.1904907226562,796.1904907226562,795.7875366210938,798.2051391601562
585,795.3846435546875,794.1758422851562,795.3846435546875,801.025634765625
586,793.7728881835938,791.3552856445312,796.1904907226562,794.981689453125
587,792.5640869140625,791.7582397460938,795.3846435546875,787.7289428710938
588,795.3846435546875,796.996337890625,796.5933837890625,794.981689453125
589,798.2051391601562,800.2197875976562,796.5933837890625,797.3992919921875
590,790.5494384765625,802.6373901367188,797.3992919921875,797.8021850585938
591,792.967041015625,799.8168334960938,798.2051391601562,805.4578857421875
592,797.8021850585938,795.3846435546875,799.4139404296875,801.8314819335938
593,799.4139404296875,800.6226806640625,803.040283203125,796.5933837890625
594,801.4285888671875,802.6373901367188,802.6373901367188,800.6226806640625
595,793.3699340820312,801.4285888671875,801.4285888671875,799.8168334960938
596,790.1465454101562,801.025634765625,800.6226806640625,794.1758422851562
597,795.3846435546875,798.6080322265625,801.4285888671875,797.3992919921875
598,796.5933837890625,796.5933837890625,801.4285888671875,792.5640869140625
599,794.5787353515625,794.5787353515625,797.8021850585938,786.923095703125
600,790.1465454101562,791.7582397460938,797.3992919921875,790.1465454101562
601,793.3699340820312,791.7582397460938,796.5933837890625,800.6226806640625
602,792.967041015625,795.3846435546875,797.8021850585938,805.8607788085938
603,792.1611938476562,796.5933837890625,797.8021850585938,801.025634765625
604,800.2197875976562,796.996337890625,797.8021850585938,807.069580078125
605,801.4285888671875,796.996337890625,799.010986328125,806.6666870117188
606,795.7875366210938,794.5787353515625,801.4285888671875,794.1758422851562
607,794.5787353515625,795.7875366210938,803.040283203125,790.952392578125
608,801.4285888671875,794.981689453125,801.8314819335938,798.2051391601562
609,799.8168334960938,788.1318969726562,802.6373901367188,799.4139404296875
610,788.937744140625,788.937744140625,801.4285888671875,790.5494384765625
611,788.937744140625,792.5640869140625,799.4139404296875,792.967041015625
612,793.7728881835938,792.1611938476562,802.6373901367188,794.981689453125
613,796.1904907226562,791.7582397460938,801.025634765625,795.3846435546875
614,798.6080322265625,790.952392578125,799.4139404296875,798.6080322265625
615,796.996337890625,787.3259887695312,798.6080322265625,796.5933837890625
616,794.5787353515625,788.5347900390625,795.7875366210938,799.4139404296875
617,795.7875366210938,787.7289428710938,796.5933837890625,803.4432373046875
618,794.1758422851562,788.1318969726562,798.6080322265625,798.2051391601562
619,796.996337890625,794.5787353515625,800.2197875976562,795.7875366210938
620,799.010986328125,790.952392578125,799.8168334960938,793.7728881835938
621,793.3699340820312,786.5201416015625,798.2051391601562,793.3699340820312
622,788.5347900390625,789.7435913085938,796.1904907226562,796.996337890625
623,785.3113403320312,787.3259887695312,794.981689453125,798.2051391601562
624,789.3406372070312,786.5201416015625,796.5933837890625,799.8168334960938
625,796.5933837890625,791.7582397460938,797.8021850585938,795.3846435546875
626,797.3992919921875,793.3699340820312,799.010986328125,799.4139404296875
627,791.3552856445312,796.5933837890625,796.1904907226562,804.6520385742188
628,791.3552856445312,795.3846435546875,797.3992919921875,811.098876953125
629,794.5787353515625,792.1611938476562,802.2344360351562,810.6959838867188
630,792.1611938476562,792.5640869140625,795.3846435546875,799.4139404296875
631,795.7875366210938,790.5494384765625,793.7728881835938,800.2197875976562
632,795.3846435546875,785.7142944335938,800.2197875976562,803.8461303710938
633,787.3259887695312,782.087890625,799.4139404296875,796.1904907226562
634,792.1611938476562,784.908447265625,799.010986328125,794.981689453125
635,799.010986328125,788.5347900390625,803.040283203125,803.4432373046875
636,795.7875366210938,790.5494384765625,801.8314819335938,803.4432373046875
637,792.5640869140625,789.3406372070312,797.8021850585938,799.8168334960938
638,793.7728881835938,788.937744140625,797.3992919921875,799.4139404296875
639,793.3699340820312,789.7435913085938,796.1904907226562,800.2197875976562
640,791.7582397460938,792.1611938476562,798.2051391601562,799.8168334960938
641,790.1465454101562,793.3699340820312,801.8314819335938,796.996337890625
642,788.937744140625,786.5201416015625,802.2344360351562,794.981689453125
643,786.1171875,782.893798828125,801.025634765625,791.3552856445312
644,789.7435913085938,790.1465454101562,801.4285888671875,792.1611938476562
645,787.7289428710938,793.3699340820312,801.4285888671875,791.7582397460938
646,781.6849975585938,787.3259887695312,792.967041015625,789.3406372070312
647,783.2966918945312,788.5347900390625,790.5494384765625,790.5494384765625
648,786.1171875,791.3552856445312,796.996337890625,788.5347900390625
649,792.967041015625,792.1611938476562,800.2197875976562,790.5494384765625
650,801.4285888671875,796.5933837890625,799.010986328125,792.5640869140625
651,801.025634765625,793.7728881835938,797.3992919921875,798.2051391601562
652,791.7582397460938,789.7435913085938,795.7875366210938,796.5933837890625
653,790.1465454101562,789.3406372070312,794.5787353515625,785.7142944335938
654,794.981689453125,787.7289428710938,795.7875366210938,790.5494384765625
655,793.3699340820312,788.1318969726562,790.5494384765625,790.952392578125
656,792.967041015625,791.7582397460938,787.7289428710938,790.5494384765625
657,798.6080322265625,796.996337890625,792.967041015625,794.1758422851562
658,801.025634765625,796.996337890625,792.967041015625,792.967041015625
659,799.8168334960938,797.8021850585938,793.7728881835938,791.3552856445312
660,806.6666870117188,802.6373901367188,796.1904907226562,794.981689453125
661,809.89013671875,803.4432373046875,796.996337890625,800.6226806640625
662,806.6666870117188,794.5787353515625,799.010986328125,800.2197875976562
663,803.040283203125,787.3259887695312,799.010986328125,796.5933837890625
664,797.8021850585938,790.5494384765625,797.8021850585938,795.7875366210938
665,794.981689453125,788.5347900390625,797.8021850585938,798.2051391601562
666,799.010986328125,788.1318969726562,799.4139404296875,812.7106323242188
667,795.3846435546875,792.1611938476562,804.2490844726562,812.3076782226562
668,790.952392578125,794.5787353515625,806.2637329101562,799.4139404296875
669,794.1758422851562,790.952392578125,802.2344360351562,799.010986328125
670,794.1758422851562,786.923095703125,799.8168334960938,797.3992919921875
671,794.981689453125,794.1758422851562,801.025634765625,797.8021850585938
672,793.7728881835938,795.3846435546875,800.6226806640625,798.2051391601562
673,799.010986328125,791.3552856445312,799.8168334960938,798.2051391601562
674,800.2197875976562,791.3552856445312,801.025634765625,797.3992919921875
675,799.4139404296875,792.967041015625,800.2197875976562,794.5787353515625
676,805.054931640625,794.981689453125,800.2197875976562,795.3846435546875
677,804.6520385742188,790.1465454101562,801.025634765625,796.996337890625
678,806.2637329101562,787.7289428710938,796.5933837890625,803.040283203125
679,803.8461303710938,792.1611938476562,795.7875366210938,799.4139404296875
680,796.5933837890625,790.1465454101562,796.996337890625,789.3406372070312
681,797.8021850585938,787.3259887695312,796.996337890625,797.8021850585938
682,802.6373901367188,792.5640869140625,794.981689453125,809.4871826171875
683,798.2051391601562,792.967041015625,797.3992919921875,807.069580078125
684,798.6080322265625,791.7582397460938,799.010986328125,804.6520385742188
685,800.2197875976562,788.937744140625,797.3992919921875,806.2637329101562
686,799.8168334960938,789.3406372070312,798.6080322265625,810.2930297851562
687,801.025634765625,794.981689453125,803.040283203125,814.3223266601562
688,800.6226806640625,794.5787353515625,805.8607788085938,809.89013671875
689,803.040283203125,789.3406372070312,803.040283203125,811.90478515625
690,800.6226806640625,791.3552856445312,801.8314819335938,811.5018310546875
691,799.8168334960938,794.1758422851562,802.6373901367188,806.2637329101562
692,805.4578857421875,793.3699340820312,804.2490844726562,805.4578857421875
693,805.054931640625,787.7289428710938,799.8168334960938,802.2344360351562
694,799.010986328125,789.3406372070312,796.1904907226562,794.5787353515625
695,797.3992919921875,793.7728881835938,797.3992919921875,788.1318969726562
696,799.8168334960938,791.3552856445312,794.5787353515625,790.1465454101562
697,803.4432373046875,791.3552856445312,793.7728881835938,793.3699340820312
698,803.4432373046875,790.5494384765625,798.2051391601562,794.981689453125
699,799.8168334960938,790.952392578125,796.1904907226562,789.3406372070312
700,800.2197875976562,793.7728881835938,791.7582397460938,788.5347900390625
701,797.8021850585938,793.7728881835938,794.5787353515625,798.6080322265625
702,789.3406372070312,790.952392578125,794.981689453125,792.967041015625
703,790.1465454101562,790.1465454101562,792.5640869140625,791.7582397460938
704,789.7435913085938,787.3259887695312,791.3552856445312,793.3699340820312
705,792.5640869140625,790.1465454101562,794.1758422851562,793.3699340820312
706,796.996337890625,796.5933837890625,795.7875366210938,796.5933837890625
707,796.996337890625,793.3699340820312,792.5640869140625,793.3699340820312
708,799.4139404296875,791.7582397460938,791.3552856445312,791.3552856445312
709,799.010986328125,794.981689453125,792.5640869140625,794.1758422851562
710,797.8021850585938,797.8021850585938,792.967041015625,790.5494384765625
711,792.5640869140625,796.1904907226562,794.1758422851562,789.7435913085938
712,791.7582397460938,796.5933837890625,794.1758422851562,794.1758422851562
713,795.3846435546875,798.2051391601562,793.3699340820312,792.967041015625
714,796.1904907226562,798.6080322265625,797.3992919921875,789.3406372070312
715,799.010986328125,799.010986328125,796.996337890625,788.5347900390625
716,798.6080322265625,798.2051391601562,796.5933837890625,784.1025390625
717,799.010986328125,805.8607788085938,800.2197875976562,789.3406372070312
718,801.025634765625,798.6080322265625,798.2051391601562,796.5933837890625
719,795.7875366210938,791.3552856445312,796.996337890625,799.010986328125
720,788.937744140625,794.981689453125,797.8021850585938,794.1758422851562
721,786.923095703125,792.967041015625,799.4139404296875,791.3552856445312
722,787.7289428710938,791.7582397460938,801.025634765625,791.3552856445312
723,788.1318969726562,793.3699340820312,801.8314819335938,791.7582397460938
724,792.1611938476562,788.937744140625,803.040283203125,806.2637329101562
725,790.1465454101562,786.923095703125,803.4432373046875,803.8461303710938
726,791.7582397460938,789.3406372070312,803.4432373046875,801.025634765625
727,798.6080322265625,790.952392578125,800.6226806640625,812.3076782226562
728,796.5933837890625,787.3259887695312,801.025634765625,811.90478515625
729,797.3992919921875,788.5347900390625,803.4432373046875,809.89013671875
730,792.1611938476562,791.7582397460938,801.4285888671875,804.2490844726562
731,786.1171875,788.1318969726562,799.8168334960938,796.5933837890625
732,788.1318969726562,788.937744140625,798.2051391601562,793.7728881835938
733,791.3552856445312,788.937744140625,797.3992919921875,800.2197875976562
734,790.5494384765625,784.5054931640625,796.1904907226562,800.6226806640625
735,787.3259887695312,782.4908447265625,792.1611938476562,800.2197875976562
736,792.967041015625,785.3113403320312,795.3846435546875,804.6520385742188
737,797.3992919921875,790.952392578125,799.4139404296875,803.4432373046875
738,798.2051391601562,795.3846435546875,796.996337890625,803.040283203125
739,793.7728881835938,788.5347900390625,798.6080322265625,800.2197875976562
740,786.5201416015625,780.0732421875,796.1904907226562,794.1758422851562
741,789.3406372070312,785.7142944335938,792.967041015625,788.937744140625
742,793.3699340820312,791.3552856445312,793.7728881835938,788.937744140625
743,790.952392578125,792.5640869140625,795.3846435546875,789.3406372070312
744,790.1465454101562,795.3846435546875,797.3992919921875,792.1611938476562
745,787.7289428710938,793.3699340820312,797.3992919921875,794.981689453125
746,788.937744140625,792.1611938476562,797.3992919921875,799.4139404296875
747,793.7728881835938,794.5787353515625,796.996337890625,805.8607788085938
748,791.7582397460938,790.5494384765625,798.2051391601562,803.8461303710938
749,790.1465454101562,789.7435913085938,801.8314819335938,799.4139404296875
750,786.923095703125,791.7582397460938,796.5933837890625,793.7728881835938
751,784.5054931640625,789.7435913085938,795.3846435546875,786.923095703125
752,784.908447265625,790.5494384765625,801.025634765625,788.937744140625
753,785.7142944335938,790.952392578125,800.2197875976562,792.967041015625
754,790.1465454101562,789.7435913085938,798.2051391601562,800.6226806640625
755,793.3699340820312,789.7435913085938,798.2051391601562,811.098876953125
756,792.5640869140625,792.1611938476562,803.4432373046875,810.2930297851562
757,794.981689453125,793.3699340820312,804.2490844726562,809.89013671875
758,797.8021850585938,793.7728881835938,800.6226806640625,815.1282348632812
759,794.5787353515625,787.7289428710938,800.2197875976562,810.6959838867188
760,790.1465454101562,785.3113403320312,798.6080322265625,796.5933837890625
761,794.5787353515625,784.908447265625,799.8168334960938,793.3699340820312
762,799.8168334960938,785.7142944335938,800.6226806640625,800.6226806640625
763,794.981689453125,795.3846435546875,799.010986328125,807.069580078125
764,788.937744140625,795.7875366210938,797.3992919921875,800.6226806640625
765,788.937744140625,789.7435913085938,791.3552856445312,786.1171875
766,793.7728881835938,788.1318969726562,790.5494384765625,788.1318969726562
767,795.7875366210938,787.7289428710938,792.1611938476562,792.1611938476562
768,796.996337890625,792.1611938476562,792.5640869140625,790.1465454101562
769,802.2344360351562,790.952392578125,796.996337890625,794.981689453125
770,801.8314819335938,789.7435913085938,795.3846435546875,800.2197875976562
771,799.4139404296875,789.3406372070312,796.5933837890625,796.996337890625
772,794.5787353515625,789.7435913085938,803.4432373046875,788.5347900390625
773,789.3406372070312,792.5640869140625,796.996337890625,782.087890625
774,790.5494384765625,789.3406372070312,793.3699340820312,786.923095703125
775,792.967041015625,790.1465454101562,794.981689453125,792.5640869140625
776,793.7728881835938,791.3552856445312,795.7875366210938,786.1171875
777,794.981689453125,787.3259887695312,794.5787353515625,785.7142944335938
778,794.1758422851562,790.952392578125,792.1611938476562,797.3992919921875
779,790.952392578125,794.981689453125,794.5787353515625,794.5787353515625
780,792.1611938476562,796.1904907226562,797.8021850585938,792.967041015625
781,793.7728881835938,789.3406372070312,795.7875366210938,799.010986328125
782,796.1904907226562,784.5054931640625,792.1611938476562,796.5933837890625
783,798.2051391601562,796.1904907226562,791.7582397460938,793.3699340820312
784,795.3846435546875,796.996337890625,793.7728881835938,793.3699340820312
785,793.3699340820312,790.5494384765625,794.981689453125,796.996337890625
786,792.1611938476562,794.1758422851562,793.7728881835938,799.8168334960938
787,783.6996459960938,793.3699340820312,792.5640869140625,794.1758422851562
788,786.1171875,790.952392578125,792.967041015625,786.1171875
789,792.5640869140625,791.7582397460938,792.5640869140625,787.7289428710938
790,786.1171875,790.1465454101562,795.3846435546875,788.1318969726562
791,786.1171875,793.7728881835938,800.6226806640625,785.3113403320312
792,791.3552856445312,798.6080322265625,799.010986328125,791.7582397460938
793,793.3699340820312,795.3846435546875,793.7728881835938,796.1904907226562
794,790.1465454101562,794.1758422851562,792.5640869140625,790.5494384765625
795,787.7289428710938,792.1611938476562,796.996337890625,797.3992919921875
796,787.3259887695312,788.5347900390625,801.4285888671875,804.2490844726562
797,790.952392578125,792.967041015625,802.2344360351562,802.2344360351562
798,793.7728881835938,798.6080322265625,801.025634765625,798.6080322265625
799,794.1758422851562,796.996337890625,796.1904907226562,799.4139404296875
800,795.3846435546875,794.1758422851562,793.3699340820312,808.2783813476562
801,788.1318969726562,791.7582397460938,795.7875366210938,807.4725341796875
802,788.1318969726562,791.3552856445312,798.6080322265625,800.2197875976562
803,799.8168334960938,794.5787353515625,797.8021850585938,801.8314819335938
804,799.4139404296875,795.3846435546875,791.7582397460938,803.4432373046875
805,794.1758422851562,793.3699340820312,787.7289428710938,799.010986328125
806,798.6080322265625,792.967041015625,794.1758422851562,796.1904907226562
807,801.4285888671875,792.967041015625,796.1904907226562,794.1758422851562
808,800.6226806640625,786.923095703125,794.1758422851562,800.2197875976562
809,794.1758422851562,786.1171875,789.7435913085938,801.025634765625
810,792.5640869140625,789.3406372070312,790.5494384765625,794.5787353515625
811,795.7875366210938,789.7435913085938,789.7435913085938,795.7875366210938
812,792.967041015625,792.5640869140625,788.1318969726562,793.7728881835938
813,791.7582397460938,794.5787353515625,793.7728881835938,792.5640869140625
814,794.5787353515625,791.3552856445312,797.3992919921875,791.7582397460938
815,793.3699340820312,789.3406372070312,801.025634765625,793.7728881835938
816,789.3406372070312,790.1465454101562,796.996337890625,797.3992919921875
817,789.7435913085938,791.3552856445312,794.5787353515625,798.6080322265625
818,789.7435913085938,790.5494384765625,797.3992919921875,795.7875366210938
819,789.3406372070312,791.7582397460938,793.7728881835938,792.5640869140625
820,797.8021850585938,794.981689453125,793.7728881835938,807.4725341796875
821,798.6080322265625,793.7728881835938,799.8168334960938,811.098876953125
822,794.1758422851562,792.1611938476562,803.040283203125,800.2197875976562
823,792.5640869140625,792.1611938476562,802.6373901367188,804.2490844726562
824,791.7582397460938,792.1611938476562,801.4285888671875,805.8607788085938
825,793.3699340820312,790.5494384765625,799.8168334960938,799.8168334960938
826,792.967041015625,787.7289428710938,796.1904907226562,795.7875366210938
827,788.937744140625,788.5347900390625,796.1904907226562,795.7875366210938
828,783.2966918945312,783.6996459960938,795.7875366210938,796.996337890625
829,779.2673950195312,779.2673950195312,791.3552856445312,795.7875366210938
830,783.2966918945312,784.1025390625,792.967041015625,792.5640869140625
831,792.967041015625,789.7435913085938,800.6226806640625,800.2197875976562
832,790.5494384765625,786.923095703125,800.6226806640625,801.025634765625
833,789.3406372070312,793.7728881835938,800.6226806640625,793.3699340820312
834,793.3699340820312,796.1904907226562,801.025634765625,792.5640869140625
835,792.1611938476562,792.1611938476562,800.6226806640625,794.1758422851562
836,790.5494384765625,790.5494384765625,798.6080322265625,795.7875366210938
837,788.5347900390625,790.5494384765625,799.4139404296875,792.1611938476562
838,785.7142944335938,792.1611938476562,801.025634765625,792.967041015625
839,784.1025390625,789.7435913085938,791.3552856445312,789.3406372070312
840,791.3552856445312,791.3552856445312,791.3552856445312,789.3406372070312
841,798.2051391601562,790.5494384765625,794.981689453125,788.937744140625
842,794.1758422851562,793.3699340820312,792.1611938476562,786.5201416015625
843,793.3699340820312,801.025634765625,799.4139404296875,796.5933837890625
844,795.7875366210938,798.2051391601562,801.4285888671875,791.7582397460938
845,796.5933837890625,794.981689453125,796.996337890625,783.2966918945312
846,797.3992919921875,798.2051391601562,795.3846435546875,793.3699340820312
847,792.967041015625,793.7728881835938,790.952392578125,798.2051391601562
848,788.1318969726562,791.3552856445312,788.1318969726562,789.3406372070312
849,793.3699340820312,797.3992919921875,791.3552856445312,788.1318969726562
850,800.2197875976562,799.4139404296875,794.981689453125,792.1611938476562
851,801.8314819335938,796.5933837890625,797.3992919921875,796.996337890625
852,800.2197875976562,799.8168334960938,796.5933837890625,794.981689453125
853,798.6080322265625,796.996337890625,795.7875366210938,790.1465454101562
854,798.6080322265625,790.1465454101562,791.7582397460938,790.5494384765625
855,802.6373901367188,798.6080322265625,788.5347900390625,790.952392578125
856,805.054931640625,796.996337890625,792.5640869140625,787.7289428710938
857,803.4432373046875,792.1611938476562,796.5933837890625,793.3699340820312
858,807.069580078125,796.5933837890625,800.2197875976562,805.054931640625
859,807.87548828125,796.5933837890625,800.6226806640625,801.4285888671875
860,801.8314819335938,796.5933837890625,799.8168334960938,792.5640869140625
861,801.025634765625,794.5787353515625,799.4139404296875,791.7582397460938
862,798.2051391601562,791.7582397460938,801.025634765625,795.7875366210938
863,790.5494384765625,788.937744140625,798.2051391601562,794.1758422851562
864,785.3113403320312,791.3552856445312,795.7875366210938,794.5787353515625
865,783.6996459960938,790.952392578125,792.967041015625,794.1758422851562
866,787.7289428710938,786.5201416015625,789.7435913085938,794.5787353515625
867,790.952392578125,789.7435913085938,791.3552856445312,797.3992919921875
868,791.3552856445312,790.952392578125,792.1611938476562,796.1904907226562
869,794.1758422851562,787.7289428710938,790.952392578125,803.8461303710938
870,795.3846435546875,787.3259887695312,788.937744140625,808.2783813476562
871,796.996337890625,788.937744140625,796.1904907226562,798.2051391601562
872,798.2051391601562,787.3259887695312,801.025634765625,794.981689453125
873,792.967041015625,785.7142944335938,799.8168334960938,799.4139404296875
874,792.5640869140625,785.3113403320312,794.5787353515625,793.3699340820312
875,795.7875366210938,784.1025390625,791.7582397460938,789.7435913085938
876,798.6080322265625,784.908447265625,792.1611938476562,794.1758422851562
877,806.6666870117188,789.7435913085938,792.5640869140625,802.2344360351562
878,806.2637329101562,793.3699340820312,792.1611938476562,807.069580078125
879,797.8021850585938,794.1758422851562,792.5640869140625,799.4139404296875
880,795.7875366210938,792.967041015625,793.3699340820312,792.1611938476562
881,798.2051391601562,794.1758422851562,793.3699340820312,796.5933837890625
882,796.1904907226562,790.952392578125,793.3699340820312,802.6373901367188
883,787.7289428710938,793.7728881835938,791.7582397460938,791.3552856445312
884,791.3552856445312,798.6080322265625,792.1611938476562,791.7582397460938
885,797.3992919921875,794.5787353515625,790.5494384765625,788.937744140625
886,790.5494384765625,794.5787353515625,786.5201416015625,779.2673950195312
887,786.923095703125,794.5787353515625,788.1318969726562,786.923095703125
888,791.3552856445312,790.952392578125,791.3552856445312,793.3699340820312
889,789.3406372070312,789.3406372070312,788.5347900390625,792.967041015625
890,786.923095703125,788.937744140625,786.5201416015625,793.7728881835938
891,787.7289428710938,787.3259887695312,789.3406372070312,790.1465454101562
892,791.7582397460938,787.7289428710938,792.5640869140625,789.3406372070312
893,794.5787353515625,787.3259887695312,796.5933837890625,796.1904907226562
894,790.952392578125,791.7582397460938,800.2197875976562,793.3699340820312
895,788.5347900390625,793.7728881835938,797.8021850585938,789.3406372070312
896,792.1611938476562,788.5347900390625,794.1758422851562,790.952392578125
897,799.4139404296875,788.1318969726562,799.010986328125,793.3699340820312
898,801.025634765625,790.5494384765625,800.6226806640625,799.4139404296875
899,796.5933837890625,791.3552856445312,794.5787353515625,803.040283203125
900,794.981689453125,790.5494384765625,794.5787353515625,796.1904907226562
901,797.8021850585938,788.5347900390625,795.3846435546875,791.3552856445312
902,798.6080322265625,788.1318969726562,794.1758422851562,799.8168334960938
903,794.5787353515625,786.5201416015625,794.1758422851562,798.2051391601562
904,796.1904907226562,786.1171875,793.3699340820312,801.025634765625
905,795.7875366210938,786.923095703125,796.1904907226562,806.6666870117188
906,794.1758422851562,784.1025390625,795.3846435546875,798.2051391601562
907,795.3846435546875,784.908447265625,792.1611938476562,796.5933837890625
908,796.996337890625,786.923095703125,794.5787353515625,800.2197875976562
909,796.1904907226562,789.7435913085938,793.3699340820312,796.996337890625
910,791.3552856445312,789.7435913085938,793.7728881835938,792.5640869140625
911,794.981689453125,787.7289428710938,794.5787353515625,791.7582397460938
912,799.010986328125,791.3552856445312,795.7875366210938,792.967041015625
913,796.5933837890625,796.1904907226562,798.2051391601562,793.3699340820312
914,793.3699340820312,793.3699340820312,794.5787353515625,795.3846435546875
915,793.7728881835938,788.1318969726562,793.7728881835938,800.6226806640625
916,799.010986328125,793.3699340820312,796.1904907226562,809.4871826171875
917,800.2197875976562,801.8314819335938,794.5787353515625,803.040283203125
918,804.6520385742188,798.2051391601562,793.7728881835938,795.7875366210938
919,808.2783813476562,790.1465454101562,794.981689453125,803.8461303710938
920,799.010986328125,788.5347900390625,794.5787353515625,806.2637329101562
921,790.5494384765625,787.3259887695312,794.5787353515625,801.4285888671875
922,794.981689453125,788.937744140625,792.5640869140625,805.4578857421875
923,799.8168334960938,789.3406372070312,792.1611938476562,805.4578857421875
924,798.2051391601562,786.5201416015625,794.1758422851562,800.2197875976562
925,795.3846435546875,786.1171875,792.967041015625,793.7728881835938
926,794.981689453125,786.1171875,794.5787353515625,790.5494384765625
927,797.8021850585938,784.5054931640625,792.1611938476562,798.6080322265625
928,794.5787353515625,785.7142944335938,787.7289428710938,801.025634765625
929,787.7289428710938,790.1465454101562,790.5494384765625,795.3846435546875
930,791.3552856445312,791.7582397460938,790.952392578125,799.4139404296875
931,795.7875366210938,792.5640869140625,795.3846435546875,803.4432373046875
932,798.2051391601562,794.981689453125,799.010986328125,801.025634765625
933,803.040283203125,797.3992919921875,799.4139404296875,794.981689453125
934,802.2344360351562,798.6080322265625,798.6080322265625,790.5494384765625
935,802.6373901367188,800.6226806640625,799.8168334960938,798.2051391601562
936,799.4139404296875,799.8168334960938,803.8461303710938,796.1904907226562
937,798.2051391601562,794.1758422851562,802.2344360351562,793.7728881835938
938,801.025634765625,794.981689453125,799.010986328125,801.8314819335938
939,801.025634765625,801.025634765625,799.010986328125,803.040283203125
940,797.8021850585938,799.4139404296875,800.2197875976562,798.6080322265625
941,795.3846435546875,795.3846435546875,799.8168334960938,796.1904907226562
942,793.3699340820312,795.3846435546875,799.4139404296875,802.6373901367188
943,789.7435913085938,794.1758422851562,802.6373901367188,806.6666870117188
944,789.3406372070312,791.7582397460938,804.6520385742188,808.2783813476562
945,782.893798828125,789.3406372070312,799.4139404296875,804.6520385742188
946,779.6703491210938,789.7435913085938,794.981689453125,794.981689453125
947,786.1171875,793.3699340820312,798.2051391601562,796.5933837890625
948,789.7435913085938,797.3992919921875,800.2197875976562,800.6226806640625
949,795.7875366210938,794.981689453125,797.3992919921875,796.996337890625
950,797.8021850585938,791.7582397460938,795.7875366210938,798.6080322265625
951,796.996337890625,794.5787353515625,796.996337890625,805.054931640625
952,797.3992919921875,796.5933837890625,796.996337890625,800.2197875976562
953,796.1904907226562,797.3992919921875,796.996337890625,797.8021850585938
954,795.3846435546875,796.5933837890625,800.6226806640625,804.2490844726562
955,793.3699340820312,797.8021850585938,801.025634765625,804.2490844726562
956,789.7435913085938,790.5494384765625,801.025634765625,798.6080322265625
957,792.1611938476562,786.5201416015625,799.4139404296875,798.6080322265625
958,794.1758422851562,792.5640869140625,795.7875366210938,789.7435913085938
959,791.3552856445312,792.5640869140625,795.3846435546875,780.4761962890625
960,794.5787353515625,790.5494384765625,790.952392578125,782.087890625
961,796.996337890625,791.3552856445312,789.3406372070312,780.879150390625
962,800.6226806640625,788.5347900390625,793.3699340820312,786.1171875
963,801.8314819335938,788.5347900390625,796.5933837890625,793.7728881835938
964,796.996337890625,789.3406372070312,794.1758422851562,792.1611938476562
965,792.1611938476562,790.5494384765625,794.1758422851562,789.7435913085938
966,794.1758422851562,794.1758422851562,793.7728881835938,792.5640869140625
967,797.8021850585938,794.1758422851562,796.1904907226562,797.8021850585938
968,796.5933837890625,794.1758422851562,799.8168334960938,797.8021850585938
969,795.3846435546875,799.4139404296875,797.3992919921875,792.5640869140625
970,799.8168334960938,799.8168334960938,800.6226806640625,791.7582397460938
971,795.3846435546875,798.2051391601562,802.6373901367188,795.3846435546875
972,788.937744140625,798.2051391601562,802.6373901367188,798.6080322265625
973,790.952392578125,792.967041015625,801.025634765625,799.010986328125
974,790.1465454101562,791.3552856445312,798.2051391601562,797.8021850585938
975,793.3699340820312,792.967041015625,801.025634765625,797.8021850585938
976,795.7875366210938,794.5787353515625,798.2051391601562,795.3846435546875
977,791.7582397460938,794.5787353515625,795.3846435546875,799.8168334960938
978,793.3699340820312,792.5640869140625,796.5933837890625,806.2637329101562
979,797.8021850585938,795.7875366210938,798.6080322265625,799.4139404296875
980,800.6226806640625,795.7875366210938,802.2344360351562,796.5933837890625
981,799.8168334960938,796.996337890625,800.6226806640625,798.2051391601562
982,798.6080322265625,794.981689453125,799.4139404296875,799.8168334960938
983,797.3992919921875,789.7435913085938,797.3992919921875,803.040283203125
984,798.6080322265625,790.1465454101562,795.7875366210938,808.2783813476562
985,800.6226806640625,791.7582397460938,798.2051391601562,806.2637329101562
986,803.4432373046875,796.1904907226562,799.4139404296875,804.6520385742188
987,803.4432373046875,796.996337890625,795.3846435546875,801.025634765625
988,801.025634765625,792.5640869140625,798.2051391601562,794.981689453125
989,802.6373901367188,792.967041015625,801.025634765625,805.054931640625
990,796.1904907226562,792.1611938476562,801.4285888671875,805.054931640625
991,785.3113403320312,788.937744140625,803.040283203125,794.1758422851562
992,784.5054931640625,785.7142944335938,800.2197875976562,791.7582397460938
993,791.3552856445312,784.1025390625,800.6226806640625,790.5494384765625
994,787.3259887695312,788.937744140625,799.8168334960938,788.5347900390625
995,780.4761962890625,790.952392578125,799.8168334960938,787.7289428710938
996,786.5201416015625,792.1611938476562,799.8168334960938,790.1465454101562
997,796.1904907226562,793.7728881835938,801.025634765625,794.981689453125
998,801.4285888671875,798.6080322265625,803.040283203125,798.2051391601562
999,801.8314819335938,798.6080322265625,799.8168334960938,794.981689453125
1000,802.6373901367188,794.1758422851562,795.7875366210938,799.4139404296875
1001,797.3992919921875,795.3846435546875,796.5933837890625,798.6080322265625
1002,787.7289428710938,796.996337890625,799.010986328125,790.5494384765625
1003,788.1318969726562,794.5787353515625,794.5787353515625,796.5933837890625
1004,793.7728881835938,791.7582397460938,790.952392578125,799.010986328125
1005,801.4285888671875,795.7875366210938,793.7728881835938,802.6373901367188
1006,802.2344360351562,792.967041015625,796.1904907226562,800.2197875976562
1007,802.2344360351562,786.5201416015625,795.7875366210938,796.996337890625
1008,802.2344360351562,789.7435913085938,798.2051391601562,807.4725341796875
1009,798.6080322265625,786.923095703125,797.8021850585938,811.098876953125
1010,799.4139404296875,783.2966918945312,796.996337890625,808.2783813476562
1011,800.2197875976562,784.908447265625,795.7875366210938,805.8607788085938
1012,796.1904907226562,784.5054931640625,794.981689453125,803.040283203125
1013,792.5640869140625,789.3406372070312,796.1904907226562,800.2197875976562
1014,799.010986328125,792.1611938476562,794.981689453125,800.2197875976562
1015,801.025634765625,785.7142944335938,796.1904907226562,801.8314819335938
1016,794.981689453125,784.1025390625,792.1611938476562,799.4139404296875
1017,787.3259887695312,788.1318969726562,788.5347900390625,789.3406372070312
1018,781.6849975585938,790.1465454101562,788.1318969726562,780.0732421875
1019,785.3113403320312,792.1611938476562,790.952392578125,785.3113403320312
1020,794.981689453125,793.7728881835938,795.3846435546875,798.6080322265625
1021,799.4139404296875,791.7582397460938,796.5933837890625,797.8021850585938
1022,795.7875366210938,788.937744140625,794.1758422851562,791.7582397460938
1023,796.996337890625,788.5347900390625,795.7875366210938,798.6080322265625
1024,795.3846435546875,788.1318969726562,796.5933837890625,801.025634765625
1025,797.3992919921875,787.7289428710938,796.1904907226562,793.3699340820312
1026,798.6080322265625,788.937744140625,797.8021850585938,795.7875366210938
1027,793.7728881835938,789.7435913085938,796.996337890625,793.3699340820312
1028,786.1171875,785.7142944335938,789.7435913085938,784.908447265625
1029,779.2673950195312,786.1171875,784.5054931640625,784.5054931640625
1030,787.3259887695312,792.1611938476562,787.7289428710938,788.1318969726562
1031,794.5787353515625,790.5494384765625,791.3552856445312,784.908447265625
1032,795.3846435546875,790.952392578125,796.1904907226562,787.3259887695312
1033,800.2197875976562,794.981689453125,800.6226806640625,796.1904907226562
1034,803.040283203125,787.7289428710938,800.6226806640625,801.025634765625
1035,799.8168334960938,786.5201416015625,796.5933837890625,802.2344360351562
1036,794.1758422851562,794.1758422851562,798.2051391601562,796.5933837890625
1037,787.3259887695312,792.967041015625,803.040283203125,786.5201416015625
1038,784.5054931640625,786.5201416015625,801.025634765625,788.1318969726562
1039,784.908447265625,783.6996459960938,800.2197875976562,790.1465454101562
1040,785.7142944335938,784.908447265625,801.4285888671875,789.3406372070312
1041,787.7289428710938,788.5347900390625,802.6373901367188,789.3406372070312
1042,791.3552856445312,789.3406372070312,801.8314819335938,788.937744140625
1043,793.7728881835938,790.952392578125,798.2051391601562,794.981689453125
1044,792.1611938476562,790.952392578125,799.8168334960938,798.2051391601562
1045,794.5787353515625,790.5494384765625,803.4432373046875,795.3846435546875
1046,801.4285888671875,791.7582397460938,803.4432373046875,800.2197875976562
1047,803.4432373046875,791.3552856445312,803.040283203125,803.040283203125
1048,803.040283203125,794.981689453125,802.6373901367188,794.981689453125
1049,808.2783813476562,797.3992919921875,800.2197875976562,792.5640869140625
1050,807.4725341796875,793.7728881835938,796.5933837890625,795.7875366210938
1051,805.8607788085938,794.981689453125,796.1904907226562,795.7875366210938
1052,809.084228515625,803.8461303710938,804.2490844726562,793.3699340820312
1053,808.2783813476562,802.6373901367188,805.8607788085938,798.2051391601562
1054,806.6666870117188,794.5787353515625,803.4432373046875,802.2344360351562
1055,801.4285888671875,794.1758422851562,799.8168334960938,795.7875366210938
1056,797.3992919921875,796.5933837890625,799.8168334960938,791.7582397460938
1057,800.6226806640625,795.3846435546875,799.8168334960938,796.1904907226562
1058,795.3846435546875,786.923095703125,795.3846435546875,792.5640869140625
1059,788.5347900390625,788.1318969726562,795.7875366210938,786.5201416015625
1060,791.3552856445312,793.7728881835938,797.8021850585938,790.952392578125
1061,789.7435913085938,791.7582397460938,797.3992919921875,792.5640869140625
1062,788.5347900390625,793.7728881835938,796.996337890625,793.3699340820312
1063,787.7289428710938,793.3699340820312,799.4139404296875,789.3406372070312
1064,788.5347900390625,792.1611938476562,798.6080322265625,784.5054931640625
1065,793.7728881835938,797.8021850585938,798.6080322265625,792.1611938476562
1066,797.3992919921875,791.3552856445312,800.6226806640625,801.8314819335938
1067,795.7875366210938,791.7582397460938,801.025634765625,794.1758422851562
1068,793.3699340820312,794.981689453125,797.3992919921875,784.5054931640625
1069,786.923095703125,789.3406372070312,794.5787353515625,782.893798828125
1070,784.908447265625,789.3406372070312,793.7728881835938,789.7435913085938
1071,788.5347900390625,792.5640869140625,789.7435913085938,800.6226806640625
1072,790.1465454101562,792.967041015625,792.1611938476562,803.040283203125
1073,794.5787353515625,787.3259887695312,795.7875366210938,807.87548828125
1074,792.1611938476562,784.908447265625,794.1758422851562,808.6813354492188
1075,790.952392578125,789.7435913085938,791.7582397460938,796.996337890625
1076,794.5787353515625,789.3406372070312,788.5347900390625,794.1758422851562
1077,789.3406372070312,787.3259887695312,790.5494384765625,795.3846435546875
1078,788.937744140625,792.5640869140625,799.010986328125,793.3699340820312
1079,799.010986328125,798.2051391601562,799.4139404296875,794.5787353515625
1080,802.2344360351562,796.5933837890625,793.7728881835938,791.7582397460938
1081,801.4285888671875,794.5787353515625,794.5787353515625,794.5787353515625
1082,799.8168334960938,794.1758422851562,792.967041015625,796.1904907226562
1083,797.3992919921875,794.1758422851562,793.7728881835938,793.3699340820312
1084,802.2344360351562,796.5933837890625,792.967041015625,801.025634765625
1085,803.4432373046875,794.5787353515625,785.7142944335938,804.2490844726562
1086,796.1904907226562,793.7728881835938,788.1318969726562,798.6080322265625
1087,795.7875366210938,796.5933837890625,795.7875366210938,796.5933837890625
1088,799.010986328125,794.5787353515625,797.8021850585938,809.4871826171875
1089,801.025634765625,792.5640869140625,799.4139404296875,809.084228515625
1090,801.4285888671875,796.1904907226562,802.6373901367188,803.8461303710938
1091,797.8021850585938,793.3699340820312,801.025634765625,807.4725341796875
1092,797.8021850585938,788.937744140625,799.010986328125,808.2783813476562
1093,798.6080322265625,794.981689453125,799.8168334960938,812.3076782226562
1094,794.981689453125,799.010986328125,796.996337890625,809.89013671875
1095,792.1611938476562,796.996337890625,796.5933837890625,793.7728881835938
1096,790.952392578125,798.2051391601562,794.1758422851562,793.3699340820312
1097,793.7728881835938,796.996337890625,792.1611938476562,799.8168334960938
1098,798.6080322265625,798.2051391601562,795.7875366210938,792.5640869140625
1099,798.6080322265625,798.2051391601562,797.3992919921875,790.952392578125
1100,796.5933837890625,799.4139404296875,799.010986328125,797.8021850585938
1101,796.5933837890625,801.4285888671875,799.4139404296875,803.4432373046875
1102,802.6373901367188,795.7875366210938,797.8021850585938,801.8314819335938
1103,801.025634765625,793.7728881835938,797.8021850585938,801.4285888671875
1104,794.981689453125,794.981689453125,796.996337890625,799.010986328125
1105,796.996337890625,794.981689453125,799.8168334960938,792.5640869140625
1106,800.6226806640625,794.5787353515625,799.4139404296875,790.5494384765625
1107,801.4285888671875,786.923095703125,796.5933837890625,790.952392578125
1108,802.6373901367188,785.7142944335938,794.1758422851562,792.1611938476562
1109,798.6080322265625,792.5640869140625,794.1758422851562,790.1465454101562
1110,791.7582397460938,788.5347900390625,793.3699340820312,785.3113403320312
1111,794.5787353515625,787.3259887695312,790.1465454101562,788.5347900390625
1112,800.2197875976562,788.937744140625,789.7435913085938,792.1611938476562
1113,803.4432373046875,787.7289428710938,786.1171875,790.952392578125
1114,803.4432373046875,790.1465454101562,786.1171875,796.996337890625
1115,794.981689453125,787.3259887695312,786.1171875,800.2197875976562
1116,793.7728881835938,784.5054931640625,787.7289428710938,794.5787353515625
1117,801.8314819335938,790.952392578125,790.952392578125,797.3992919921875
1118,799.4139404296875,790.5494384765625,793.7728881835938,798.2051391601562
1119,794.981689453125,787.3259887695312,797.8021850585938,799.4139404296875
1120,794.1758422851562,788.937744140625,800.2197875976562,800.6226806640625
1121,793.7728881835938,786.923095703125,799.4139404296875,794.5787353515625
1122,794.5787353515625,788.5347900390625,798.2051391601562,792.967041015625
1123,794.5787353515625,791.3552856445312,798.6080322265625,794.5787353515625
1124,795.7875366210938,794.1758422851562,797.8021850585938,794.1758422851562
1125,794.1758422851562,790.5494384765625,799.010986328125,796.5933837890625
1126,788.937744140625,778.05859375,799.8168334960938,789.3406372070312
1127,792.967041015625,774.029296875,794.5787353515625,791.3552856445312
1128,800.6226806640625,787.7289428710938,793.3699340820312,800.2197875976562
1129,795.3846435546875,791.7582397460938,796.996337890625,790.1465454101562
1130,788.937744140625,786.1171875,798.2051391601562,784.908447265625
1131,792.1611938476562,786.5201416015625,802.6373901367188,794.5787353515625
1132,797.3992919921875,788.937744140625,803.8461303710938,804.6520385742188
1133,795.3846435546875,789.7435913085938,799.4139404296875,801.8314819335938
1134,793.3699340820312,786.923095703125,799.010986328125,794.981689453125
1135,794.981689453125,789.7435913085938,799.010986328125,794.5787353515625
1136,790.1465454101562,790.1465454101562,799.010986328125,790.5494384765625
1137,788.937744140625,785.3113403320312,799.010986328125,787.7289428710938
1138,790.5494384765625,784.5054931640625,796.1904907226562,791.7582397460938
1139,789.7435913085938,783.6996459960938,797.8021850585938,794.1758422851562
1140,792.1611938476562,787.3259887695312,800.6226806640625,791.7582397460938
1141,792.1611938476562,788.1318969726562,795.3846435546875,792.5640869140625
1142,790.1465454101562,788.1318969726562,792.967041015625,797.3992919921875
1143,790.5494384765625,788.5347900390625,791.7582397460938,793.3699340820312
1144,786.5201416015625,788.1318969726562,792.967041015625,793.7728881835938
1145,785.3113403320312,784.1025390625,794.5787353515625,794.5787353515625
1146,786.923095703125,783.6996459960938,790.952392578125,796.5933837890625
1147,788.937744140625,790.5494384765625,793.7728881835938,802.2344360351562
1148,793.7728881835938,794.1758422851562,798.2051391601562,800.6226806640625
1149,794.5787353515625,787.7289428710938,798.2051391601562,799.4139404296875
1150,792.967041015625,787.7289428710938,801.025634765625,802.6373901367188
1151,793.7728881835938,792.5640869140625,796.5933837890625,801.8314819335938
1152,798.6080322265625,791.3552856445312,791.3552856445312,803.040283203125
1153,796.1904907226562,794.1758422851562,792.1611938476562,797.8021850585938
1154,784.908447265625,792.1611938476562,794.1758422851562,786.5201416015625
1155,783.2966918945312,789.7435913085938,795.7875366210938,785.7142944335938
1156,783.6996459960938,788.937744140625,794.1758422851562,787.3259887695312
1157,786.1171875,790.952392578125,794.5787353515625,789.7435913085938
1158,793.7728881835938,792.1611938476562,794.981689453125,800.2197875976562
1159,795.3846435546875,790.1465454101562,798.2051391601562,799.4139404296875
1160,795.7875366210938,792.5640869140625,799.010986328125,801.4285888671875
1161,794.1758422851562,794.5787353515625,798.2051391601562,806.2637329101562
1162,799.4139404296875,794.1758422851562,798.6080322265625,805.8607788085938
1163,804.2490844726562,792.967041015625,799.4139404296875,805.4578857421875
1164,804.2490844726562,790.952392578125,799.4139404296875,805.8607788085938
1165,806.6666870117188,794.5787353515625,801.025634765625,811.5018310546875
1166,805.4578857421875,796.1904907226562,800.2197875976562,811.90478515625
1167,801.4285888671875,799.010986328125,795.7875366210938,809.084228515625
1168,799.8168334960938,800.6226806640625,796.5933837890625,803.8461303710938
1169,804.2490844726562,795.7875366210938,796.5933837890625,808.6813354492188
1170,807.87548828125,794.1758422851562,799.4139404296875,816.7399291992188
1171,804.6520385742188,795.7875366210938,801.025634765625,803.040283203125
1172,800.2197875976562,795.7875366210938,798.6080322265625,799.8168334960938
1173,795.7875366210938,797.8021850585938,798.2051391601562,800.2197875976562
1174,792.1611938476562,805.054931640625,799.4139404296875,792.5640869140625
1175,792.1611938476562,804.6520385742188,794.1758422851562,788.5347900390625
1176,790.5494384765625,796.996337890625,790.1465454101562,785.7142944335938
1177,788.937744140625,793.7728881835938,792.1611938476562,791.3552856445312
1178,790.5494384765625,790.1465454101562,793.3699340820312,795.7875366210938
1179,789.3406372070312,785.3113403320312,792.967041015625,792.967041015625
1180,792.5640869140625,786.5201416015625,794.981689453125,795.7875366210938
1181,786.5201416015625,787.3259887695312,795.7875366210938,801.8314819335938
1182,776.4468994140625,788.1318969726562,796.1904907226562,797.3992919921875
1183,779.2673950195312,790.5494384765625,797.8021850585938,788.937744140625
1184,786.1171875,787.7289428710938,796.5933837890625,788.937744140625
1185,789.7435913085938,786.923095703125,793.7728881835938,789.7435913085938
1186,784.1025390625,788.5347900390625,795.7875366210938,788.1318969726562
1187,781.6849975585938,792.967041015625,796.5933837890625,790.5494384765625
1188,792.967041015625,796.5933837890625,799.010986328125,800.2197875976562
1189,800.2197875976562,794.981689453125,802.6373901367188,803.8461303710938
1190,794.5787353515625,794.5787353515625,797.8021850585938,796.996337890625
1191,791.7582397460938,798.2051391601562,796.1904907226562,794.981689453125
1192,795.7875366210938,800.6226806640625,798.6080322265625,801.025634765625
1193,799.4139404296875,797.3992919921875,798.2051391601562,801.025634765625
1194,801.8314819335938,798.2051391601562,801.025634765625,794.981689453125
1195,801.8314819335938,794.981689453125,801.025634765625,798.2051391601562
1196,802.2344360351562,792.967041015625,797.8021850585938,800.6226806640625
1197,803.8461303710938,798.2051391601562,799.4139404296875,799.8168334960938
1198,798.2051391601562,798.2051391601562,801.025634765625,798.6080322265625
1199,799.010986328125,798.6080322265625,800.6226806640625,799.8168334960938
1200,801.025634765625,799.8168334960938,794.981689453125,803.4432373046875
1201,800.2197875976562,795.3846435546875,792.967041015625,806.2637329101562
1202,798.6080322265625,793.3699340820312,794.1758422851562,803.4432373046875
1203,794.1758422851562,791.3552856445312,793.3699340820312,801.025634765625
1204,796.1904907226562,787.7289428710938,793.3699340820312,809.4871826171875
1205,793.3699340820312,788.1318969726562,794.981689453125,805.8607788085938
1206,786.1171875,788.1318969726562,795.3846435546875,790.1465454101562
1207,790.952392578125,790.1465454101562,795.7875366210938,791.7582397460938
1208,796.5933837890625,792.967041015625,794.5787353515625,791.3552856445312
1209,791.3552856445312,792.967041015625,788.1318969726562,784.1025390625
1210,793.7728881835938,800.6226806640625,788.1318969726562,780.0732421875
1211,794.1758422851562,804.6520385742188,790.5494384765625,777.2527465820312
1212,789.7435913085938,799.4139404296875,794.1758422851562,776.8497924804688
1213,790.1465454101562,801.025634765625,792.1611938476562,777.2527465820312
1214,795.7875366210938,804.6520385742188,792.1611938476562,788.1318969726562
1215,801.8314819335938,800.6226806640625,794.5787353515625,797.8021850585938
1216,798.6080322265625,796.5933837890625,787.7289428710938,795.3846435546875
1217,797.3992919921875,798.2051391601562,791.3552856445312,791.7582397460938
1218,795.3846435546875,797.3992919921875,789.7435913085938,785.7142944335938
1219,796.1904907226562,800.2197875976562,786.5201416015625,790.952392578125
1220,798.2051391601562,803.4432373046875,790.952392578125,799.4139404296875
1221,796.5933837890625,799.4139404296875,791.7582397460938,796.996337890625
1222,798.2051391601562,797.3992919921875,797.8021850585938,792.1611938476562
1223,797.8021850585938,801.025634765625,799.010986328125,796.996337890625
1224,796.1904907226562,801.8314819335938,799.4139404296875,803.4432373046875
1225,797.3992919921875,799.8168334960938,800.2197875976562,804.2490844726562
1226,805.054931640625,801.4285888671875,801.025634765625,804.6520385742188
1227,803.4432373046875,802.2344360351562,800.2197875976562,805.4578857421875
1228,794.981689453125,801.4285888671875,800.2197875976562,805.4578857421875
1229,799.4139404296875,799.8168334960938,805.8607788085938,804.2490844726562
1230,805.8607788085938,797.3992919921875,802.6373901367188,804.6520385742188
1231,799.4139404296875,791.7582397460938,799.8168334960938,803.040283203125
1232,796.5933837890625,792.967041015625,803.4432373046875,796.5933837890625
1233,799.4139404296875,797.8021850585938,798.6080322265625,791.3552856445312
1234,797.8021850585938,794.1758422851562,795.3846435546875,786.923095703125
1235,799.010986328125,792.967041015625,799.8168334960938,793.3699340820312
1236,797.8021850585938,792.1611938476562,799.8168334960938,801.8314819335938
1237,798.6080322265625,788.1318969726562,802.2344360351562,801.4285888671875
1238,807.87548828125,789.7435913085938,804.2490844726562,800.6226806640625
1239,805.4578857421875,790.952392578125,801.4285888671875,799.010986328125
1240,802.2344360351562,791.3552856445312,799.4139404296875,797.3992919921875
1241,806.6666870117188,794.981689453125,800.6226806640625,795.3846435546875
1242,796.996337890625,787.7289428710938,799.8168334960938,800.6226806640625
1243,792.5640869140625,782.893798828125,801.4285888671875,810.6959838867188
1244,794.5787353515625,792.1611938476562,805.4578857421875,804.6520385742188
1245,793.7728881835938,793.7728881835938,800.6226806640625,799.4139404296875
1246,792.5640869140625,787.3259887695312,799.4139404296875,801.8314819335938
1247,788.5347900390625,785.3113403320312,801.8314819335938,803.040283203125
1248,788.1318969726562,788.5347900390625,800.2197875976562,800.2197875976562
1249,790.5494384765625,788.1318969726562,797.3992919921875,794.981689453125
1250,787.7289428710938,784.1025390625,796.5933837890625,793.7728881835938
1251,788.5347900390625,781.6849975585938,793.3699340820312,791.7582397460938
1252,792.967041015625,786.5201416015625,790.5494384765625,788.937744140625
1253,792.967041015625,792.5640869140625,792.1611938476562,790.952392578125
1254,799.8168334960938,792.967041015625,794.1758422851562,799.010986328125
1255,801.8314819335938,796.996337890625,794.5787353515625,801.025634765625
1256,793.7728881835938,799.4139404296875,797.3992919921875,796.5933837890625
1257,795.7875366210938,795.7875366210938,801.8314819335938,795.7875366210938
1258,793.7728881835938,789.7435913085938,796.996337890625,791.3552856445312
1259,790.5494384765625,789.7435913085938,792.1611938476562,786.5201416015625
1260,794.5787353515625,793.7728881835938,792.5640869140625,788.1318969726562
1261,794.981689453125,790.952392578125,792.967041015625,796.5933837890625
1262,788.1318969726562,785.7142944335938,790.5494384765625,797.3992919921875
1263,785.3113403320312,785.7142944335938,788.937744140625,786.5201416015625
1264,789.7435913085938,789.7435913085938,793.3699340820312,781.2820434570312
1265,788.937744140625,788.937744140625,791.3552856445312,788.1318969726562
1266,788.937744140625,789.3406372070312,791.7582397460938,790.1465454101562
1267,787.3259887695312,790.952392578125,796.996337890625,786.1171875
1268,790.1465454101562,793.3699340820312,792.5640869140625,788.1318969726562
1269,794.1758422851562,800.6226806640625,790.5494384765625,789.7435913085938
1270,796.1904907226562,796.5933837890625,792.967041015625,798.2051391601562
1271,796.996337890625,791.3552856445312,791.3552856445312,802.6373901367188
1272,794.5787353515625,790.1465454101562,789.7435913085938,801.4285888671875
1273,794.981689453125,787.3259887695312,792.1611938476562,801.4285888671875
1274,803.040283203125,791.7582397460938,796.996337890625,807.87548828125
1275,803.8461303710938,796.996337890625,800.6226806640625,807.4725341796875
1276,799.010986328125,794.1758422851562,799.8168334960938,807.069580078125
1277,794.5787353515625,791.3552856445312,797.3992919921875,812.7106323242188
1278,792.5640869140625,790.952392578125,797.3992919921875,803.040283203125
1279,797.8021850585938,792.1611938476562,798.2051391601562,793.7728881835938
1280,796.1904907226562,790.1465454101562,797.8021850585938,794.1758422851562
1281,790.5494384765625,788.937744140625,795.7875366210938,790.1465454101562
1282,788.1318969726562,790.1465454101562,795.7875366210938,792.5640869140625
1283,788.1318969726562,788.937744140625,799.010986328125,795.7875366210938
1284,790.1465454101562,792.967041015625,797.8021850585938,796.996337890625
1285,786.5201416015625,793.7728881835938,794.1758422851562,794.5787353515625
1286,785.7142944335938,786.1171875,792.5640869140625,792.967041015625
1287,794.5787353515625,786.1171875,794.1758422851562,793.7728881835938
1288,792.5640869140625,788.5347900390625,792.5640869140625,793.7728881835938
1289,784.5054931640625,790.1465454101562,792.5640869140625,797.8021850585938
1290,787.3259887695312,793.7728881835938,796.996337890625,790.1465454101562
1291,792.1611938476562,796.1904907226562,796.5933837890625,785.3113403320312
1292,794.5787353515625,793.7728881835938,794.5787353515625,789.7435913085938
1293,799.010986328125,791.7582397460938,791.7582397460938,793.7728881835938
1294,796.1904907226562,790.5494384765625,786.923095703125,797.8021850585938
1295,791.7582397460938,791.3552856445312,789.3406372070312,793.3699340820312
1296,789.3406372070312,790.952392578125,790.5494384765625,787.7289428710938
1297,792.5640869140625,791.7582397460938,788.1318969726562,787.3259887695312
1298,799.010986328125,797.8021850585938,796.5933837890625,794.5787353515625
1299,797.8021850585938,791.7582397460938,795.7875366210938,800.6226806640625
1300,800.2197875976562,786.1171875,792.5640869140625,798.6080322265625
1301,794.5787353515625,791.3552856445312,798.6080322265625,789.3406372070312
1302,790.1465454101562,795.7875366210938,794.981689453125,780.4761962890625
1303,799.010986328125,796.996337890625,790.1465454101562,785.7142944335938
1304,799.4139404296875,791.3552856445312,792.5640869140625,791.3552856445312
1305,794.5787353515625,790.952392578125,799.010986328125,791.7582397460938
1306,792.967041015625,797.8021850585938,802.2344360351562,792.967041015625
1307,791.7582397460938,797.3992919921875,797.3992919921875,794.5787353515625
1308,788.937744140625,792.1611938476562,794.981689453125,799.010986328125
1309,788.5347900390625,789.7435913085938,799.4139404296875,799.8168334960938
1310,793.3699340820312,790.952392578125,802.6373901367188,792.1611938476562
1311,800.6226806640625,794.981689453125,803.4432373046875,794.5787353515625
1312,807.4725341796875,801.025634765625,805.054931640625,808.2783813476562
1313,805.054931640625,802.2344360351562,805.054931640625,802.2344360351562
1314,794.981689453125,793.7728881835938,796.5933837890625,791.7582397460938
1315,790.1465454101562,787.7289428710938,792.1611938476562,790.5494384765625
1316,792.5640869140625,787.7289428710938,799.010986328125,793.3699340820312
1317,796.5933837890625,794.5787353515625,806.2637329101562,798.6080322265625
1318,799.8168334960938,794.5787353515625,805.4578857421875,801.4285888671875
1319,797.8021850585938,789.3406372070312,802.6373901367188,801.4285888671875
1320,795.3846435546875,792.1611938476562,807.069580078125,797.8021850585938
1321,796.996337890625,790.952392578125,809.4871826171875,795.7875366210938
1322,801.025634765625,792.1611938476562,809.084228515625,802.2344360351562
1323,798.2051391601562,790.1465454101562,805.8607788085938,808.2783813476562
1324,791.3552856445312,789.7435913085938,801.4285888671875,801.4285888671875
1325,788.5347900390625,787.7289428710938,802.2344360351562,792.967041015625
1326,789.7435913085938,785.3113403320312,799.010986328125,790.952392578125
1327,790.5494384765625,788.5347900390625,800.6226806640625,792.1611938476562
1328,794.981689453125,785.3113403320312,801.4285888671875,791.7582397460938
1329,794.5787353515625,787.3259887695312,801.025634765625,792.5640869140625
1330,795.3846435546875,793.7728881835938,800.2197875976562,798.6080322265625
1331,799.010986328125,797.3992919921875,799.010986328125,799.4139404296875
1332,797.8021850585938,794.5787353515625,798.2051391601562,792.967041015625
1333,801.025634765625,794.5787353515625,796.5933837890625,796.996337890625
1334,801.4285888671875,798.6080322265625,796.1904907226562,799.8168334960938
1335,798.2051391601562,799.8168334960938,794.981689453125,796.5933837890625
1336,792.967041015625,799.8168334960938,794.1758422851562,791.3552856445312
1337,795.3846435546875,797.8021850585938,792.967041015625,792.1611938476562
1338,806.2637329101562,792.967041015625,793.3699340820312,802.6373901367188
1339,810.6959838867188,791.7582397460938,796.5933837890625,808.6813354492188
1340,804.2490844726562,791.3552856445312,796.1904907226562,797.3992919921875
1341,799.8168334960938,790.1465454101562,790.1465454101562,796.1904907226562
1342,806.2637329101562,788.5347900390625,790.1465454101562,801.8314819335938
1343,805.4578857421875,787.3259887695312,793.7728881835938,804.6520385742188
1344,798.2051391601562,788.1318969726562,793.7728881835938,807.87548828125
1345,799.8168334960938,787.7289428710938,793.7728881835938,805.8607788085938
1346,795.7875366210938,785.3113403320312,788.937744140625,800.6226806640625
1347,790.952392578125,785.7142944335938,792.5640869140625,794.5787353515625
1348,793.7728881835938,790.952392578125,795.3846435546875,789.7435913085938
1349,791.7582397460938,792.1611938476562,794.5787353515625,790.1465454101562
1350,789.3406372070312,789.3406372070312,795.7875366210938,799.4139404296875
1351,789.7435913085938,794.981689453125,792.1611938476562,798.2051391601562
1352,790.1465454101562,796.996337890625,792.5640869140625,795.7875366210938
1353,791.7582397460938,790.952392578125,796.1904907226562,803.040283203125
1354,792.967041015625,788.937744140625,796.5933837890625,794.5787353515625
1355,798.2051391601562,793.3699340820312,799.4139404296875,790.5494384765625
1356,796.5933837890625,790.952392578125,796.996337890625,784.5054931640625
1357,792.5640869140625,790.1465454101562,793.3699340820312,776.4468994140625
1358,798.2051391601562,793.7728881835938,798.2051391601562,788.1318969726562
1359,799.8168334960938,794.1758422851562,798.2051391601562,794.981689453125
1360,797.8021850585938,790.952392578125,792.1611938476562,789.3406372070312
1361,798.2051391601562,789.3406372070312,791.7582397460938,790.5494384765625
1362,794.1758422851562,788.937744140625,797.3992919921875,799.8168334960938
1363,786.923095703125,791.7582397460938,799.4139404296875,792.5640869140625
1364,785.7142944335938,794.1758422851562,800.6226806640625,786.923095703125
1365,791.7582397460938,790.5494384765625,801.8314819335938,791.7582397460938
1366,796.1904907226562,792.1611938476562,798.2051391601562,800.6226806640625
1367,790.5494384765625,796.5933837890625,794.981689453125,800.2197875976562
1368,789.3406372070312,796.1904907226562,796.5933837890625,798.6080322265625
1369,795.3846435546875,791.3552856445312,796.996337890625,800.2197875976562
1370,795.7875366210938,790.5494384765625,797.8021850585938,799.8168334960938
1371,798.2051391601562,791.3552856445312,801.8314819335938,803.4432373046875
1372,800.6226806640625,790.1465454101562,803.4432373046875,809.89013671875
1373,804.2490844726562,788.5347900390625,801.4285888671875,817.94873046875
1374,801.8314819335938,791.7582397460938,803.8461303710938,818.3516235351562
1375,797.8021850585938,792.5640869140625,801.8314819335938,805.4578857421875
1376,796.5933837890625,790.952392578125,798.6080322265625,798.2051391601562
1377,792.1611938476562,793.3699340820312,799.4139404296875,796.5933837890625
1378,789.3406372070312,792.967041015625,795.3846435546875,795.7875366210938
1379,791.7582397460938,790.952392578125,796.996337890625,802.6373901367188
1380,797.8021850585938,793.3699340820312,800.2197875976562,809.084228515625
1381,794.1758422851562,794.981689453125,798.6080322265625,799.4139404296875
1382,790.952392578125,796.996337890625,794.5787353515625,788.937744140625
1383,788.1318969726562,796.1904907226562,794.5787353515625,780.879150390625
1384,784.908447265625,789.3406372070312,794.981689453125,784.5054931640625
1385,786.5201416015625,785.7142944335938,791.3552856445312,792.5640869140625
1386,786.923095703125,789.7435913085938,792.1611938476562,785.7142944335938
1387,780.0732421875,794.981689453125,793.3699340820312,780.879150390625
1388,780.4761962890625,792.1611938476562,797.3992919921875,790.1465454101562
1389,788.5347900390625,792.1611938476562,799.4139404296875,799.8168334960938
1390,788.1318969726562,792.967041015625,796.5933837890625,788.5347900390625
1391,783.6996459960938,784.908447265625,794.981689453125,785.7142944335938
1392,785.7142944335938,785.7142944335938,801.025634765625,794.1758422851562
1393,787.7289428710938,789.7435913085938,805.054931640625,797.3992919921875
1394,783.6996459960938,790.5494384765625,800.6226806640625,797.8021850585938
1395,784.908447265625,792.5640869140625,799.8168334960938,794.981689453125
1396,784.908447265625,788.1318969726562,797.3992919921875,801.8314819335938
1397,781.6849975585938,787.7289428710938,798.2051391601562,800.6226806640625
1398,783.2966918945312,789.7435913085938,797.8021850585938,793.3699340820312
1399,788.5347900390625,786.923095703125,794.5787353515625,795.3846435546875
1400,792.1611938476562,788.5347900390625,796.996337890625,798.2051391601562
1401,788.937744140625,794.1758422851562,796.5933837890625,791.7582397460938
1402,789.3406372070312,794.981689453125,791.7582397460938,785.7142944335938
1403,792.967041015625,790.952392578125,793.3699340820312,791.3552856445312
1404,794.981689453125,790.952392578125,797.8021850585938,797.8021850585938
1405,792.967041015625,789.3406372070312,795.3846435546875,794.5787353515625
1406,788.1318969726562,784.1025390625,794.981689453125,790.5494384765625
1407,790.5494384765625,785.3113403320312,795.3846435546875,794.5787353515625
1408,797.8021850585938,788.937744140625,796.5933837890625,797.8021850585938
1409,794.5787353515625,788.5347900390625,799.010986328125,792.1611938476562
1410,789.3406372070312,790.5494384765625,799.010986328125,792.5640869140625
1411,794.5787353515625,792.1611938476562,796.5933837890625,790.952392578125
1412,796.5933837890625,793.7728881835938,794.1758422851562,788.937744140625
1413,793.3699340820312,792.1611938476562,796.1904907226562,787.7289428710938
1414,794.5787353515625,787.3259887695312,796.5933837890625,791.3552856445312
1415,803.4432373046875,788.5347900390625,798.2051391601562,807.87548828125
1416,809.4871826171875,794.981689453125,797.8021850585938,818.3516235351562
1417,799.8168334960938,799.4139404296875,797.8021850585938,805.054931640625
1418,793.7728881835938,794.981689453125,798.2051391601562,795.3846435546875
1419,800.6226806640625,791.3552856445312,796.996337890625,801.4285888671875
1420,804.2490844726562,796.1904907226562,801.025634765625,803.040283203125
1421,798.6080322265625,797.8021850585938,799.8168334960938,801.025634765625
1422,793.7728881835938,788.937744140625,794.981689453125,800.2197875976562
1423,794.5787353515625,784.5054931640625,797.3992919921875,799.4139404296875
1424,798.6080322265625,788.937744140625,798.6080322265625,799.4139404296875
1425,804.2490844726562,790.952392578125,798.2051391601562,800.6226806640625
1426,804.2490844726562,789.3406372070312,798.2051391601562,801.025634765625
1427,795.3846435546875,785.3113403320312,792.1611938476562,796.996337890625
1428,794.981689453125,786.923095703125,787.7289428710938,792.5640869140625
1429,792.967041015625,789.3406372070312,789.7435913085938,790.952392578125
1430,795.3846435546875,789.3406372070312,790.5494384765625,797.8021850585938
1431,802.6373901367188,793.7728881835938,791.7582397460938,809.084228515625
1432,797.3992919921875,797.8021850585938,790.1465454101562,801.8314819335938
1433,794.981689453125,792.5640869140625,791.3552856445312,793.7728881835938
1434,800.6226806640625,790.952392578125,797.3992919921875,801.025634765625
1435,798.6080322265625,793.7728881835938,796.5933837890625,806.2637329101562
1436,793.7728881835938,791.7582397460938,791.7582397460938,801.8314819335938
1437,796.1904907226562,788.937744140625,790.952392578125,797.8021850585938
1438,801.8314819335938,793.3699340820312,793.7728881835938,799.8168334960938
1439,801.4285888671875,796.1904907226562,796.1904907226562,795.3846435546875
1440,797.3992919921875,790.952392578125,797.3992919921875,794.981689453125
1441,804.6520385742188,794.981689453125,799.4139404296875,804.6520385742188
1442,801.8314819335938,795.3846435546875,796.5933837890625,804.2490844726562
1443,790.952392578125,793.3699340820312,792.5640869140625,797.8021850585938
1444,794.981689453125,794.5787353515625,797.3992919921875,797.8021850585938
1445,798.2051391601562,790.952392578125,799.010986328125,794.1758422851562
1446,797.3992919921875,790.952392578125,796.1904907226562,796.996337890625
1447,796.996337890625,794.5787353515625,797.3992919921875,797.8021850585938
1448,797.3992919921875,796.1904907226562,797.3992919921875,784.908447265625
1449,792.967041015625,795.7875366210938,794.5787353515625,784.908447265625
1450,797.8021850585938,794.1758422851562,796.1904907226562,790.5494384765625
1451,808.2783813476562,795.3846435546875,798.2051391601562,792.1611938476562
1452,806.2637329101562,792.967041015625,795.3846435546875,794.981689453125
1453,802.2344360351562,790.952392578125,796.1904907226562,795.7875366210938
1454,799.010986328125,790.1465454101562,795.7875366210938,792.5640869140625
1455,794.5787353515625,786.5201416015625,795.3846435546875,788.937744140625
1456,799.010986328125,789.3406372070312,798.2051391601562,792.967041015625
1457,800.2197875976562,788.937744140625,795.7875366210938,801.8314819335938
1458,794.981689453125,784.5054931640625,794.981689453125,803.4432373046875
1459,789.3406372070312,791.7582397460938,797.3992919921875,794.981689453125
1460,784.908447265625,793.3699340820312,797.3992919921875,797.3992919921875
1461,785.7142944335938,786.5201416015625,795.7875366210938,797.8021850585938
1462,788.937744140625,785.3113403320312,794.981689453125,792.5640869140625
1463,788.937744140625,786.1171875,794.1758422851562,796.1904907226562
1464,789.7435913085938,787.7289428710938,795.7875366210938,798.6080322265625
1465,791.7582397460938,788.937744140625,799.010986328125,795.7875366210938
1466,786.5201416015625,785.7142944335938,799.8168334960938,794.981689453125
1467,788.937744140625,789.3406372070312,795.7875366210938,794.981689453125
1468,793.7728881835938,791.7582397460938,793.3699340820312,794.981689453125
1469,796.1904907226562,789.3406372070312,794.981689453125,803.4432373046875
1470,796.5933837890625,790.1465454101562,792.5640869140625,801.4285888671875
1471,798.6080322265625,795.3846435546875,796.5933837890625,800.2197875976562
1472,799.8168334960938,796.5933837890625,800.6226806640625,803.8461303710938
1473,799.4139404296875,794.981689453125,799.4139404296875,801.4285888671875
1474,798.6080322265625,793.7728881835938,800.2197875976562,799.8168334960938
1475,800.6226806640625,795.7875366210938,798.2051391601562,796.996337890625
1476,800.2197875976562,802.2344360351562,795.7875366210938,794.5787353515625
1477,793.7728881835938,805.8607788085938,794.5787353515625,792.5640869140625
1478,794.981689453125,804.6520385742188,791.7582397460938,794.981689453125
1479,798.6080322265625,801.8314819335938,792.967041015625,794.1758422851562
1480,796.996337890625,800.2197875976562,793.3699340820312,796.996337890625
1481,790.5494384765625,796.1904907226562,792.5640869140625,801.8314819335938
1482,788.937744140625,794.5787353515625,794.5787353515625,794.981689453125
1483,791.3552856445312,794.5787353515625,791.3552856445312,790.5494384765625
1484,789.7435913085938,795.7875366210938,794.5787353515625,786.1171875
1485,792.1611938476562,796.996337890625,799.8168334960938,788.937744140625
1486,796.5933837890625,793.3699340820312,798.6080322265625,796.1904907226562
1487,794.5787353515625,792.5640869140625,796.5933837890625,789.7435913085938
1488,794.5787353515625,794.981689453125,797.3992919921875,790.5494384765625
1489,798.6080322265625,791.7582397460938,799.8168334960938,795.3846435546875
1490,796.5933837890625,789.3406372070312,799.8168334960938,792.967041015625
1491,794.5787353515625,792.5640869140625,799.4139404296875,797.8021850585938
1492,796.996337890625,794.5787353515625,794.5787353515625,801.4285888671875
1493,796.5933837890625,798.6080322265625,792.1611938476562,795.7875366210938
1494,794.981689453125,798.6080322265625,797.8021850585938,794.981689453125
1495,796.1904907226562,802.6373901367188,797.8021850585938,801.8314819335938
1496,799.010986328125,798.6080322265625,793.3699340820312,799.4139404296875
1497,800.6226806640625,792.967041015625,794.5787353515625,793.7728881835938
1498,799.4139404296875,795.7875366210938,795.3846435546875,793.3699340820312
1499,794.1758422851562,795.3846435546875,796.5933837890625,795.3846435546875
1500,793.3699340820312,796.5933837890625,799.010986328125,797.3992919921875
1501,799.4139404296875,794.981689453125,798.6080322265625,795.7875366210938
1502,799.8168334960938,792.1611938476562,795.3846435546875,791.3552856445312
1503,806.2637329101562,790.952392578125,794.981689453125,798.6080322265625
1504,812.7106323242188,789.7435913085938,799.010986328125,807.069580078125
1505,807.069580078125,791.7582397460938,798.2051391601562,800.6226806640625
1506,804.2490844726562,788.937744140625,796.1904907226562,793.3699340820312
1507,803.8461303710938,788.5347900390625,795.3846435546875,788.5347900390625
1508,802.6373901367188,789.7435913085938,793.3699340820312,787.3259887695312
1509,803.040283203125,792.967041015625,794.5787353515625,789.7435913085938
1510,803.4432373046875,795.7875366210938,795.7875366210938,793.3699340820312
1511,801.4285888671875,790.952392578125,796.5933837890625,792.1611938476562
1512,801.4285888671875,789.7435913085938,796.5933837890625,790.952392578125
1513,800.6226806640625,793.7728881835938,797.8021850585938,798.2051391601562
1514,799.4139404296875,789.7435913085938,799.8168334960938,799.4139404296875
1515,801.4285888671875,787.7289428710938,803.8461303710938,798.6080322265625
1516,796.996337890625,796.996337890625,803.8461303710938,796.996337890625
1517,799.4139404296875,800.2197875976562,803.040283203125,794.981689453125
1518,801.8314819335938,798.2051391601562,802.2344360351562,794.981689453125
1519,791.7582397460938,791.7582397460938,801.4285888671875,793.3699340820312
1520,789.3406372070312,790.952392578125,799.4139404296875,794.1758422851562
1521,789.7435913085938,793.3699340820312,801.4285888671875,797.8021850585938
1522,784.1025390625,793.7728881835938,804.6520385742188,795.7875366210938
1523,788.1318969726562,792.1611938476562,797.3992919921875,800.6226806640625
1524,790.1465454101562,792.967041015625,800.2197875976562,805.054931640625
1525,785.3113403320312,793.7728881835938,804.2490844726562,801.8314819335938
1526,792.1611938476562,792.967041015625,798.6080322265625,800.6226806640625
1527,794.5787353515625,789.7435913085938,796.5933837890625,794.5787353515625
1528,793.7728881835938,788.5347900390625,799.010986328125,789.7435913085938
1529,797.3992919921875,794.981689453125,800.2197875976562,788.5347900390625
1530,796.996337890625,792.1611938476562,800.6226806640625,793.3699340820312
1531,792.5640869140625,786.1171875,801.025634765625,799.8168334960938
1532,790.5494384765625,790.1465454101562,801.025634765625,794.1758422851562
1533,797.8021850585938,793.3699340820312,798.2051391601562,790.5494384765625
1534,797.8021850585938,794.1758422851562,793.7728881835938,792.5640869140625
1535,799.4139404296875,794.5787353515625,796.996337890625,799.010986328125
1536,801.025634765625,795.7875366210938,796.996337890625,802.2344360351562
1537,796.996337890625,787.7289428710938,792.967041015625,799.8168334960938
1538,796.996337890625,784.908447265625,797.8021850585938,801.8314819335938
1539,794.1758422851562,791.7582397460938,803.4432373046875,803.8461303710938
1540,792.967041015625,795.3846435546875,804.2490844726562,799.4139404296875
1541,797.8021850585938,800.6226806640625,805.8607788085938,795.3846435546875
1542,801.025634765625,796.1904907226562,803.040283203125,803.040283203125
1543,796.5933837890625,792.1611938476562,797.3992919921875,800.2197875976562
1544,793.3699340820312,792.967041015625,794.981689453125,791.3552856445312
1545,794.5787353515625,788.937744140625,793.3699340820312,796.5933837890625
1546,790.952392578125,786.923095703125,794.5787353515625,799.4139404296875
1547,786.1171875,789.7435913085938,793.7728881835938,797.3992919921875
1548,785.3113403320312,789.7435913085938,796.1904907226562,798.6080322265625
1549,788.937744140625,789.7435913085938,796.996337890625,802.6373901367188
1550,786.1171875,789.3406372070312,797.8021850585938,799.010986328125
1551,783.6996459960938,789.3406372070312,798.6080322265625,797.3992919921875
1552,788.937744140625,791.7582397460938,801.4285888671875,794.981689453125
1553,798.2051391601562,792.967041015625,799.4139404296875,796.1904907226562
1554,796.996337890625,793.3699340820312,793.3699340820312,800.6226806640625
1555,794.5787353515625,798.2051391601562,797.3992919921875,796.1904907226562
1556,796.5933837890625,797.8021850585938,802.6373901367188,796.1904907226562
1557,795.7875366210938,794.1758422851562,803.4432373046875,800.6226806640625
1558,793.3699340820312,793.3699340820312,803.040283203125,801.8314819335938
1559,794.981689453125,792.967041015625,801.025634765625,798.6080322265625
1560,794.981689453125,788.937744140625,799.8168334960938,794.1758422851562
1561,797.8021850585938,791.3552856445312,798.2051391601562,799.8168334960938
1562,803.4432373046875,796.996337890625,796.996337890625,803.4432373046875
1563,803.4432373046875,796.5933837890625,795.3846435546875,802.2344360351562
1564,806.2637329101562,790.5494384765625,798.2051391601562,805.054931640625
1565,807.069580078125,787.7289428710938,799.8168334960938,807.4725341796875
1566,799.8168334960938,795.7875366210938,798.2051391601562,804.6520385742188
1567,796.5933837890625,793.3699340820312,796.996337890625,805.8607788085938
1568,802.2344360351562,791.3552856445312,792.967041015625,805.4578857421875
1569,802.6373901367188,795.3846435546875,796.1904907226562,801.4285888671875
1570,797.3992919921875,793.3699340820312,798.6080322265625,802.6373901367188
1571,792.1611938476562,792.5640869140625,796.1904907226562,796.996337890625
1572,790.5494384765625,792.5640869140625,794.981689453125,801.025634765625
1573,791.3552856445312,795.7875366210938,793.7728881835938,803.040283203125
1574,795.3846435546875,799.8168334960938,794.1758422851562,799.8168334960938
