timestamp,RAW_TP9,RAW_AF7,RAW_AF8,RAW_TP10
1,810.2930297851562,761.94140625,818.3516235351562,829.2307739257812
2,827.6190185546875,765.970703125,814.3223266601562,837.6923217773438
3,829.2307739257812,762.3442993164062,805.054931640625,827.6190185546875
4,834.8717651367188,759.120849609375,798.6080322265625,832.4542236328125
5,856.2271118164062,763.1502075195312,796.996337890625,853.4066162109375
6,871.5384521484375,768.7911987304688,790.952392578125,855.8241577148438
7,870.7326049804688,778.05859375,784.908447265625,852.6007080078125
8,863.4798583984375,777.2527465820312,783.2966918945312,857.032958984375
9,855.018310546875,769.5970458984375,783.2966918945312,861.8681030273438
10,850.5860595703125,767.5823974609375,782.087890625,861.062255859375
11,853.4066162109375,771.2088012695312,780.0732421875,867.5091552734375
12,860.6593627929688,767.9853515625,776.4468994140625,880.0
13,856.6300659179688,763.9560546875,776.8497924804688,875.1648559570312
14,854.2124633789062,769.5970458984375,774.8351440429688,861.062255859375
15,858.2417602539062,772.4176025390625,769.5970458984375,865.8974609375
16,865.091552734375,773.2234497070312,773.2234497070312,869.9267578125
17,863.076904296875,775.6410522460938,776.4468994140625,863.4798583984375
18,868.3150024414062,776.0439453125,777.6557006835938,871.1355590820312
19,869.5238037109375,775.2380981445312,779.2673950195312,873.1502075195312
20,862.2710571289062,776.8497924804688,775.6410522460938,867.5091552734375
21,866.7033081054688,777.2527465820312,771.2088012695312,862.6740112304688
22,850.5860595703125,777.2527465820312,773.2234497070312,864.6886596679688
23,851.7948608398438,778.8644409179688,774.4322509765625,859.047607421875
24,868.3150024414062,780.0732421875,773.2234497070312,859.8534545898438
25,861.4652099609375,778.05859375,774.4322509765625,861.062255859375
26,852.6007080078125,775.6410522460938,774.8351440429688,848.1685180664062
27,836.886474609375,774.8351440429688,774.4322509765625,844.1392211914062
28,832.8571166992188,779.6703491210938,776.0439453125,846.5567626953125
29,842.12451171875,780.0732421875,777.6557006835938,845.7509155273438
30,844.1392211914062,776.8497924804688,782.4908447265625,843.7362670898438
31,839.7069702148438,785.3113403320312,786.5201416015625,846.959716796875
32,834.06591796875,788.937744140625,783.2966918945312,834.8717651367188
33,827.6190185546875,783.2966918945312,779.6703491210938,823.99267578125
34,825.6043701171875,780.0732421875,774.4322509765625,825.6043701171875
35,825.2014770507812,783.6996459960938,772.0146484375,831.2454223632812
36,826.8131713867188,791.7582397460938,773.6264038085938,826.4102783203125
37,823.1868286132812,783.6996459960938,770.0,812.7106323242188
38,824.7985229492188,777.2527465820312,770.0,815.1282348632812
39,823.99267578125,785.7142944335938,772.8204956054688,813.91943359375
40,817.5457763671875,788.937744140625,767.5823974609375,821.5750732421875
41,830.4395751953125,785.7142944335938,770.4029541015625,830.4395751953125
42,819.96337890625,784.908447265625,776.0439453125,811.5018310546875
43,800.2197875976562,786.1171875,778.05859375,800.6226806640625
44,799.8168334960938,784.908447265625,779.2673950195312,806.6666870117188
45,809.084228515625,780.879150390625,781.6849975585938,817.1428833007812
46,816.7399291992188,775.6410522460938,780.879150390625,827.6190185546875
47,819.96337890625,777.6557006835938,775.2380981445312,827.6190185546875
48,825.2014770507812,781.2820434570312,779.6703491210938,820.3662719726562
49,821.5750732421875,780.4761962890625,781.2820434570312,811.90478515625
50,818.3516235351562,781.2820434570312,775.2380981445312,811.90478515625
51,821.5750732421875,781.2820434570312,776.8497924804688,805.4578857421875
52,810.2930297851562,781.6849975585938,776.8497924804688,800.2197875976562
53,802.2344360351562,780.0732421875,773.2234497070312,799.4139404296875
54,811.098876953125,782.087890625,774.8351440429688,794.981689453125
55,810.6959838867188,783.6996459960938,778.8644409179688,796.1904907226562
56,809.4871826171875,782.087890625,785.3113403320312,798.6080322265625
57,801.4285888671875,780.879150390625,780.0732421875,794.5787353515625
58,799.4139404296875,778.4615478515625,777.6557006835938,795.3846435546875
59,809.89013671875,781.2820434570312,780.879150390625,801.8314819335938
60,801.025634765625,783.2966918945312,786.923095703125,803.040283203125
61,794.5787353515625,783.6996459960938,793.3699340820312,806.2637329101562
62,796.5933837890625,789.3406372070312,791.7582397460938,810.2930297851562
63,802.6373901367188,790.1465454101562,793.7728881835938,808.6813354492188
64,812.7106323242188,790.5494384765625,795.7875366210938,809.4871826171875
65,812.3076782226562,792.1611938476562,796.996337890625,811.5018310546875
66,808.6813354492188,793.7728881835938,798.6080322265625,816.3369750976562
67,809.084228515625,799.010986328125,798.6080322265625,812.7106323242188
68,803.8461303710938,797.3992919921875,796.1904907226562,800.2197875976562
69,819.5604248046875,796.1904907226562,797.8021850585938,816.7399291992188
70,815.1282348632812,798.6080322265625,794.981689453125,818.7545776367188
71,788.937744140625,798.2051391601562,790.5494384765625,793.7728881835938
72,782.087890625,791.3552856445312,791.3552856445312,788.1318969726562
73,788.5347900390625,790.5494384765625,790.952392578125,801.8314819335938
74,785.7142944335938,796.1904907226562,786.1171875,796.996337890625
75,776.0439453125,792.1611938476562,780.4761962890625,781.2820434570312
76,782.893798828125,790.1465454101562,781.2820434570312,779.6703491210938
77,786.5201416015625,796.996337890625,786.5201416015625,782.893798828125
78,782.087890625,800.2197875976562,790.5494384765625,786.923095703125
79,784.5054931640625,798.6080322265625,788.5347900390625,782.893798828125
80,777.6557006835938,795.7875366210938,782.4908447265625,776.8497924804688
81,775.6410522460938,793.7728881835938,785.7142944335938,782.893798828125
82,789.3406372070312,793.3699340820312,790.952392578125,786.5201416015625
83,781.6849975585938,791.3552856445312,784.908447265625,778.05859375
84,770.8058471679688,791.3552856445312,780.879150390625,778.8644409179688
85,773.2234497070312,792.1611938476562,780.879150390625,777.6557006835938
86,781.2820434570312,792.1611938476562,788.1318969726562,780.879150390625
87,788.937744140625,790.5494384765625,791.7582397460938,785.3113403320312
88,778.4615478515625,790.5494384765625,790.5494384765625,785.7142944335938
89,777.6557006835938,795.7875366210938,790.5494384765625,780.4761962890625
90,792.5640869140625,797.3992919921875,789.7435913085938,779.2673950195312
91,785.3113403320312,797.8021850585938,791.7582397460938,787.3259887695312
92,781.6849975585938,799.8168334960938,791.3552856445312,793.7728881835938
93,786.5201416015625,798.6080322265625,790.952392578125,798.6080322265625
94,783.2966918945312,796.1904907226562,794.5787353515625,802.6373901367188
95,792.967041015625,799.010986328125,798.2051391601562,800.6226806640625
96,808.2783813476562,796.1904907226562,799.4139404296875,790.1465454101562
97,801.8314819335938,794.5787353515625,796.1904907226562,788.1318969726562
98,790.1465454101562,796.996337890625,798.2051391601562,785.3113403320312
99,787.3259887695312,792.5640869140625,799.010986328125,777.2527465820312
100,780.4761962890625,789.7435913085938,796.1904907226562,776.8497924804688
101,775.6410522460938,786.923095703125,797.3992919921875,774.8351440429688
102,785.3113403320312,787.3259887695312,797.3992919921875,774.4322509765625
103,782.4908447265625,793.3699340820312,793.3699340820312,774.8351440429688
104,761.5384521484375,796.5933837890625,791.3552856445312,787.3259887695312
105,761.1355590820312,794.1758422851562,795.3846435546875,786.923095703125
106,769.1941528320312,792.5640869140625,794.1758422851562,768.7911987304688
107,783.6996459960938,794.5787353515625,793.7728881835938,773.2234497070312
108,787.7289428710938,796.996337890625,795.7875366210938,779.2673950195312
109,778.4615478515625,796.996337890625,795.7875366210938,771.2088012695312
110,776.0439453125,794.5787353515625,792.967041015625,769.1941528320312
111,776.8497924804688,793.7728881835938,791.7582397460938,774.8351440429688
112,785.3113403320312,794.5787353515625,792.5640869140625,779.6703491210938
113,785.7142944335938,793.3699340820312,788.5347900390625,773.6264038085938
114,776.4468994140625,794.1758422851562,789.7435913085938,772.0146484375
115,776.4468994140625,794.981689453125,792.5640869140625,788.5347900390625
116,795.3846435546875,799.4139404296875,794.1758422851562,801.8314819335938
117,804.2490844726562,805.4578857421875,794.1758422851562,796.5933837890625
118,800.2197875976562,798.6080322265625,790.952392578125,787.3259887695312
119,792.5640869140625,794.1758422851562,790.5494384765625,788.5347900390625
120,790.952392578125,796.996337890625,792.967041015625,790.952392578125
121,798.6080322265625,797.3992919921875,796.996337890625,786.5201416015625
122,797.8021850585938,794.5787353515625,796.1904907226562,789.7435913085938
123,794.1758422851562,794.981689453125,792.5640869140625,797.8021850585938
124,788.1318969726562,794.1758422851562,792.967041015625,795.3846435546875
125,783.6996459960938,796.1904907226562,798.2051391601562,794.5787353515625
126,780.0732421875,797.3992919921875,795.7875366210938,795.3846435546875
127,785.3113403320312,794.1758422851562,794.1758422851562,799.010986328125
128,782.087890625,791.7582397460938,799.8168334960938,797.3992919921875
129,776.4468994140625,788.937744140625,801.8314819335938,788.1318969726562
130,788.1318969726562,793.7728881835938,803.040283203125,784.908447265625
131,776.4468994140625,796.5933837890625,801.8314819335938,786.1171875
132,769.1941528320312,795.7875366210938,803.040283203125,783.6996459960938
133,777.2527465820312,792.5640869140625,804.6520385742188,785.3113403320312
134,776.8497924804688,790.1465454101562,800.6226806640625,786.1171875
135,788.1318969726562,793.7728881835938,799.010986328125,783.2966918945312
136,789.7435913085938,796.1904907226562,798.6080322265625,790.952392578125
137,782.087890625,794.1758422851562,798.2051391601562,784.5054931640625
138,783.2966918945312,798.6080322265625,792.1611938476562,779.6703491210938
139,792.5640869140625,799.8168334960938,795.7875366210938,794.981689453125
140,783.6996459960938,796.996337890625,805.4578857421875,781.2820434570312
141,775.6410522460938,795.3846435546875,805.8607788085938,770.0
142,784.908447265625,789.7435913085938,804.2490844726562,784.1025390625
143,796.996337890625,788.5347900390625,805.054931640625,800.6226806640625
144,789.7435913085938,788.937744140625,803.4432373046875,794.981689453125
145,780.4761962890625,786.1171875,801.8314819335938,791.7582397460938
146,781.2820434570312,786.1171875,801.025634765625,801.4285888671875
147,788.1318969726562,792.967041015625,805.054931640625,803.8461303710938
148,788.5347900390625,793.7728881835938,804.2490844726562,790.5494384765625
149,786.923095703125,789.3406372070312,798.6080322265625,785.7142944335938
150,792.967041015625,790.1465454101562,798.2051391601562,796.1904907226562
151,783.2966918945312,789.7435913085938,796.5933837890625,795.7875366210938
152,782.087890625,783.6996459960938,796.996337890625,792.1611938476562
153,802.2344360351562,789.7435913085938,800.6226806640625,796.996337890625
154,804.6520385742188,796.5933837890625,800.2197875976562,802.2344360351562
155,797.3992919921875,792.5640869140625,793.3699340820312,798.2051391601562
156,806.6666870117188,791.3552856445312,792.5640869140625,802.6373901367188
157,816.7399291992188,794.981689453125,796.1904907226562,810.2930297851562
158,806.2637329101562,793.3699340820312,797.3992919921875,809.084228515625
159,806.2637329101562,793.7728881835938,798.2051391601562,818.7545776367188
160,801.025634765625,797.3992919921875,798.6080322265625,817.5457763671875
161,796.1904907226562,797.3992919921875,799.010986328125,808.6813354492188
162,807.87548828125,800.2197875976562,796.5933837890625,800.6226806640625
163,807.87548828125,803.4432373046875,797.3992919921875,788.937744140625
164,797.3992919921875,800.2197875976562,798.6080322265625,789.3406372070312
165,787.7289428710938,794.981689453125,795.3846435546875,800.2197875976562
166,786.1171875,796.5933837890625,788.5347900390625,801.8314819335938
167,789.3406372070312,799.4139404296875,786.1171875,796.996337890625
168,795.3846435546875,798.2051391601562,792.1611938476562,789.3406372070312
169,786.5201416015625,797.3992919921875,797.3992919921875,790.5494384765625
170,784.5054931640625,799.010986328125,798.2051391601562,795.3846435546875
171,782.4908447265625,793.7728881835938,796.1904907226562,795.3846435546875
172,789.3406372070312,795.3846435546875,794.981689453125,794.1758422851562
173,794.1758422851562,797.8021850585938,794.981689453125,796.996337890625
174,806.6666870117188,800.6226806640625,798.2051391601562,801.8314819335938
175,809.89013671875,795.3846435546875,803.040283203125,795.7875366210938
176,798.6080322265625,792.5640869140625,801.4285888671875,790.952392578125
177,796.5933837890625,799.8168334960938,803.040283203125,788.937744140625
178,795.7875366210938,798.2051391601562,802.2344360351562,794.5787353515625
179,794.981689453125,793.7728881835938,801.4285888671875,791.3552856445312
180,799.010986328125,793.7728881835938,803.040283203125,795.7875366210938
181,801.4285888671875,796.996337890625,803.040283203125,804.6520385742188
182,805.4578857421875,798.6080322265625,806.2637329101562,801.8314819335938
183,798.6080322265625,792.5640869140625,803.4432373046875,793.3699340820312
184,792.1611938476562,790.1465454101562,798.6080322265625,785.7142944335938
185,805.4578857421875,796.1904907226562,794.1758422851562,786.1171875
186,808.2783813476562,796.996337890625,794.1758422851562,790.952392578125
187,778.4615478515625,794.1758422851562,797.8021850585938,790.5494384765625
188,765.5677490234375,797.8021850585938,798.2051391601562,784.1025390625
189,778.4615478515625,798.6080322265625,800.6226806640625,787.7289428710938
190,783.6996459960938,797.3992919921875,801.8314819335938,792.1611938476562
191,789.3406372070312,800.2197875976562,803.4432373046875,790.952392578125
192,802.6373901367188,799.8168334960938,806.2637329101562,800.6226806640625
193,801.4285888671875,799.8168334960938,807.87548828125,802.6373901367188
194,788.1318969726562,801.025634765625,804.6520385742188,798.6080322265625
195,776.4468994140625,797.3992919921875,803.8461303710938,792.967041015625
196,780.0732421875,796.5933837890625,807.069580078125,793.7728881835938
197,786.923095703125,797.3992919921875,804.6520385742188,798.2051391601562
198,786.5201416015625,796.996337890625,799.010986328125,785.3113403320312
199,785.7142944335938,799.4139404296875,799.8168334960938,785.7142944335938
200,789.3406372070312,802.6373901367188,800.2197875976562,794.5787353515625
201,788.5347900390625,799.8168334960938,799.010986328125,793.7728881835938
202,797.8021850585938,798.2051391601562,800.2197875976562,787.7289428710938
203,789.7435913085938,797.8021850585938,796.1904907226562,786.923095703125
204,780.879150390625,796.5933837890625,790.5494384765625,789.3406372070312
205,792.967041015625,796.1904907226562,793.7728881835938,795.3846435546875
206,790.952392578125,796.1904907226562,798.6080322265625,788.5347900390625
207,792.5640869140625,796.996337890625,795.7875366210938,776.8497924804688
208,800.2197875976562,801.025634765625,796.1904907226562,781.6849975585938
209,791.3552856445312,801.8314819335938,796.996337890625,786.1171875
210,790.1465454101562,795.3846435546875,790.5494384765625,783.2966918945312
211,789.7435913085938,792.5640869140625,787.3259887695312,782.087890625
212,784.1025390625,792.1611938476562,791.7582397460938,780.879150390625
213,785.3113403320312,796.996337890625,792.967041015625,790.1465454101562
214,785.7142944335938,797.3992919921875,792.967041015625,794.1758422851562
215,786.1171875,792.967041015625,794.1758422851562,790.5494384765625
216,796.996337890625,791.3552856445312,794.1758422851562,790.5494384765625
217,790.952392578125,790.5494384765625,787.7289428710938,785.7142944335938
218,777.2527465820312,789.3406372070312,785.3113403320312,781.6849975585938
219,775.6410522460938,789.3406372070312,794.981689453125,789.3406372070312
220,775.6410522460938,794.981689453125,798.2051391601562,790.952392578125
221,772.8204956054688,792.5640869140625,795.3846435546875,774.029296875
222,783.6996459960938,784.1025390625,794.1758422851562,780.879150390625
223,796.996337890625,784.908447265625,793.3699340820312,790.1465454101562
224,791.3552856445312,794.981689453125,789.7435913085938,780.879150390625
225,788.937744140625,800.2197875976562,788.1318969726562,772.4176025390625
226,783.2966918945312,801.025634765625,787.3259887695312,774.029296875
227,776.8497924804688,797.8021850585938,785.7142944335938,777.6557006835938
228,782.087890625,788.937744140625,790.952392578125,773.6264038085938
229,780.4761962890625,783.2966918945312,793.7728881835938,776.0439453125
230,774.8351440429688,782.893798828125,793.7728881835938,782.893798828125
231,778.8644409179688,784.908447265625,800.2197875976562,791.7582397460938
232,781.6849975585938,788.937744140625,802.2344360351562,791.3552856445312
233,786.923095703125,790.5494384765625,799.8168334960938,782.893798828125
234,790.952392578125,788.937744140625,801.8314819335938,786.5201416015625
235,787.3259887695312,787.3259887695312,800.6226806640625,786.1171875
236,791.7582397460938,786.5201416015625,794.981689453125,782.893798828125
237,800.6226806640625,787.7289428710938,794.981689453125,787.3259887695312
238,789.7435913085938,790.1465454101562,795.7875366210938,788.1318969726562
239,785.3113403320312,792.1611938476562,798.2051391601562,787.7289428710938
240,788.5347900390625,796.1904907226562,800.2197875976562,784.908447265625
241,787.3259887695312,796.996337890625,794.5787353515625,785.7142944335938
242,796.1904907226562,792.967041015625,789.7435913085938,787.7289428710938
243,795.3846435546875,795.3846435546875,793.7728881835938,784.1025390625
244,790.5494384765625,799.8168334960938,795.7875366210938,778.4615478515625
245,788.5347900390625,796.1904907226562,796.5933837890625,782.893798828125
246,789.3406372070312,790.952392578125,796.5933837890625,792.1611938476562
247,802.6373901367188,794.1758422851562,800.6226806640625,794.1758422851562
248,803.040283203125,790.952392578125,801.025634765625,792.1611938476562
249,786.1171875,786.923095703125,796.5933837890625,794.981689453125
250,781.2820434570312,793.3699340820312,793.3699340820312,793.7728881835938
251,783.6996459960938,792.967041015625,795.7875366210938,785.7142944335938
252,784.5054931640625,791.3552856445312,801.025634765625,785.3113403320312
253,781.2820434570312,791.7582397460938,800.2197875976562,792.967041015625
254,780.0732421875,791.3552856445312,799.8168334960938,796.1904907226562
255,780.879150390625,787.7289428710938,799.4139404296875,793.3699340820312
256,785.7142944335938,792.967041015625,797.8021850585938,793.7728881835938
257,794.5787353515625,794.981689453125,795.7875366210938,799.010986328125
258,791.3552856445312,790.5494384765625,794.981689453125,795.3846435546875
259,786.923095703125,792.5640869140625,798.6080322265625,792.5640869140625
260,788.937744140625,792.1611938476562,797.8021850585938,794.981689453125
261,787.3259887695312,794.981689453125,792.5640869140625,790.1465454101562
262,784.1025390625,793.7728881835938,790.952392578125,796.1904907226562
263,792.5640869140625,794.5787353515625,792.967041015625,794.981689453125
264,790.952392578125,796.996337890625,793.3699340820312,792.1611938476562
265,782.4908447265625,797.8021850585938,789.7435913085938,799.8168334960938
266,784.5054931640625,794.5787353515625,790.952392578125,788.5347900390625
267,784.5054931640625,790.1465454101562,791.3552856445312,785.7142944335938
268,784.1025390625,791.7582397460938,790.5494384765625,786.1171875
269,786.923095703125,790.952392578125,790.952392578125,791.3552856445312
270,788.5347900390625,790.1465454101562,790.952392578125,793.3699340820312
271,786.923095703125,792.5640869140625,794.5787353515625,786.923095703125
272,791.7582397460938,794.1758422851562,793.7728881835938,790.952392578125
273,783.6996459960938,792.1611938476562,791.3552856445312,788.937744140625
274,767.5823974609375,789.7435913085938,789.7435913085938,786.923095703125
275,770.0,781.6849975585938,787.7289428710938,787.3259887695312
276,778.8644409179688,782.087890625,788.937744140625,784.5054931640625
277,780.4761962890625,783.6996459960938,787.7289428710938,776.4468994140625
278,783.6996459960938,780.879150390625,787.3259887695312,780.879150390625
279,782.4908447265625,784.1025390625,787.7289428710938,784.908447265625
280,782.4908447265625,787.7289428710938,787.3259887695312,788.937744140625
281,785.3113403320312,789.3406372070312,792.967041015625,789.7435913085938
282,779.2673950195312,788.1318969726562,790.952392578125,780.879150390625
283,779.2673950195312,790.1465454101562,788.5347900390625,786.1171875
284,790.5494384765625,797.3992919921875,792.1611938476562,793.7728881835938
285,786.1171875,797.3992919921875,790.1465454101562,790.5494384765625
286,772.0146484375,793.7728881835938,788.937744140625,786.5201416015625
287,775.2380981445312,794.5787353515625,789.7435913085938,786.5201416015625
288,780.0732421875,794.5787353515625,789.3406372070312,784.5054931640625
289,779.2673950195312,791.3552856445312,787.3259887695312,778.05859375
290,777.6557006835938,790.1465454101562,788.937744140625,778.8644409179688
291,784.5054931640625,788.937744140625,787.7289428710938,783.6996459960938
292,789.3406372070312,792.967041015625,786.1171875,787.3259887695312
293,791.3552856445312,797.3992919921875,792.1611938476562,786.1171875
294,784.908447265625,793.7728881835938,792.967041015625,782.4908447265625
295,771.6116943359375,792.1611938476562,791.3552856445312,786.1171875
296,766.3735961914062,793.3699340820312,791.3552856445312,783.6996459960938
297,771.2088012695312,786.923095703125,791.7582397460938,780.0732421875
298,778.05859375,786.5201416015625,788.1318969726562,777.2527465820312
299,777.2527465820312,791.3552856445312,783.6996459960938,776.8497924804688
300,771.6116943359375,789.3406372070312,788.937744140625,776.0439453125
301,779.6703491210938,790.952392578125,791.7582397460938,778.4615478515625
302,787.7289428710938,794.1758422851562,791.7582397460938,787.7289428710938
303,785.7142944335938,794.1758422851562,792.967041015625,791.7582397460938
304,778.4615478515625,794.981689453125,794.1758422851562,790.1465454101562
305,777.2527465820312,792.1611938476562,796.996337890625,787.3259887695312
306,781.6849975585938,791.7582397460938,798.6080322265625,791.7582397460938
307,784.908447265625,797.8021850585938,802.2344360351562,795.3846435546875
308,786.1171875,792.967041015625,799.8168334960938,796.5933837890625
309,785.7142944335938,789.7435913085938,794.1758422851562,799.4139404296875
310,783.2966918945312,792.1611938476562,800.2197875976562,799.010986328125
311,780.4761962890625,793.7728881835938,805.054931640625,795.3846435546875
312,784.5054931640625,793.7728881835938,803.040283203125,788.937744140625
313,791.7582397460938,791.3552856445312,800.2197875976562,784.908447265625
314,791.7582397460938,790.952392578125,801.025634765625,782.4908447265625
315,787.7289428710938,791.7582397460938,802.2344360351562,788.5347900390625
316,793.7728881835938,794.1758422851562,800.6226806640625,792.967041015625
317,799.010986328125,796.1904907226562,803.040283203125,796.1904907226562
318,788.937744140625,791.7582397460938,805.4578857421875,799.8168334960938
319,779.2673950195312,790.1465454101562,804.6520385742188,797.3992919921875
320,780.879150390625,794.1758422851562,805.4578857421875,797.3992919921875
321,784.1025390625,793.3699340820312,802.6373901367188,792.5640869140625
322,785.3113403320312,790.5494384765625,801.025634765625,794.1758422851562
323,785.7142944335938,789.7435913085938,800.2197875976562,794.5787353515625
324,781.6849975585938,788.5347900390625,799.010986328125,786.923095703125
325,782.087890625,784.1025390625,797.3992919921875,791.3552856445312
326,788.937744140625,782.4908447265625,797.3992919921875,801.8314819335938
327,793.3699340820312,787.7289428710938,803.040283203125,805.054931640625
328,794.1758422851562,793.7728881835938,801.4285888671875,797.3992919921875
329,794.1758422851562,792.5640869140625,796.5933837890625,796.996337890625
330,789.3406372070312,793.7728881835938,795.7875366210938,799.8168334960938
331,784.1025390625,794.1758422851562,797.3992919921875,794.1758422851562
332,790.5494384765625,790.952392578125,792.5640869140625,786.923095703125
333,789.3406372070312,790.952392578125,788.937744140625,784.908447265625
334,784.1025390625,788.937744140625,790.952392578125,785.3113403320312
335,777.2527465820312,787.3259887695312,791.7582397460938,789.3406372070312
336,772.4176025390625,786.1171875,794.981689453125,796.1904907226562
337,782.087890625,787.3259887695312,792.1611938476562,801.4285888671875
338,782.4908447265625,790.1465454101562,790.1465454101562,796.996337890625
339,783.2966918945312,796.996337890625,794.1758422851562,788.5347900390625
340,793.3699340820312,796.1904907226562,796.996337890625,783.6996459960938
341,793.3699340820312,790.952392578125,798.2051391601562,787.3259887695312
342,786.5201416015625,792.967041015625,796.5933837890625,794.981689453125
343,782.087890625,796.1904907226562,793.7728881835938,795.3846435546875
344,790.1465454101562,799.4139404296875,798.2051391601562,798.2051391601562
345,788.5347900390625,796.996337890625,796.996337890625,798.6080322265625
346,786.1171875,799.4139404296875,792.5640869140625,800.6226806640625
347,792.967041015625,797.8021850585938,794.5787353515625,801.025634765625
348,796.5933837890625,794.1758422851562,793.3699340820312,801.4285888671875
349,805.054931640625,799.010986328125,796.996337890625,805.054931640625
350,811.5018310546875,797.8021850585938,802.2344360351562,808.6813354492188
351,806.6666870117188,801.025634765625,801.4285888671875,809.4871826171875
352,803.4432373046875,802.2344360351562,799.010986328125,807.069580078125
353,803.4432373046875,802.2344360351562,800.2197875976562,815.5311279296875
354,804.2490844726562,805.054931640625,804.2490844726562,817.1428833007812
355,800.2197875976562,803.4432373046875,802.2344360351562,804.2490844726562
356,792.1611938476562,800.6226806640625,800.2197875976562,800.6226806640625
357,793.7728881835938,796.1904907226562,802.2344360351562,803.8461303710938
358,804.6520385742188,796.1904907226562,801.8314819335938,806.2637329101562
359,804.2490844726562,801.025634765625,802.6373901367188,801.8314819335938
360,792.5640869140625,800.2197875976562,803.040283203125,804.2490844726562
361,790.1465454101562,794.5787353515625,800.6226806640625,803.8461303710938
362,784.908447265625,794.981689453125,798.2051391601562,784.908447265625
363,786.923095703125,795.7875366210938,794.981689453125,779.2673950195312
364,793.3699340820312,792.1611938476562,791.7582397460938,790.1465454101562
365,792.967041015625,794.5787353515625,791.7582397460938,801.4285888671875
366,786.1171875,790.5494384765625,790.1465454101562,797.8021850585938
367,787.3259887695312,791.7582397460938,790.1465454101562,794.1758422851562
368,799.010986328125,796.1904907226562,792.1611938476562,804.2490844726562
369,800.6226806640625,794.981689453125,792.967041015625,812.7106323242188
370,809.4871826171875,794.5787353515625,792.1611938476562,812.3076782226562
371,807.87548828125,792.967041015625,794.5787353515625,807.069580078125
372,803.040283203125,789.7435913085938,795.7875366210938,803.4432373046875
373,808.2783813476562,787.7289428710938,795.7875366210938,802.2344360351562
374,802.6373901367188,788.1318969726562,795.3846435546875,800.6226806640625
375,799.010986328125,792.5640869140625,794.1758422851562,798.2051391601562
376,794.1758422851562,794.5787353515625,793.3699340820312,805.8607788085938
377,789.7435913085938,795.3846435546875,794.1758422851562,809.89013671875
378,795.3846435546875,796.996337890625,795.7875366210938,801.4285888671875
379,797.8021850585938,799.4139404296875,794.5787353515625,794.1758422851562
380,796.5933837890625,799.8168334960938,796.996337890625,795.3846435546875
381,797.3992919921875,800.2197875976562,800.2197875976562,793.3699340820312
382,798.2051391601562,803.8461303710938,799.010986328125,793.7728881835938
383,803.4432373046875,803.040283203125,798.6080322265625,798.6080322265625
384,803.4432373046875,802.2344360351562,801.025634765625,798.6080322265625
385,797.8021850585938,803.4432373046875,803.8461303710938,806.2637329101562
386,793.7728881835938,799.8168334960938,803.8461303710938,801.8314819335938
387,787.3259887695312,795.7875366210938,797.3992919921875,780.0732421875
388,779.6703491210938,789.7435913085938,796.1904907226562,784.5054931640625
389,780.879150390625,790.1465454101562,797.8021850585938,794.1758422851562
390,782.4908447265625,790.5494384765625,797.3992919921875,787.7289428710938
391,782.087890625,786.923095703125,801.8314819335938,788.937744140625
392,783.6996459960938,788.1318969726562,799.4139404296875,790.952392578125
393,782.4908447265625,792.1611938476562,796.996337890625,787.7289428710938
394,779.6703491210938,794.981689453125,799.010986328125,785.3113403320312
395,780.0732421875,792.1611938476562,791.7582397460938,780.879150390625
396,778.05859375,788.1318969726562,788.937744140625,778.05859375
397,779.6703491210938,793.7728881835938,791.3552856445312,778.05859375
398,782.087890625,792.967041015625,794.5787353515625,778.05859375
399,780.0732421875,786.923095703125,793.7728881835938,779.2673950195312
400,788.5347900390625,786.923095703125,794.5787353515625,787.3259887695312
401,794.1758422851562,784.1025390625,797.3992919921875,796.996337890625
402,780.0732421875,781.6849975585938,796.996337890625,794.1758422851562
403,767.1795043945312,785.3113403320312,793.7728881835938,777.2527465820312
404,774.029296875,786.923095703125,792.5640869140625,776.0439453125
405,781.2820434570312,786.1171875,788.5347900390625,776.0439453125
406,777.6557006835938,787.7289428710938,786.5201416015625,772.0146484375
407,785.3113403320312,789.3406372070312,787.7289428710938,771.6116943359375
408,788.1318969726562,790.5494384765625,788.937744140625,779.2673950195312
409,784.908447265625,791.3552856445312,793.3699340820312,787.7289428710938
410,785.7142944335938,794.981689453125,792.1611938476562,786.5201416015625
411,786.5201416015625,795.7875366210938,790.5494384765625,790.952392578125
412,793.7728881835938,796.996337890625,791.7582397460938,792.967041015625
413,792.967041015625,793.7728881835938,795.3846435546875,784.908447265625
414,786.923095703125,788.937744140625,799.4139404296875,790.1465454101562
415,778.05859375,789.7435913085938,796.996337890625,789.3406372070312
416,782.4908447265625,792.5640869140625,795.3846435546875,787.3259887695312
417,789.3406372070312,794.981689453125,798.6080322265625,794.5787353515625
418,786.1171875,794.1758422851562,800.2197875976562,790.952392578125
419,787.7289428710938,796.1904907226562,796.1904907226562,787.7289428710938
420,791.3552856445312,799.010986328125,793.7728881835938,785.3113403320312
421,789.7435913085938,798.6080322265625,795.7875366210938,786.923095703125
422,785.3113403320312,794.5787353515625,794.981689453125,792.5640869140625
423,790.952392578125,793.3699340820312,794.5787353515625,792.1611938476562
424,793.3699340820312,794.1758422851562,793.7728881835938,786.5201416015625
425,790.1465454101562,791.3552856445312,797.3992919921875,790.1465454101562
426,791.7582397460938,792.1611938476562,802.2344360351562,801.025634765625
427,794.981689453125,799.8168334960938,799.4139404296875,803.4432373046875
428,795.7875366210938,801.4285888671875,797.8021850585938,797.3992919921875
429,792.1611938476562,796.5933837890625,799.8168334960938,794.981689453125
430,792.5640869140625,792.967041015625,800.2197875976562,795.7875366210938
431,788.937744140625,790.5494384765625,796.5933837890625,796.996337890625
432,785.7142944335938,792.1611938476562,793.3699340820312,791.3552856445312
433,783.6996459960938,790.5494384765625,792.1611938476562,783.6996459960938
434,784.908447265625,794.5787353515625,791.7582397460938,784.1025390625
435,791.3552856445312,799.4139404296875,796.1904907226562,791.3552856445312
436,790.1465454101562,800.2197875976562,801.025634765625,798.6080322265625
437,779.2673950195312,794.1758422851562,799.8168334960938,788.5347900390625
438,781.6849975585938,791.7582397460938,798.2051391601562,790.5494384765625
439,791.3552856445312,796.996337890625,801.025634765625,793.3699340820312
440,794.5787353515625,798.6080322265625,801.8314819335938,787.3259887695312
441,794.5787353515625,795.7875366210938,799.4139404296875,799.8168334960938
442,790.5494384765625,795.7875366210938,798.6080322265625,798.6080322265625
443,788.5347900390625,800.2197875976562,799.010986328125,793.3699340820312
444,792.5640869140625,801.4285888671875,797.8021850585938,800.2197875976562
445,796.5933837890625,801.025634765625,799.8168334960938,799.4139404296875
446,796.1904907226562,799.010986328125,800.6226806640625,797.8021850585938
447,799.010986328125,794.981689453125,799.010986328125,790.952392578125
448,791.7582397460938,793.3699340820312,796.996337890625,780.879150390625
449,790.5494384765625,795.7875366210938,795.7875366210938,788.937744140625
450,791.3552856445312,796.996337890625,797.8021850585938,797.3992919921875
451,782.087890625,792.5640869140625,791.7582397460938,786.5201416015625
452,786.923095703125,792.5640869140625,788.937744140625,785.3113403320312
453,786.5201416015625,795.3846435546875,792.5640869140625,783.6996459960938
454,779.6703491210938,795.7875366210938,789.7435913085938,776.8497924804688
455,784.908447265625,793.7728881835938,793.3699340820312,777.6557006835938
456,784.1025390625,792.967041015625,792.1611938476562,782.087890625
457,779.6703491210938,791.3552856445312,786.1171875,782.893798828125
458,782.087890625,786.923095703125,790.1465454101562,787.3259887695312
459,776.0439453125,786.5201416015625,791.7582397460938,784.5054931640625
460,773.6264038085938,786.1171875,792.967041015625,782.087890625
461,778.8644409179688,786.923095703125,799.4139404296875,796.1904907226562
462,779.2673950195312,790.1465454101562,802.6373901367188,801.025634765625
463,779.2673950195312,788.5347900390625,796.996337890625,792.967041015625
464,777.2527465820312,782.4908447265625,796.996337890625,789.3406372070312
465,777.2527465820312,784.1025390625,800.2197875976562,793.3699340820312
466,776.4468994140625,789.3406372070312,801.4285888671875,796.996337890625
467,775.6410522460938,793.3699340820312,805.4578857421875,796.5933837890625
468,776.4468994140625,790.952392578125,803.4432373046875,800.2197875976562
469,781.2820434570312,786.923095703125,801.8314819335938,799.8168334960938
470,788.937744140625,789.3406372070312,804.6520385742188,796.5933837890625
471,788.5347900390625,793.7728881835938,804.2490844726562,797.8021850585938
472,789.7435913085938,796.5933837890625,802.6373901367188,797.3992919921875
473,788.1318969726562,797.8021850585938,800.6226806640625,788.937744140625
474,784.5054931640625,799.4139404296875,798.6080322265625,777.6557006835938
475,793.3699340820312,801.025634765625,801.4285888671875,780.4761962890625
476,800.2197875976562,801.025634765625,802.2344360351562,782.4908447265625
477,801.4285888671875,797.3992919921875,802.2344360351562,784.1025390625
478,809.084228515625,798.6080322265625,803.040283203125,789.3406372070312
479,809.084228515625,801.8314819335938,797.3992919921875,787.3259887695312
480,803.8461303710938,803.4432373046875,796.996337890625,786.1171875
481,806.6666870117188,796.996337890625,798.2051391601562,786.1171875
482,803.040283203125,789.7435913085938,796.5933837890625,784.5054931640625
483,786.1171875,789.7435913085938,797.3992919921875,781.2820434570312
484,775.2380981445312,786.1171875,795.3846435546875,783.6996459960938
485,778.05859375,788.937744140625,795.3846435546875,788.937744140625
486,786.1171875,788.937744140625,794.5787353515625,789.7435913085938
487,791.3552856445312,785.3113403320312,792.1611938476562,792.5640869140625
488,784.1025390625,783.6996459960938,794.1758422851562,793.3699340820312
489,775.2380981445312,779.6703491210938,790.5494384765625,786.1171875
490,769.5970458984375,780.4761962890625,787.7289428710938,778.8644409179688
491,767.1795043945312,784.908447265625,794.1758422851562,784.908447265625
492,765.970703125,782.4908447265625,792.967041015625,788.937744140625
493,768.7911987304688,782.4908447265625,792.967041015625,788.1318969726562
494,776.8497924804688,783.6996459960938,794.981689453125,786.923095703125
495,778.4615478515625,784.1025390625,792.967041015625,786.5201416015625
496,777.2527465820312,784.1025390625,790.1465454101562,788.5347900390625
497,778.05859375,785.7142944335938,784.1025390625,779.6703491210938
498,783.2966918945312,790.5494384765625,784.5054931640625,772.8204956054688
499,790.1465454101562,794.1758422851562,788.937744140625,775.2380981445312
500,794.1758422851562,798.2051391601562,785.3113403320312,775.6410522460938
501,792.1611938476562,797.8021850585938,787.3259887695312,780.4761962890625
502,799.4139404296875,794.981689453125,790.1465454101562,788.1318969726562
503,802.2344360351562,795.7875366210938,786.923095703125,786.1171875
504,799.010986328125,800.6226806640625,788.1318969726562,783.6996459960938
505,796.5933837890625,800.6226806640625,792.5640869140625,783.6996459960938
506,790.952392578125,794.1758422851562,792.967041015625,785.7142944335938
507,798.2051391601562,796.996337890625,790.952392578125,793.7728881835938
508,802.6373901367188,799.4139404296875,790.952392578125,797.8021850585938
509,797.3992919921875,797.3992919921875,790.1465454101562,793.7728881835938
510,785.3113403320312,795.3846435546875,789.3406372070312,789.3406372070312
511,785.3113403320312,792.1611938476562,791.7582397460938,796.5933837890625
512,788.1318969726562,788.1318969726562,790.1465454101562,796.996337890625
513,784.908447265625,786.5201416015625,791.3552856445312,791.3552856445312
514,788.5347900390625,790.5494384765625,789.3406372070312,791.7582397460938
515,784.1025390625,791.3552856445312,784.908447265625,792.5640869140625
516,778.4615478515625,788.5347900390625,788.5347900390625,799.4139404296875
517,776.0439453125,786.5201416015625,788.1318969726562,796.5933837890625
518,779.6703491210938,782.4908447265625,790.1465454101562,798.2051391601562
519,776.0439453125,782.4908447265625,792.1611938476562,801.025634765625
520,772.0146484375,786.5201416015625,794.1758422851562,795.3846435546875
521,776.4468994140625,790.1465454101562,795.7875366210938,790.5494384765625
522,780.879150390625,784.5054931640625,794.1758422851562,787.3259887695312
523,782.4908447265625,781.2820434570312,792.967041015625,786.923095703125
524,781.6849975585938,793.3699340820312,792.967041015625,783.2966918945312
525,783.2966918945312,798.6080322265625,795.7875366210938,786.923095703125
526,786.923095703125,796.996337890625,795.3846435546875,791.3552856445312
527,793.7728881835938,792.967041015625,790.952392578125,787.3259887695312
528,795.7875366210938,790.5494384765625,788.1318969726562,786.923095703125
529,797.3992919921875,794.1758422851562,789.3406372070312,787.3259887695312
530,801.025634765625,794.981689453125,789.3406372070312,789.3406372070312
531,799.8168334960938,793.7728881835938,785.7142944335938,793.7728881835938
532,797.3992919921875,796.5933837890625,786.1171875,790.952392578125
533,795.7875366210938,794.1758422851562,787.7289428710938,788.937744140625
534,797.8021850585938,794.981689453125,790.952392578125,798.6080322265625
535,785.3113403320312,795.3846435546875,790.952392578125,788.1318969726562
536,782.087890625,793.7728881835938,792.5640869140625,781.6849975585938
537,785.7142944335938,790.5494384765625,791.3552856445312,790.5494384765625
538,774.4322509765625,788.937744140625,787.3259887695312,783.2966918945312
539,773.6264038085938,789.7435913085938,790.5494384765625,780.0732421875
540,776.4468994140625,792.5640869140625,796.1904907226562,783.2966918945312
541,765.970703125,790.1465454101562,796.996337890625,778.4615478515625
542,759.9267578125,790.1465454101562,795.3846435546875,781.6849975585938
543,766.7765502929688,795.3846435546875,799.8168334960938,789.3406372070312
544,776.0439453125,797.8021850585938,801.8314819335938,782.893798828125
545,782.893798828125,795.7875366210938,796.1904907226562,782.4908447265625
546,786.1171875,792.1611938476562,796.5933837890625,789.3406372070312
547,775.2380981445312,793.7728881835938,796.996337890625,780.0732421875
548,771.6116943359375,792.5640869140625,792.967041015625,778.05859375
549,782.087890625,791.7582397460938,791.7582397460938,790.1465454101562
550,782.4908447265625,792.1611938476562,791.3552856445312,788.5347900390625
551,784.5054931640625,794.1758422851562,795.3846435546875,783.6996459960938
552,786.1171875,798.6080322265625,798.2051391601562,789.7435913085938
553,790.952392578125,799.8168334960938,796.996337890625,795.7875366210938
554,796.5933837890625,800.6226806640625,794.1758422851562,788.937744140625
555,796.5933837890625,798.2051391601562,791.7582397460938,783.2966918945312
556,795.3846435546875,792.967041015625,791.3552856445312,783.2966918945312
557,796.1904907226562,792.1611938476562,794.1758422851562,788.937744140625
558,795.7875366210938,796.5933837890625,798.6080322265625,794.1758422851562
559,796.1904907226562,797.8021850585938,796.1904907226562,794.1758422851562
560,792.1611938476562,795.3846435546875,792.1611938476562,792.967041015625
561,784.1025390625,793.3699340820312,790.1465454101562,790.1465454101562
562,783.2966918945312,795.7875366210938,793.7728881835938,794.981689453125
563,782.893798828125,797.3992919921875,797.3992919921875,796.1904907226562
564,777.6557006835938,796.1904907226562,794.981689453125,795.3846435546875
565,787.7289428710938,800.2197875976562,793.7728881835938,802.2344360351562
566,789.7435913085938,797.8021850585938,795.7875366210938,803.8461303710938
567,780.4761962890625,798.6080322265625,794.5787353515625,793.7728881835938
568,784.5054931640625,796.1904907226562,792.1611938476562,787.3259887695312
569,785.7142944335938,786.923095703125,789.3406372070312,786.1171875
570,787.3259887695312,787.3259887695312,785.7142944335938,786.923095703125
571,789.3406372070312,787.3259887695312,790.5494384765625,794.981689453125
572,791.3552856445312,787.7289428710938,796.5933837890625,796.996337890625
573,795.7875366210938,789.3406372070312,797.3992919921875,784.908447265625
574,800.2197875976562,794.1758422851562,798.2051391601562,783.2966918945312
575,806.6666870117188,796.1904907226562,797.3992919921875,784.908447265625
576,802.2344360351562,792.1611938476562,791.7582397460938,789.7435913085938
577,795.7875366210938,793.7728881835938,793.7728881835938,798.6080322265625
578,794.981689453125,798.6080322265625,797.8021850585938,788.1318969726562
579,802.6373901367188,799.8168334960938,794.5787353515625,780.4761962890625
580,806.2637329101562,800.6226806640625,792.967041015625,791.7582397460938
581,797.3992919921875,803.8461303710938,797.3992919921875,795.7875366210938
582,799.4139404296875,803.4432373046875,800.6226806640625,792.1611938476562
583,800.6226806640625,799.010986328125,801.8314819335938,786.5201416015625
584,790.1465454101562,800.6226806640625,801.8314819335938,784.5054931640625
585,795.7875366210938,803.4432373046875,803.8461303710938,790.1465454101562
586,803.8461303710938,800.6226806640625,804.2490844726562,789.3406372070312
587,805.054931640625,798.2051391601562,801.8314819335938,785.3113403320312
588,793.7728881835938,796.1904907226562,800.2197875976562,783.6996459960938
589,792.1611938476562,796.1904907226562,801.4285888671875,792.1611938476562
590,793.7728881835938,793.3699340820312,799.8168334960938,792.967041015625
591,782.4908447265625,790.952392578125,796.996337890625,792.1611938476562
592,776.8497924804688,792.1611938476562,795.3846435546875,792.5640869140625
593,778.8644409179688,790.952392578125,796.5933837890625,792.5640869140625
594,779.6703491210938,790.5494384765625,796.5933837890625,796.996337890625
595,784.1025390625,794.1758422851562,792.1611938476562,799.8168334960938
596,784.908447265625,798.2051391601562,796.5933837890625,798.6080322265625
597,786.923095703125,798.2051391601562,797.8021850585938,796.5933837890625
598,790.952392578125,797.3992919921875,790.5494384765625,801.4285888671875
599,786.5201416015625,793.3699340820312,791.3552856445312,809.89013671875
600,786.1171875,792.1611938476562,791.3552856445312,812.3076782226562
601,792.5640869140625,792.1611938476562,793.7728881835938,805.4578857421875
602,801.025634765625,791.7582397460938,791.7582397460938,801.8314819335938
603,795.7875366210938,799.4139404296875,789.7435913085938,808.2783813476562
604,783.2966918945312,804.6520385742188,793.7728881835938,802.2344360351562
605,786.923095703125,804.6520385742188,788.937744140625,788.1318969726562
606,791.7582397460938,797.8021850585938,784.5054931640625,784.1025390625
607,788.937744140625,796.996337890625,787.3259887695312,779.6703491210938
608,787.7289428710938,803.040283203125,784.1025390625,780.0732421875
609,789.3406372070312,802.2344360351562,782.893798828125,779.6703491210938
610,790.952392578125,799.010986328125,788.1318969726562,787.3259887695312
611,791.7582397460938,801.8314819335938,784.5054931640625,785.3113403320312
612,794.5787353515625,805.4578857421875,780.4761962890625,777.2527465820312
613,788.1318969726562,799.010986328125,780.0732421875,772.4176025390625
614,784.908447265625,791.7582397460938,780.0732421875,773.6264038085938
615,789.3406372070312,793.7728881835938,784.908447265625,782.4908447265625
616,787.7289428710938,798.2051391601562,788.5347900390625,778.8644409179688
617,783.6996459960938,798.6080322265625,789.3406372070312,776.0439453125
618,779.6703491210938,795.7875366210938,786.923095703125,781.6849975585938
619,774.8351440429688,795.7875366210938,785.7142944335938,783.6996459960938
620,773.6264038085938,790.952392578125,791.7582397460938,783.2966918945312
621,778.4615478515625,787.7289428710938,796.5933837890625,783.6996459960938
622,776.0439453125,790.1465454101562,798.6080322265625,782.087890625
623,782.4908447265625,793.7728881835938,795.7875366210938,788.1318969726562
624,783.2966918945312,792.1611938476562,794.1758422851562,794.5787353515625
625,777.2527465820312,792.1611938476562,796.1904907226562,793.3699340820312
626,780.4761962890625,796.1904907226562,797.8021850585938,801.025634765625
627,776.4468994140625,794.1758422851562,799.010986328125,796.996337890625
628,783.6996459960938,791.3552856445312,799.010986328125,793.7728881835938
629,793.7728881835938,794.1758422851562,799.8168334960938,799.010986328125
630,792.5640869140625,797.3992919921875,798.2051391601562,797.8021850585938
631,794.1758422851562,797.8021850585938,796.996337890625,795.7875366210938
632,801.8314819335938,799.4139404296875,799.4139404296875,803.040283203125
633,800.6226806640625,799.8168334960938,797.3992919921875,796.996337890625
634,789.7435913085938,799.8168334960938,796.996337890625,782.893798828125
635,794.1758422851562,799.4139404296875,794.1758422851562,788.937744140625
636,800.2197875976562,799.010986328125,793.7728881835938,786.923095703125
637,791.7582397460938,798.2051391601562,796.1904907226562,786.1171875
638,782.087890625,793.3699340820312,797.3992919921875,788.937744140625
639,781.2820434570312,792.1611938476562,797.3992919921875,792.967041015625
640,787.3259887695312,796.996337890625,793.7728881835938,794.1758422851562
641,793.3699340820312,796.1904907226562,794.1758422851562,795.3846435546875
642,792.1611938476562,798.6080322265625,795.7875366210938,795.3846435546875
643,788.937744140625,801.4285888671875,796.1904907226562,788.1318969726562
644,786.1171875,795.7875366210938,791.3552856445312,781.6849975585938
645,783.2966918945312,790.952392578125,790.952392578125,778.4615478515625
646,784.1025390625,793.7728881835938,791.3552856445312,780.879150390625
647,779.6703491210938,793.3699340820312,790.952392578125,783.2966918945312
648,783.2966918945312,788.1318969726562,795.7875366210938,785.3113403320312
649,786.923095703125,785.7142944335938,799.010986328125,785.3113403320312
650,783.2966918945312,789.3406372070312,802.2344360351562,790.1465454101562
651,782.4908447265625,796.5933837890625,804.6520385742188,799.4139404296875
652,780.4761962890625,795.7875366210938,805.054931640625,797.3992919921875
653,785.7142944335938,794.981689453125,799.4139404296875,806.6666870117188
654,793.3699340820312,792.5640869140625,794.981689453125,808.6813354492188
655,787.3259887695312,792.1611938476562,800.6226806640625,792.967041015625
656,789.7435913085938,790.952392578125,803.8461303710938,794.1758422851562
657,794.981689453125,790.1465454101562,803.040283203125,800.2197875976562
658,799.8168334960938,797.8021850585938,803.040283203125,795.3846435546875
659,803.040283203125,800.2197875976562,801.025634765625,792.5640869140625
660,798.2051391601562,794.981689453125,793.7728881835938,788.937744140625
661,792.967041015625,796.5933837890625,793.7728881835938,781.2820434570312
662,796.1904907226562,801.025634765625,796.996337890625,784.1025390625
663,796.1904907226562,798.2051391601562,796.1904907226562,783.6996459960938
664,788.937744140625,798.6080322265625,794.1758422851562,786.5201416015625
665,790.5494384765625,801.8314819335938,792.5640869140625,795.3846435546875
666,793.3699340820312,800.6226806640625,789.7435913085938,792.967041015625
667,798.6080322265625,797.3992919921875,790.1465454101562,784.1025390625
668,801.8314819335938,799.010986328125,792.5640869140625,784.908447265625
669,792.967041015625,797.3992919921875,790.5494384765625,790.5494384765625
670,792.967041015625,793.7728881835938,791.7582397460938,791.7582397460938
671,798.6080322265625,792.1611938476562,796.996337890625,794.1758422851562
672,800.6226806640625,788.5347900390625,795.7875366210938,794.981689453125
673,790.5494384765625,789.3406372070312,796.996337890625,790.1465454101562
674,785.7142944335938,790.5494384765625,796.996337890625,786.923095703125
675,790.5494384765625,792.1611938476562,795.7875366210938,791.7582397460938
676,789.3406372070312,794.981689453125,799.010986328125,803.4432373046875
677,796.1904907226562,796.1904907226562,799.4139404296875,804.2490844726562
678,802.2344360351562,794.5787353515625,804.2490844726562,799.4139404296875
679,800.2197875976562,792.967041015625,805.054931640625,798.2051391601562
680,797.3992919921875,789.7435913085938,803.8461303710938,791.3552856445312
681,793.7728881835938,787.7289428710938,803.8461303710938,794.1758422851562
682,787.7289428710938,794.5787353515625,799.010986328125,793.3699340820312
683,782.087890625,796.996337890625,797.3992919921875,789.7435913085938
684,779.6703491210938,790.952392578125,794.1758422851562,786.5201416015625
685,780.879150390625,792.5640869140625,796.1904907226562,785.3113403320312
686,784.1025390625,796.5933837890625,798.6080322265625,785.3113403320312
687,784.1025390625,792.1611938476562,794.1758422851562,777.6557006835938
688,784.1025390625,789.7435913085938,791.7582397460938,780.4761962890625
689,786.5201416015625,797.3992919921875,797.3992919921875,781.6849975585938
690,792.5640869140625,800.6226806640625,802.2344360351562,783.6996459960938
691,800.2197875976562,797.3992919921875,795.7875366210938,784.5054931640625
692,794.981689453125,802.6373901367188,791.7582397460938,786.1171875
693,793.3699340820312,805.054931640625,796.1904907226562,788.1318969726562
694,788.937744140625,798.6080322265625,798.6080322265625,782.4908447265625
695,779.6703491210938,796.5933837890625,791.3552856445312,779.2673950195312
696,780.879150390625,797.3992919921875,791.7582397460938,788.5347900390625
697,787.7289428710938,800.2197875976562,791.3552856445312,797.8021850585938
698,789.7435913085938,799.010986328125,792.1611938476562,794.1758422851562
699,784.5054931640625,792.1611938476562,795.7875366210938,795.3846435546875
700,786.5201416015625,794.981689453125,793.7728881835938,796.5933837890625
701,787.7289428710938,792.967041015625,794.5787353515625,790.952392578125
702,792.967041015625,793.7728881835938,797.3992919921875,791.7582397460938
703,795.3846435546875,797.8021850585938,795.3846435546875,788.937744140625
704,788.937744140625,798.2051391601562,792.967041015625,786.1171875
705,789.3406372070312,801.4285888671875,795.3846435546875,790.1465454101562
706,794.981689453125,799.8168334960938,799.010986328125,792.967041015625
707,795.3846435546875,800.2197875976562,798.6080322265625,789.3406372070312
708,791.7582397460938,799.8168334960938,792.1611938476562,787.7289428710938
709,785.7142944335938,795.3846435546875,790.952392578125,788.1318969726562
710,785.3113403320312,793.3699340820312,795.7875366210938,791.7582397460938
711,789.3406372070312,792.5640869140625,799.4139404296875,799.4139404296875
712,788.1318969726562,794.5787353515625,804.6520385742188,796.5933837890625
713,789.3406372070312,793.7728881835938,804.2490844726562,790.1465454101562
714,794.5787353515625,790.5494384765625,799.8168334960938,782.893798828125
715,795.7875366210938,792.5640869140625,801.8314819335938,783.2966918945312
716,788.5347900390625,792.1611938476562,804.2490844726562,788.937744140625
717,793.7728881835938,788.5347900390625,804.2490844726562,794.5787353515625
718,789.3406372070312,791.7582397460938,803.040283203125,788.5347900390625
719,782.087890625,795.3846435546875,800.6226806640625,779.2673950195312
720,782.087890625,795.3846435546875,798.6080322265625,777.2527465820312
721,774.8351440429688,790.1465454101562,794.981689453125,777.6557006835938
722,780.4761962890625,790.5494384765625,796.5933837890625,784.5054931640625
723,794.5787353515625,795.7875366210938,801.8314819335938,786.923095703125
724,796.1904907226562,795.7875366210938,800.6226806640625,787.7289428710938
725,789.7435913085938,794.5787353515625,797.3992919921875,789.3406372070312
726,787.7289428710938,797.8021850585938,792.5640869140625,786.1171875
727,784.908447265625,799.4139404296875,794.1758422851562,788.1318969726562
728,789.3406372070312,796.5933837890625,799.4139404296875,796.1904907226562
729,792.967041015625,795.3846435546875,798.6080322265625,791.7582397460938
730,792.967041015625,794.1758422851562,796.5933837890625,792.5640869140625
731,786.923095703125,792.967041015625,799.8168334960938,794.1758422851562
732,785.3113403320312,793.3699340820312,800.2197875976562,788.937744140625
733,793.3699340820312,791.3552856445312,800.2197875976562,787.3259887695312
734,799.4139404296875,795.3846435546875,800.6226806640625,784.5054931640625
735,790.952392578125,799.8168334960938,797.8021850585938,784.908447265625
736,787.7289428710938,798.6080322265625,802.2344360351562,788.5347900390625
737,795.7875366210938,799.4139404296875,804.6520385742188,796.996337890625
738,793.7728881835938,799.010986328125,805.054931640625,815.1282348632812
739,790.1465454101562,797.8021850585938,806.6666870117188,809.084228515625
740,791.7582397460938,794.981689453125,802.2344360351562,796.1904907226562
741,794.981689453125,795.7875366210938,803.8461303710938,799.4139404296875
742,802.6373901367188,799.8168334960938,806.6666870117188,804.6520385742188
743,801.4285888671875,798.2051391601562,802.2344360351562,806.6666870117188
744,796.5933837890625,792.967041015625,799.010986328125,801.4285888671875
745,803.8461303710938,792.1611938476562,796.1904907226562,799.8168334960938
746,794.1758422851562,791.7582397460938,795.7875366210938,800.2197875976562
747,778.8644409179688,794.1758422851562,794.5787353515625,798.6080322265625
748,790.1465454101562,796.996337890625,798.6080322265625,803.4432373046875
749,801.8314819335938,794.5787353515625,799.4139404296875,813.91943359375
750,798.6080322265625,789.7435913085938,797.8021850585938,803.8461303710938
751,798.6080322265625,792.1611938476562,799.4139404296875,785.7142944335938
752,796.5933837890625,794.5787353515625,799.010986328125,790.1465454101562
753,794.1758422851562,790.952392578125,799.8168334960938,794.981689453125
754,797.3992919921875,794.1758422851562,798.6080322265625,796.1904907226562
755,798.2051391601562,792.5640869140625,791.7582397460938,794.1758422851562
756,789.3406372070312,786.923095703125,787.7289428710938,793.3699340820312
757,784.1025390625,789.7435913085938,793.3699340820312,806.6666870117188
758,787.7289428710938,790.952392578125,799.8168334960938,802.2344360351562
759,784.5054931640625,784.908447265625,798.2051391601562,788.937744140625
760,779.2673950195312,786.1171875,792.967041015625,791.3552856445312
761,781.2820434570312,789.3406372070312,796.5933837890625,796.996337890625
762,780.0732421875,787.3259887695312,794.981689453125,790.952392578125
763,781.2820434570312,785.7142944335938,793.3699340820312,790.952392578125
764,788.937744140625,793.7728881835938,798.6080322265625,793.7728881835938
765,795.3846435546875,800.2197875976562,797.8021850585938,793.7728881835938
766,795.7875366210938,798.6080322265625,795.3846435546875,794.1758422851562
767,790.5494384765625,796.996337890625,790.5494384765625,789.3406372070312
768,787.7289428710938,797.3992919921875,788.937744140625,791.3552856445312
769,785.3113403320312,795.3846435546875,787.3259887695312,790.952392578125
770,790.5494384765625,795.7875366210938,787.7289428710938,787.7289428710938
771,790.1465454101562,796.996337890625,790.952392578125,787.3259887695312
772,788.5347900390625,797.8021850585938,790.1465454101562,793.3699340820312
773,792.967041015625,801.4285888671875,788.5347900390625,791.3552856445312
774,787.3259887695312,796.1904907226562,791.3552856445312,783.2966918945312
775,784.908447265625,790.952392578125,796.1904907226562,782.893798828125
776,782.087890625,795.7875366210938,794.5787353515625,784.908447265625
777,785.3113403320312,796.1904907226562,794.5787353515625,790.1465454101562
778,788.5347900390625,794.5787353515625,791.3552856445312,787.3259887695312
779,784.908447265625,799.4139404296875,787.7289428710938,784.5054931640625
780,788.5347900390625,802.2344360351562,790.5494384765625,786.5201416015625
781,790.1465454101562,804.2490844726562,796.1904907226562,788.937744140625
782,786.923095703125,802.6373901367188,803.4432373046875,790.952392578125
783,785.3113403320312,796.996337890625,804.2490844726562,786.923095703125
784,788.5347900390625,800.2197875976562,798.6080322265625,783.6996459960938
785,791.3552856445312,805.054931640625,795.7875366210938,779.2673950195312
786,786.1171875,801.025634765625,795.7875366210938,772.8204956054688
787,780.879150390625,797.3992919921875,793.3699340820312,772.0146484375
788,776.0439453125,796.5933837890625,790.5494384765625,770.8058471679688
789,782.4908447265625,793.3699340820312,789.3406372070312,770.0
790,786.923095703125,790.1465454101562,788.5347900390625,771.6116943359375
791,782.087890625,791.3552856445312,786.5201416015625,774.029296875
792,786.923095703125,796.5933837890625,787.7289428710938,788.1318969726562
793,788.937744140625,794.981689453125,789.3406372070312,786.923095703125
794,791.3552856445312,791.3552856445312,791.3552856445312,783.6996459960938
795,795.3846435546875,787.7289428710938,790.952392578125,792.5640869140625
796,789.3406372070312,791.7582397460938,791.7582397460938,780.4761962890625
797,785.3113403320312,799.4139404296875,793.7728881835938,776.8497924804688
798,785.7142944335938,794.5787353515625,796.996337890625,800.2197875976562
799,787.7289428710938,796.1904907226562,800.2197875976562,799.4139404296875
800,787.3259887695312,799.4139404296875,797.3992919921875,782.4908447265625
801,784.5054931640625,794.5787353515625,792.5640869140625,778.8644409179688
802,782.087890625,792.1611938476562,788.5347900390625,785.7142944335938
803,780.0732421875,795.3846435546875,787.7289428710938,789.3406372070312
804,786.1171875,796.996337890625,788.937744140625,791.7582397460938
805,791.3552856445312,798.2051391601562,792.1611938476562,798.6080322265625
806,793.7728881835938,794.5787353515625,795.7875366210938,808.6813354492188
807,791.3552856445312,790.952392578125,796.996337890625,803.8461303710938
808,787.7289428710938,795.3846435546875,798.6080322265625,798.6080322265625
809,794.981689453125,796.1904907226562,795.7875366210938,798.2051391601562
810,795.7875366210938,792.967041015625,795.7875366210938,800.2197875976562
811,790.1465454101562,791.3552856445312,799.8168334960938,806.6666870117188
812,785.3113403320312,792.5640869140625,797.3992919921875,796.5933837890625
813,791.3552856445312,796.1904907226562,796.996337890625,791.3552856445312
814,796.1904907226562,796.5933837890625,801.4285888671875,793.7728881835938
815,795.7875366210938,795.3846435546875,799.8168334960938,797.8021850585938
816,796.1904907226562,798.2051391601562,792.967041015625,796.5933837890625
817,795.3846435546875,801.025634765625,791.7582397460938,784.5054931640625
818,798.2051391601562,799.4139404296875,792.1611938476562,788.937744140625
819,796.1904907226562,796.1904907226562,794.981689453125,798.6080322265625
820,799.010986328125,799.010986328125,800.6226806640625,800.6226806640625
821,796.1904907226562,797.3992919921875,801.025634765625,792.967041015625
822,792.1611938476562,792.5640869140625,799.010986328125,790.1465454101562
823,790.952392578125,791.7582397460938,796.996337890625,790.952392578125
824,790.1465454101562,794.1758422851562,796.5933837890625,786.1171875
825,798.2051391601562,795.7875366210938,794.981689453125,793.7728881835938
826,801.025634765625,793.3699340820312,794.981689453125,790.5494384765625
827,791.7582397460938,791.3552856445312,798.2051391601562,786.5201416015625
828,781.6849975585938,790.5494384765625,798.6080322265625,788.937744140625
829,785.3113403320312,788.5347900390625,798.2051391601562,786.923095703125
830,792.967041015625,789.7435913085938,799.010986328125,786.1171875
831,799.4139404296875,794.5787353515625,798.6080322265625,789.7435913085938
832,793.3699340820312,794.5787353515625,794.1758422851562,794.5787353515625
833,784.5054931640625,793.7728881835938,792.5640869140625,797.3992919921875
834,786.5201416015625,791.3552856445312,789.7435913085938,794.5787353515625
835,790.5494384765625,794.1758422851562,788.937744140625,788.5347900390625
836,797.8021850585938,794.981689453125,786.923095703125,787.7289428710938
837,799.4139404296875,792.967041015625,786.923095703125,788.1318969726562
838,796.1904907226562,795.7875366210938,791.7582397460938,788.1318969726562
839,789.7435913085938,794.1758422851562,790.952392578125,786.1171875
840,785.7142944335938,794.981689453125,788.937744140625,790.1465454101562
841,792.967041015625,797.3992919921875,789.7435913085938,792.967041015625
842,802.2344360351562,798.6080322265625,790.952392578125,788.1318969726562
843,798.2051391601562,799.010986328125,791.3552856445312,787.7289428710938
844,795.7875366210938,798.6080322265625,789.7435913085938,787.3259887695312
845,801.8314819335938,798.6080322265625,784.5054931640625,792.967041015625
846,804.2490844726562,800.6226806640625,781.6849975585938,798.2051391601562
847,799.010986328125,804.2490844726562,780.879150390625,795.7875366210938
848,796.5933837890625,801.8314819335938,783.6996459960938,799.4139404296875
849,801.4285888671875,802.6373901367188,784.5054931640625,802.2344360351562
850,792.967041015625,805.054931640625,786.923095703125,803.8461303710938
851,785.7142944335938,803.4432373046875,793.3699340820312,801.025634765625
852,796.5933837890625,802.2344360351562,797.8021850585938,801.8314819335938
853,797.8021850585938,803.4432373046875,790.1465454101562,798.2051391601562
854,788.937744140625,802.2344360351562,786.1171875,792.967041015625
855,786.5201416015625,795.7875366210938,791.3552856445312,789.3406372070312
856,795.3846435546875,790.952392578125,792.5640869140625,791.3552856445312
857,800.6226806640625,791.3552856445312,794.5787353515625,803.8461303710938
858,796.1904907226562,796.5933837890625,796.996337890625,801.4285888671875
859,794.5787353515625,796.996337890625,795.3846435546875,787.7289428710938
860,799.4139404296875,798.2051391601562,796.996337890625,792.1611938476562
861,798.6080322265625,798.2051391601562,796.1904907226562,798.2051391601562
862,793.3699340820312,794.981689453125,792.5640869140625,794.1758422851562
863,792.5640869140625,794.5787353515625,793.7728881835938,788.937744140625
864,793.3699340820312,796.1904907226562,795.7875366210938,788.1318969726562
865,783.6996459960938,792.5640869140625,796.996337890625,785.3113403320312
866,784.908447265625,791.3552856445312,795.7875366210938,782.893798828125
867,799.010986328125,796.5933837890625,794.5787353515625,787.7289428710938
868,795.7875366210938,794.981689453125,800.2197875976562,799.010986328125
869,790.5494384765625,795.3846435546875,800.6226806640625,802.2344360351562
870,789.3406372070312,795.7875366210938,794.981689453125,794.5787353515625
871,793.7728881835938,790.952392578125,796.996337890625,791.7582397460938
872,798.2051391601562,794.1758422851562,797.8021850585938,794.1758422851562
873,796.1904907226562,792.967041015625,797.3992919921875,799.010986328125
874,795.7875366210938,791.7582397460938,801.4285888671875,797.3992919921875
875,793.7728881835938,799.010986328125,799.010986328125,793.3699340820312
876,797.3992919921875,798.2051391601562,798.2051391601562,796.1904907226562
877,807.87548828125,790.952392578125,799.8168334960938,800.6226806640625
878,809.084228515625,789.3406372070312,803.4432373046875,798.2051391601562
879,795.3846435546875,797.3992919921875,803.4432373046875,796.5933837890625
880,787.3259887695312,803.040283203125,796.996337890625,799.010986328125
881,793.3699340820312,803.040283203125,794.1758422851562,786.923095703125
882,788.5347900390625,800.2197875976562,795.7875366210938,778.8644409179688
883,789.3406372070312,799.8168334960938,796.5933837890625,786.5201416015625
884,790.952392578125,794.1758422851562,795.3846435546875,779.6703491210938
885,780.0732421875,794.1758422851562,790.5494384765625,772.8204956054688
886,779.2673950195312,796.1904907226562,791.7582397460938,775.2380981445312
887,782.4908447265625,795.3846435546875,794.1758422851562,784.5054931640625
888,786.1171875,796.996337890625,794.5787353515625,794.5787353515625
889,786.923095703125,793.7728881835938,792.967041015625,782.893798828125
890,783.6996459960938,789.3406372070312,793.7728881835938,776.8497924804688
891,788.5347900390625,788.5347900390625,799.8168334960938,790.5494384765625
892,790.5494384765625,789.7435913085938,800.6226806640625,790.1465454101562
893,784.908447265625,792.1611938476562,798.2051391601562,780.4761962890625
894,778.05859375,791.3552856445312,796.1904907226562,784.908447265625
895,777.6557006835938,789.7435913085938,796.5933837890625,790.1465454101562
896,782.893798828125,791.7582397460938,797.8021850585938,795.7875366210938
897,781.2820434570312,790.952392578125,795.7875366210938,793.3699340820312
898,783.6996459960938,788.1318969726562,789.3406372070312,784.908447265625
899,786.5201416015625,788.1318969726562,786.923095703125,784.908447265625
900,791.7582397460938,791.3552856445312,794.5787353515625,789.7435913085938
901,788.937744140625,789.3406372070312,790.952392578125,782.087890625
902,789.7435913085938,786.5201416015625,791.7582397460938,780.0732421875
903,795.7875366210938,790.5494384765625,798.2051391601562,786.5201416015625
904,801.025634765625,791.3552856445312,798.2051391601562,781.6849975585938
905,802.2344360351562,790.5494384765625,793.7728881835938,779.6703491210938
906,801.8314819335938,793.3699340820312,790.1465454101562,786.1171875
907,808.2783813476562,799.010986328125,792.5640869140625,794.5787353515625
908,801.025634765625,803.4432373046875,792.1611938476562,790.952392578125
909,794.1758422851562,802.2344360351562,792.1611938476562,787.7289428710938
910,787.7289428710938,798.2051391601562,793.7728881835938,784.1025390625
911,789.3406372070312,802.6373901367188,797.8021850585938,783.2966918945312
912,796.5933837890625,807.4725341796875,797.3992919921875,786.1171875
913,795.3846435546875,800.6226806640625,799.4139404296875,786.5201416015625
914,785.3113403320312,795.7875366210938,796.996337890625,786.5201416015625
915,776.4468994140625,795.7875366210938,792.5640869140625,787.3259887695312
916,777.6557006835938,791.3552856445312,795.3846435546875,793.7728881835938
917,779.2673950195312,789.3406372070312,794.981689453125,801.025634765625
918,785.3113403320312,791.7582397460938,793.3699340820312,799.4139404296875
919,788.937744140625,790.1465454101562,792.1611938476562,791.7582397460938
920,786.923095703125,790.952392578125,791.7582397460938,791.7582397460938
921,785.7142944335938,791.7582397460938,789.7435913085938,799.010986328125
922,784.1025390625,788.937744140625,783.6996459960938,795.7875366210938
923,787.7289428710938,791.3552856445312,784.908447265625,791.3552856445312
924,792.1611938476562,796.5933837890625,790.1465454101562,794.5787353515625
925,786.5201416015625,795.7875366210938,790.1465454101562,792.1611938476562
926,791.3552856445312,792.967041015625,790.5494384765625,796.996337890625
927,797.3992919921875,790.5494384765625,792.5640869140625,799.8168334960938
928,798.2051391601562,791.3552856445312,792.967041015625,787.7289428710938
929,803.4432373046875,792.1611938476562,789.3406372070312,789.3406372070312
930,790.1465454101562,789.7435913085938,788.1318969726562,786.923095703125
931,783.6996459960938,795.7875366210938,791.3552856445312,780.0732421875
932,785.7142944335938,794.5787353515625,793.3699340820312,783.2966918945312
933,784.5054931640625,791.3552856445312,790.1465454101562,786.5201416015625
934,782.087890625,790.952392578125,791.3552856445312,793.3699340820312
935,774.8351440429688,785.7142944335938,792.967041015625,789.7435913085938
936,772.4176025390625,785.7142944335938,787.7289428710938,792.5640869140625
937,772.0146484375,785.3113403320312,786.923095703125,797.3992919921875
938,781.6849975585938,785.7142944335938,793.7728881835938,792.967041015625
939,782.087890625,789.7435913085938,796.1904907226562,790.1465454101562
940,776.8497924804688,793.3699340820312,794.5787353515625,791.3552856445312
941,780.0732421875,792.5640869140625,798.2051391601562,802.6373901367188
942,786.1171875,790.1465454101562,803.8461303710938,799.010986328125
943,790.5494384765625,790.952392578125,802.6373901367188,793.3699340820312
944,788.937744140625,788.937744140625,801.025634765625,798.2051391601562
945,786.5201416015625,789.3406372070312,801.025634765625,789.7435913085938
946,785.7142944335938,791.7582397460938,801.4285888671875,788.937744140625
947,791.3552856445312,791.3552856445312,799.4139404296875,790.952392578125
948,790.952392578125,790.952392578125,795.3846435546875,786.923095703125
949,786.1171875,795.3846435546875,795.3846435546875,788.1318969726562
950,793.3699340820312,796.996337890625,796.1904907226562,794.5787353515625
951,792.1611938476562,794.1758422851562,797.8021850585938,790.1465454101562
952,789.7435913085938,789.7435913085938,798.6080322265625,785.3113403320312
953,792.1611938476562,788.5347900390625,795.3846435546875,792.967041015625
954,787.7289428710938,790.952392578125,795.3846435546875,790.5494384765625
955,785.3113403320312,791.3552856445312,796.5933837890625,786.5201416015625
956,783.2966918945312,790.1465454101562,792.1611938476562,787.3259887695312
957,781.2820434570312,788.5347900390625,789.3406372070312,785.7142944335938
958,792.5640869140625,788.937744140625,790.5494384765625,786.1171875
959,792.5640869140625,790.952392578125,790.952392578125,792.1611938476562
960,781.6849975585938,788.937744140625,786.923095703125,788.5347900390625
961,779.6703491210938,788.5347900390625,791.3552856445312,790.5494384765625
962,778.05859375,788.5347900390625,790.952392578125,791.3552856445312
963,786.5201416015625,788.5347900390625,795.3846435546875,793.7728881835938
964,792.5640869140625,790.5494384765625,796.996337890625,799.4139404296875
965,790.952392578125,793.3699340820312,795.7875366210938,795.7875366210938
966,789.3406372070312,792.1611938476562,798.6080322265625,782.893798828125
967,790.952392578125,787.3259887695312,799.010986328125,778.05859375
968,799.4139404296875,790.1465454101562,802.6373901367188,788.5347900390625
969,798.6080322265625,791.3552856445312,803.040283203125,789.7435913085938
970,796.1904907226562,786.1171875,800.6226806640625,788.937744140625
971,801.8314819335938,788.5347900390625,798.2051391601562,796.5933837890625
972,805.8607788085938,792.967041015625,796.1904907226562,799.8168334960938
973,803.4432373046875,795.3846435546875,793.7728881835938,796.5933837890625
974,795.7875366210938,794.5787353515625,790.952392578125,794.1758422851562
975,792.1611938476562,792.1611938476562,790.1465454101562,797.3992919921875
976,794.5787353515625,794.5787353515625,787.7289428710938,802.2344360351562
977,796.1904907226562,798.2051391601562,790.5494384765625,805.054931640625
978,795.3846435546875,801.4285888671875,792.5640869140625,808.6813354492188
979,797.3992919921875,798.6080322265625,791.7582397460938,807.069580078125
980,794.981689453125,794.5787353515625,792.967041015625,801.025634765625
981,792.967041015625,793.3699340820312,791.7582397460938,796.996337890625
982,795.7875366210938,792.967041015625,792.1611938476562,794.981689453125
983,792.967041015625,796.996337890625,795.3846435546875,791.7582397460938
984,786.5201416015625,799.010986328125,795.3846435546875,790.5494384765625
985,783.2966918945312,792.967041015625,796.996337890625,788.5347900390625
986,779.2673950195312,792.5640869140625,797.3992919921875,785.7142944335938
987,783.2966918945312,793.7728881835938,795.7875366210938,794.981689453125
988,781.6849975585938,793.3699340820312,794.981689453125,794.5787353515625
989,787.7289428710938,798.2051391601562,800.2197875976562,792.5640869140625
990,796.1904907226562,795.7875366210938,801.025634765625,793.7728881835938
991,786.923095703125,790.952392578125,798.2051391601562,786.923095703125
992,780.879150390625,794.981689453125,798.6080322265625,791.3552856445312
993,784.1025390625,798.6080322265625,800.6226806640625,799.010986328125
994,792.1611938476562,798.2051391601562,801.8314819335938,804.6520385742188
995,803.4432373046875,801.025634765625,796.996337890625,804.2490844726562
996,803.040283203125,799.4139404296875,792.967041015625,794.981689453125
997,795.7875366210938,797.3992919921875,792.5640869140625,793.3699340820312
998,794.981689453125,796.1904907226562,795.7875366210938,804.2490844726562
999,795.3846435546875,796.5933837890625,797.3992919921875,804.6520385742188
1000,803.040283203125,801.025634765625,799.010986328125,796.1904907226562
1001,796.1904907226562,798.2051391601562,802.2344360351562,797.3992919921875
1002,783.2966918945312,796.996337890625,804.6520385742188,796.996337890625
1003,781.2820434570312,796.1904907226562,797.3992919921875,788.5347900390625
1004,786.923095703125,795.3846435546875,792.1611938476562,784.908447265625
1005,783.6996459960938,794.1758422851562,788.937744140625,784.5054931640625
1006,780.4761962890625,794.5787353515625,792.1611938476562,784.908447265625
1007,782.087890625,796.996337890625,793.7728881835938,783.2966918945312
1008,777.2527465820312,795.3846435546875,788.1318969726562,772.4176025390625
1009,784.1025390625,792.1611938476562,789.7435913085938,770.8058471679688
1010,789.3406372070312,798.6080322265625,792.967041015625,774.8351440429688
1011,781.6849975585938,797.3992919921875,787.3259887695312,772.8204956054688
1012,778.4615478515625,786.5201416015625,784.908447265625,770.0
1013,779.2673950195312,785.3113403320312,789.7435913085938,770.8058471679688
1014,775.2380981445312,784.5054931640625,789.3406372070312,773.2234497070312
1015,784.5054931640625,784.5054931640625,789.3406372070312,778.05859375
1016,788.1318969726562,785.3113403320312,787.3259887695312,779.6703491210938
1017,776.4468994140625,783.6996459960938,789.7435913085938,782.087890625
1018,774.4322509765625,788.1318969726562,794.981689453125,780.879150390625
1019,778.05859375,794.5787353515625,793.7728881835938,779.2673950195312
1020,780.0732421875,796.1904907226562,792.1611938476562,783.6996459960938
1021,782.893798828125,796.996337890625,792.5640869140625,794.5787353515625
1022,784.5054931640625,797.3992919921875,796.5933837890625,795.3846435546875
1023,785.7142944335938,799.4139404296875,798.6080322265625,788.5347900390625
1024,784.1025390625,799.4139404296875,798.2051391601562,783.2966918945312
1025,785.3113403320312,796.5933837890625,795.7875366210938,786.5201416015625
1026,793.3699340820312,796.996337890625,794.1758422851562,801.025634765625
1027,798.6080322265625,800.6226806640625,794.981689453125,797.8021850585938
1028,791.7582397460938,797.8021850585938,791.3552856445312,788.1318969726562
1029,783.2966918945312,795.7875366210938,792.967041015625,788.1318969726562
1030,784.908447265625,794.5787353515625,793.3699340820312,790.1465454101562
1031,788.1318969726562,792.1611938476562,787.7289428710938,788.937744140625
1032,785.7142944335938,793.7728881835938,788.937744140625,784.1025390625
1033,782.4908447265625,793.7728881835938,788.5347900390625,783.6996459960938
1034,781.2820434570312,792.967041015625,788.1318969726562,779.6703491210938
1035,781.6849975585938,792.967041015625,792.1611938476562,776.4468994140625
1036,788.1318969726562,793.7728881835938,795.7875366210938,780.0732421875
1037,792.5640869140625,793.7728881835938,799.4139404296875,789.7435913085938
1038,782.4908447265625,790.5494384765625,797.3992919921875,787.7289428710938
1039,776.4468994140625,787.7289428710938,789.7435913085938,773.6264038085938
1040,783.6996459960938,785.7142944335938,792.967041015625,780.879150390625
1041,782.4908447265625,785.3113403320312,791.7582397460938,782.893798828125
1042,782.893798828125,786.1171875,788.937744140625,782.4908447265625
1043,787.7289428710938,785.3113403320312,789.3406372070312,790.952392578125
1044,785.7142944335938,782.087890625,789.7435913085938,792.5640869140625
1045,789.7435913085938,784.908447265625,794.1758422851562,795.3846435546875
1046,794.981689453125,790.5494384765625,795.3846435546875,793.3699340820312
1047,790.952392578125,790.1465454101562,797.8021850585938,788.937744140625
1048,781.6849975585938,787.7289428710938,796.5933837890625,786.923095703125
1049,782.087890625,788.937744140625,793.7728881835938,787.7289428710938
1050,791.3552856445312,790.1465454101562,797.3992919921875,788.5347900390625
1051,792.5640869140625,787.7289428710938,799.010986328125,782.893798828125
1052,787.3259887695312,787.7289428710938,794.5787353515625,777.6557006835938
1053,782.4908447265625,788.937744140625,791.3552856445312,778.4615478515625
1054,785.7142944335938,788.1318969726562,798.2051391601562,787.3259887695312
1055,788.937744140625,788.1318969726562,801.8314819335938,784.908447265625
1056,791.7582397460938,788.937744140625,801.025634765625,781.6849975585938
1057,799.010986328125,791.7582397460938,803.4432373046875,792.5640869140625
1058,803.4432373046875,795.3846435546875,803.8461303710938,796.996337890625
1059,803.4432373046875,796.5933837890625,803.040283203125,793.3699340820312
1060,797.3992919921875,797.8021850585938,799.010986328125,797.8021850585938
1061,792.967041015625,799.8168334960938,801.025634765625,795.7875366210938
1062,793.3699340820312,798.2051391601562,804.2490844726562,788.937744140625
1063,789.7435913085938,791.7582397460938,803.4432373046875,785.7142944335938
1064,787.7289428710938,793.7728881835938,804.2490844726562,785.3113403320312
1065,782.087890625,801.025634765625,799.010986328125,786.923095703125
1066,784.1025390625,800.6226806640625,796.5933837890625,789.3406372070312
1067,794.1758422851562,799.010986328125,794.1758422851562,791.3552856445312
1068,793.3699340820312,797.3992919921875,794.1758422851562,789.3406372070312
1069,788.5347900390625,792.967041015625,792.967041015625,789.7435913085938
1070,788.937744140625,788.1318969726562,793.7728881835938,786.923095703125
1071,799.010986328125,788.1318969726562,796.1904907226562,790.1465454101562
1072,802.2344360351562,786.5201416015625,793.7728881835938,794.981689453125
1073,792.5640869140625,784.5054931640625,793.3699340820312,792.1611938476562
1074,785.7142944335938,788.1318969726562,792.967041015625,788.937744140625
1075,796.1904907226562,787.7289428710938,786.5201416015625,788.1318969726562
1076,803.4432373046875,782.4908447265625,786.5201416015625,790.1465454101562
1077,802.2344360351562,787.7289428710938,791.7582397460938,791.7582397460938
1078,801.4285888671875,792.1611938476562,792.1611938476562,786.1171875
1079,791.7582397460938,785.7142944335938,793.7728881835938,786.5201416015625
1080,780.879150390625,783.2966918945312,794.5787353515625,792.967041015625
1081,774.4322509765625,783.6996459960938,796.996337890625,789.3406372070312
1082,778.8644409179688,786.5201416015625,796.1904907226562,795.7875366210938
1083,783.2966918945312,790.1465454101562,796.1904907226562,805.8607788085938
1084,785.3113403320312,791.3552856445312,801.025634765625,793.3699340820312
1085,790.5494384765625,793.3699340820312,800.6226806640625,788.1318969726562
1086,783.2966918945312,794.1758422851562,799.010986328125,793.3699340820312
1087,778.4615478515625,795.7875366210938,803.040283203125,783.6996459960938
1088,778.05859375,794.5787353515625,805.4578857421875,780.4761962890625
1089,772.8204956054688,790.5494384765625,803.040283203125,781.6849975585938
1090,774.029296875,791.3552856445312,796.996337890625,784.1025390625
1091,777.6557006835938,791.7582397460938,800.2197875976562,787.7289428710938
1092,779.2673950195312,790.5494384765625,797.8021850585938,780.0732421875
1093,776.0439453125,788.1318969726562,795.7875366210938,776.8497924804688
1094,777.2527465820312,786.923095703125,795.7875366210938,782.4908447265625
1095,782.893798828125,790.952392578125,794.5787353515625,786.5201416015625
1096,789.3406372070312,794.981689453125,799.8168334960938,783.2966918945312
1097,791.7582397460938,794.981689453125,800.2197875976562,783.2966918945312
1098,789.7435913085938,791.7582397460938,797.3992919921875,786.923095703125
1099,788.1318969726562,793.3699340820312,799.010986328125,784.5054931640625
1100,787.7289428710938,796.1904907226562,795.7875366210938,784.1025390625
1101,782.893798828125,792.967041015625,792.1611938476562,785.3113403320312
1102,783.2966918945312,790.1465454101562,794.1758422851562,790.5494384765625
1103,789.3406372070312,794.5787353515625,795.3846435546875,798.6080322265625
1104,795.3846435546875,798.6080322265625,798.2051391601562,790.5494384765625
1105,794.981689453125,799.010986328125,798.2051391601562,782.4908447265625
1106,785.7142944335938,798.6080322265625,792.967041015625,794.1758422851562
1107,792.5640869140625,801.025634765625,793.3699340820312,801.025634765625
1108,801.8314819335938,800.2197875976562,798.2051391601562,793.3699340820312
1109,786.923095703125,799.010986328125,800.2197875976562,792.1611938476562
1110,779.2673950195312,800.2197875976562,802.2344360351562,797.8021850585938
1111,785.7142944335938,803.4432373046875,801.025634765625,794.981689453125
1112,790.5494384765625,801.025634765625,802.6373901367188,791.7582397460938
1113,792.5640869140625,797.8021850585938,805.054931640625,798.2051391601562
1114,794.981689453125,799.010986328125,803.040283203125,795.7875366210938
1115,794.5787353515625,797.8021850585938,805.8607788085938,795.7875366210938
1116,788.937744140625,793.3699340820312,803.4432373046875,801.025634765625
1117,804.2490844726562,793.3699340820312,801.4285888671875,793.7728881835938
1118,819.5604248046875,794.1758422851562,802.2344360351562,785.3113403320312
1119,795.7875366210938,797.3992919921875,801.8314819335938,788.1318969726562
1120,778.8644409179688,799.4139404296875,803.040283203125,783.2966918945312
1121,789.7435913085938,797.8021850585938,801.8314819335938,781.6849975585938
1122,793.3699340820312,795.3846435546875,801.025634765625,787.3259887695312
1123,787.7289428710938,793.3699340820312,800.2197875976562,789.7435913085938
1124,793.3699340820312,794.1758422851562,794.981689453125,793.7728881835938
1125,794.5787353515625,792.967041015625,798.2051391601562,793.7728881835938
1126,790.1465454101562,792.5640869140625,802.2344360351562,792.967041015625
1127,798.6080322265625,795.3846435546875,798.2051391601562,797.3992919921875
1128,813.91943359375,795.7875366210938,794.981689453125,799.8168334960938
1129,812.3076782226562,793.7728881835938,795.3846435546875,799.010986328125
1130,785.3113403320312,793.3699340820312,794.981689453125,794.1758422851562
1131,775.6410522460938,794.981689453125,794.981689453125,787.3259887695312
1132,790.1465454101562,797.8021850585938,796.996337890625,789.7435913085938
1133,791.3552856445312,796.996337890625,797.8021850585938,792.1611938476562
1134,784.1025390625,797.8021850585938,797.8021850585938,786.1171875
1135,782.893798828125,796.996337890625,795.3846435546875,781.2820434570312
1136,776.4468994140625,792.5640869140625,794.981689453125,781.6849975585938
1137,780.4761962890625,796.996337890625,795.3846435546875,782.893798828125
1138,792.1611938476562,798.2051391601562,795.3846435546875,786.1171875
1139,789.3406372070312,797.3992919921875,798.2051391601562,792.5640869140625
1140,783.2966918945312,797.3992919921875,798.6080322265625,794.5787353515625
1141,784.5054931640625,799.4139404296875,801.4285888671875,791.7582397460938
1142,784.1025390625,805.054931640625,804.6520385742188,786.1171875
1143,789.3406372070312,803.8461303710938,799.4139404296875,787.3259887695312
1144,797.3992919921875,803.4432373046875,799.010986328125,793.3699340820312
1145,794.5787353515625,802.6373901367188,803.4432373046875,792.1611938476562
1146,797.3992919921875,798.2051391601562,803.040283203125,790.952392578125
1147,818.7545776367188,799.010986328125,799.4139404296875,790.1465454101562
1148,811.098876953125,802.2344360351562,799.4139404296875,801.8314819335938
1149,790.952392578125,801.025634765625,801.8314819335938,809.084228515625
1150,796.1904907226562,799.4139404296875,801.025634765625,804.2490844726562
1151,798.6080322265625,799.010986328125,796.996337890625,798.2051391601562
1152,807.069580078125,797.3992919921875,793.7728881835938,793.3699340820312
1153,813.91943359375,801.8314819335938,794.1758422851562,799.4139404296875
1154,818.7545776367188,802.6373901367188,797.3992919921875,798.6080322265625
1155,812.3076782226562,797.3992919921875,802.6373901367188,796.996337890625
1156,787.7289428710938,795.7875366210938,805.4578857421875,800.2197875976562
1157,777.6557006835938,793.3699340820312,800.6226806640625,798.6080322265625
1158,783.6996459960938,791.7582397460938,794.5787353515625,792.5640869140625
1159,788.937744140625,792.967041015625,794.981689453125,792.5640869140625
1160,790.952392578125,792.967041015625,796.1904907226562,790.952392578125
1161,796.996337890625,790.5494384765625,795.7875366210938,791.7582397460938
1162,806.6666870117188,795.3846435546875,793.3699340820312,798.2051391601562
1163,819.1575317382812,800.2197875976562,795.3846435546875,794.5787353515625
1164,805.8607788085938,799.8168334960938,799.010986328125,787.7289428710938
1165,788.937744140625,800.2197875976562,792.1611938476562,786.923095703125
1166,790.1465454101562,797.3992919921875,792.967041015625,787.3259887695312
1167,788.1318969726562,794.5787353515625,794.1758422851562,789.3406372070312
1168,787.7289428710938,790.1465454101562,786.923095703125,794.5787353515625
1169,790.952392578125,791.3552856445312,787.3259887695312,792.1611938476562
1170,799.4139404296875,792.1611938476562,792.967041015625,790.1465454101562
1171,807.4725341796875,788.937744140625,793.3699340820312,792.5640869140625
1172,799.010986328125,786.923095703125,790.952392578125,791.7582397460938
1173,792.1611938476562,786.5201416015625,794.5787353515625,788.5347900390625
1174,802.6373901367188,790.5494384765625,792.1611938476562,792.967041015625
1175,807.069580078125,788.937744140625,789.3406372070312,793.7728881835938
1176,792.967041015625,786.1171875,786.1171875,792.967041015625
1177,791.7582397460938,784.908447265625,786.923095703125,794.1758422851562
1178,794.5787353515625,784.908447265625,791.3552856445312,788.937744140625
1179,790.952392578125,784.908447265625,793.7728881835938,796.1904907226562
1180,787.7289428710938,783.6996459960938,794.5787353515625,796.1904907226562
1181,793.7728881835938,785.7142944335938,796.5933837890625,791.7582397460938
1182,789.7435913085938,786.5201416015625,796.5933837890625,795.7875366210938
1183,782.087890625,784.908447265625,791.7582397460938,787.7289428710938
1184,794.5787353515625,790.5494384765625,794.1758422851562,784.1025390625
1185,788.937744140625,795.7875366210938,798.2051391601562,780.4761962890625
1186,782.4908447265625,795.7875366210938,795.7875366210938,778.05859375
1187,796.996337890625,800.2197875976562,794.1758422851562,783.6996459960938
1188,795.7875366210938,796.996337890625,792.967041015625,782.087890625
1189,777.2527465820312,794.5787353515625,797.3992919921875,777.6557006835938
1190,772.4176025390625,798.6080322265625,803.040283203125,787.3259887695312
1191,773.2234497070312,798.2051391601562,797.8021850585938,790.952392578125
1192,761.5384521484375,793.7728881835938,793.3699340820312,771.6116943359375
1193,759.9267578125,796.996337890625,792.967041015625,767.1795043945312
1194,763.5531005859375,802.6373901367188,807.069580078125,773.2234497070312
1195,758.7179565429688,798.6080322265625,810.6959838867188,755.8974609375
1196,745.8241577148438,792.967041015625,812.3076782226562,738.1685180664062
1197,729.7069702148438,795.7875366210938,826.00732421875,731.3186645507812
1198,720.8424682617188,801.4285888671875,827.2161254882812,721.6483764648438
1199,700.6959838867188,799.010986328125,829.6337280273438,707.94873046875
1200,672.087890625,800.2197875976562,830.8424682617188,692.2344360351562
1201,655.5677490234375,803.8461303710938,836.4835205078125,684.1758422851562
1202,651.5384521484375,801.8314819335938,846.1538696289062,679.3406372070312
1203,649.5238037109375,798.6080322265625,846.1538696289062,666.4468994140625
1204,651.94140625,798.6080322265625,844.1392211914062,654.7619018554688
1205,659.5970458984375,797.3992919921875,847.7655639648438,651.1355590820312
1206,658.7911987304688,801.025634765625,851.7948608398438,662.8204956054688
1207,647.912109375,807.4725341796875,856.2271118164062,671.2820434570312
1208,639.4505615234375,805.054931640625,857.8388061523438,653.1502075195312
1209,639.8534545898438,800.2197875976562,856.2271118164062,653.1502075195312
1210,652.7472534179688,800.6226806640625,853.8095092773438,674.1025390625
1211,658.7911987304688,798.6080322265625,852.6007080078125,673.6996459960938
1212,668.05859375,798.2051391601562,853.003662109375,678.1318969726562
1213,678.1318969726562,801.025634765625,853.003662109375,693.040283203125
1214,672.893798828125,801.025634765625,849.3773193359375,697.069580078125
1215,680.1465454101562,797.8021850585938,847.3626098632812,707.5457763671875
1216,700.2930297851562,796.5933837890625,848.5714111328125,724.06591796875
1217,715.6043701171875,799.010986328125,844.1392211914062,734.945068359375
1218,713.1868286132812,801.4285888671875,840.5128173828125,738.5714111328125
1219,717.2161254882812,805.054931640625,836.886474609375,730.5128173828125
1220,745.018310546875,799.010986328125,836.08056640625,737.7655639648438
1221,745.4212646484375,792.967041015625,836.08056640625,757.912109375
1222,746.2271118164062,792.967041015625,831.2454223632812,764.3589477539062
1223,754.2857055664062,792.5640869140625,826.00732421875,771.2088012695312
1224,757.912109375,790.952392578125,815.93408203125,780.4761962890625
1225,777.6557006835938,791.3552856445312,811.5018310546875,788.1318969726562
1226,790.5494384765625,792.1611938476562,810.6959838867188,798.6080322265625
1227,795.7875366210938,788.1318969726562,806.2637329101562,799.010986328125
1228,796.1904907226562,788.937744140625,799.010986328125,797.8021850585938
1229,796.1904907226562,789.7435913085938,785.7142944335938,805.8607788085938
1230,808.6813354492188,788.5347900390625,782.893798828125,821.5750732421875
1231,817.94873046875,790.5494384765625,779.2673950195312,824.3956298828125
1232,820.7692260742188,792.5640869140625,777.6557006835938,826.4102783203125
1233,814.7252807617188,790.952392578125,777.6557006835938,825.6043701171875
1234,819.5604248046875,790.1465454101562,770.8058471679688,823.99267578125
1235,830.8424682617188,789.7435913085938,768.7911987304688,822.3809814453125
1236,834.8717651367188,788.5347900390625,773.6264038085938,821.5750732421875
1237,844.1392211914062,792.5640869140625,774.4322509765625,828.4249267578125
1238,847.7655639648438,790.5494384765625,768.7911987304688,829.6337280273438
1239,838.901123046875,788.937744140625,769.1941528320312,836.886474609375
1240,840.10986328125,794.5787353515625,770.8058471679688,848.5714111328125
1241,844.1392211914062,792.967041015625,773.6264038085938,848.974365234375
1242,845.7509155273438,790.5494384765625,775.2380981445312,847.7655639648438
1243,849.7802124023438,790.5494384765625,767.9853515625,841.7216186523438
1244,844.945068359375,790.952392578125,763.1502075195312,838.09521484375
1245,840.5128173828125,789.7435913085938,763.5531005859375,844.5421142578125
1246,845.3479614257812,794.1758422851562,765.1648559570312,834.06591796875
1247,858.2417602539062,799.8168334960938,763.1502075195312,830.03662109375
1248,852.1978149414062,798.6080322265625,763.5531005859375,838.09521484375
1249,826.8131713867188,795.3846435546875,767.5823974609375,835.2747192382812
1250,824.3956298828125,793.3699340820312,771.6116943359375,835.2747192382812
1251,838.4981689453125,796.5933837890625,771.6116943359375,835.6776733398438
1252,839.7069702148438,794.5787353515625,770.0,836.4835205078125
1253,832.4542236328125,792.967041015625,772.0146484375,835.6776733398438
1254,832.8571166992188,786.1171875,768.7911987304688,821.1721801757812
1255,833.6630249023438,777.6557006835938,764.7619018554688,826.8131713867188
1256,834.06591796875,786.1171875,770.0,840.10986328125
1257,836.08056640625,790.952392578125,778.4615478515625,840.10986328125
1258,841.7216186523438,790.5494384765625,778.8644409179688,836.08056640625
1259,839.7069702148438,790.5494384765625,777.2527465820312,833.2600708007812
1260,831.2454223632812,788.5347900390625,777.6557006835938,834.06591796875
1261,829.2307739257812,788.5347900390625,777.6557006835938,832.8571166992188
1262,831.6483764648438,783.2966918945312,774.029296875,831.6483764648438
1263,828.4249267578125,780.4761962890625,770.4029541015625,833.6630249023438
1264,816.7399291992188,783.6996459960938,770.8058471679688,828.8278198242188
1265,815.5311279296875,787.7289428710938,774.029296875,821.1721801757812
1266,827.6190185546875,793.7728881835938,779.2673950195312,825.6043701171875
1267,828.8278198242188,794.1758422851562,782.087890625,820.3662719726562
1268,818.3516235351562,789.3406372070312,783.6996459960938,819.96337890625
1269,817.1428833007812,793.7728881835938,783.2966918945312,822.3809814453125
1270,822.3809814453125,795.3846435546875,781.2820434570312,819.1575317382812
1271,821.1721801757812,791.7582397460938,777.6557006835938,819.1575317382812
1272,812.3076782226562,791.7582397460938,778.4615478515625,813.91943359375
1273,802.6373901367188,789.7435913085938,779.6703491210938,803.040283203125
1274,805.4578857421875,786.1171875,780.0732421875,804.6520385742188
1275,813.113525390625,786.5201416015625,782.4908447265625,818.3516235351562
1276,815.5311279296875,789.3406372070312,782.4908447265625,813.5164794921875
1277,817.5457763671875,790.5494384765625,787.3259887695312,806.6666870117188
1278,810.2930297851562,792.5640869140625,787.3259887695312,813.5164794921875
1279,803.8461303710938,791.3552856445312,784.1025390625,811.5018310546875
1280,804.6520385742188,788.937744140625,781.2820434570312,807.4725341796875
1281,809.4871826171875,788.5347900390625,780.4761962890625,809.4871826171875
1282,811.098876953125,784.5054931640625,782.893798828125,813.113525390625
1283,807.87548828125,783.6996459960938,784.1025390625,814.3223266601562
1284,809.084228515625,787.7289428710938,786.5201416015625,810.2930297851562
1285,812.7106323242188,787.7289428710938,786.5201416015625,805.054931640625
1286,814.7252807617188,789.3406372070312,787.3259887695312,807.4725341796875
1287,814.3223266601562,792.5640869140625,791.7582397460938,811.90478515625
1288,821.97802734375,794.1758422851562,793.3699340820312,813.113525390625
1289,811.098876953125,793.7728881835938,791.3552856445312,805.8607788085938
1290,797.3992919921875,791.7582397460938,788.5347900390625,811.5018310546875
1291,801.8314819335938,793.7728881835938,788.5347900390625,819.96337890625
1292,805.054931640625,794.981689453125,787.7289428710938,803.8461303710938
1293,809.4871826171875,798.2051391601562,787.7289428710938,799.8168334960938
1294,803.4432373046875,799.010986328125,792.967041015625,796.996337890625
1295,796.5933837890625,796.1904907226562,794.981689453125,790.5494384765625
1296,802.6373901367188,796.5933837890625,796.1904907226562,794.1758422851562
1297,815.5311279296875,795.7875366210938,798.2051391601562,803.040283203125
1298,817.1428833007812,794.981689453125,798.6080322265625,806.6666870117188
1299,803.8461303710938,792.967041015625,799.010986328125,798.2051391601562
1300,800.6226806640625,789.3406372070312,796.1904907226562,791.7582397460938
1301,801.8314819335938,787.7289428710938,794.1758422851562,794.5787353515625
1302,803.040283203125,789.3406372070312,797.3992919921875,801.4285888671875
1303,813.91943359375,794.5787353515625,799.010986328125,803.8461303710938
1304,802.2344360351562,796.5933837890625,796.5933837890625,800.2197875976562
1305,792.5640869140625,792.5640869140625,795.3846435546875,800.2197875976562
1306,792.5640869140625,790.952392578125,797.8021850585938,807.069580078125
1307,791.7582397460938,786.923095703125,801.025634765625,812.3076782226562
1308,807.4725341796875,786.5201416015625,800.2197875976562,809.89013671875
1309,813.91943359375,790.1465454101562,801.4285888671875,813.91943359375
1310,804.6520385742188,791.7582397460938,806.6666870117188,810.6959838867188
1311,803.4432373046875,790.952392578125,801.4285888671875,804.2490844726562
1312,806.6666870117188,784.5054931640625,794.981689453125,803.040283203125
1313,807.069580078125,784.5054931640625,796.1904907226562,801.4285888671875
1314,806.6666870117188,788.937744140625,794.1758422851562,800.2197875976562
1315,809.084228515625,786.1171875,794.981689453125,794.1758422851562
1316,804.6520385742188,786.923095703125,794.5787353515625,792.967041015625
1317,801.4285888671875,793.7728881835938,796.5933837890625,797.3992919921875
1318,804.6520385742188,796.1904907226562,800.6226806640625,801.4285888671875
1319,807.4725341796875,794.5787353515625,799.010986328125,792.5640869140625
1320,808.2783813476562,793.7728881835938,801.4285888671875,795.3846435546875
1321,800.2197875976562,796.5933837890625,804.2490844726562,802.6373901367188
1322,794.981689453125,794.5787353515625,804.2490844726562,799.4139404296875
1323,805.4578857421875,796.1904907226562,805.054931640625,803.8461303710938
1324,813.91943359375,796.996337890625,797.8021850585938,798.6080322265625
1325,810.6959838867188,791.3552856445312,796.1904907226562,796.996337890625
1326,809.89013671875,791.7582397460938,802.6373901367188,803.8461303710938
1327,806.6666870117188,791.7582397460938,806.2637329101562,803.040283203125
1328,807.069580078125,794.1758422851562,802.2344360351562,805.054931640625
1329,807.87548828125,799.4139404296875,796.1904907226562,804.2490844726562
1330,805.054931640625,799.8168334960938,792.967041015625,802.2344360351562
1331,812.7106323242188,798.6080322265625,794.981689453125,800.2197875976562
1332,812.3076782226562,801.4285888671875,798.2051391601562,800.6226806640625
1333,815.1282348632812,804.2490844726562,797.3992919921875,803.4432373046875
1334,811.098876953125,799.4139404296875,795.3846435546875,797.8021850585938
1335,810.2930297851562,796.996337890625,794.1758422851562,792.967041015625
1336,814.3223266601562,794.981689453125,795.3846435546875,796.5933837890625
1337,796.996337890625,788.1318969726562,793.3699340820312,792.967041015625
1338,789.3406372070312,786.5201416015625,790.1465454101562,788.5347900390625
1339,782.893798828125,791.3552856445312,784.908447265625,788.1318969726562
1340,783.6996459960938,791.7582397460938,786.5201416015625,785.3113403320312
1341,787.3259887695312,792.967041015625,791.7582397460938,785.3113403320312
1342,786.5201416015625,793.3699340820312,790.1465454101562,779.2673950195312
1343,790.952392578125,792.1611938476562,789.3406372070312,780.879150390625
1344,795.7875366210938,795.7875366210938,793.7728881835938,791.7582397460938
1345,803.8461303710938,798.6080322265625,795.7875366210938,791.7582397460938
1346,805.054931640625,796.1904907226562,793.7728881835938,795.3846435546875
1347,804.6520385742188,793.3699340820312,797.3992919921875,798.2051391601562
1348,803.8461303710938,793.3699340820312,794.5787353515625,805.4578857421875
1349,792.967041015625,792.5640869140625,791.7582397460938,814.3223266601562
1350,793.7728881835938,792.967041015625,794.1758422851562,804.6520385742188
1351,794.5787353515625,790.952392578125,793.3699340820312,793.7728881835938
1352,791.7582397460938,794.1758422851562,793.7728881835938,794.5787353515625
1353,798.2051391601562,794.1758422851562,795.7875366210938,793.7728881835938
1354,801.8314819335938,790.952392578125,796.1904907226562,780.879150390625
1355,796.1904907226562,792.967041015625,795.7875366210938,786.923095703125
1356,790.1465454101562,790.5494384765625,792.967041015625,786.1171875
1357,792.967041015625,792.5640869140625,794.1758422851562,778.05859375
1358,797.3992919921875,790.952392578125,794.5787353515625,786.923095703125
1359,808.2783813476562,783.6996459960938,793.7728881835938,798.6080322265625
1360,818.7545776367188,785.3113403320312,790.952392578125,812.7106323242188
1361,798.6080322265625,793.7728881835938,787.3259887695312,797.8021850585938
1362,782.4908447265625,799.4139404296875,784.908447265625,774.029296875
1363,788.5347900390625,798.6080322265625,785.7142944335938,772.8204956054688
1364,793.7728881835938,800.6226806640625,793.7728881835938,781.2820434570312
1365,794.1758422851562,801.8314819335938,794.1758422851562,789.3406372070312
1366,792.5640869140625,798.6080322265625,788.1318969726562,786.5201416015625
1367,791.7582397460938,794.981689453125,783.2966918945312,779.2673950195312
1368,788.937744140625,796.5933837890625,783.2966918945312,780.4761962890625
1369,790.1465454101562,794.1758422851562,785.7142944335938,783.6996459960938
1370,796.1904907226562,791.3552856445312,787.7289428710938,782.4908447265625
1371,795.7875366210938,793.7728881835938,789.3406372070312,793.7728881835938
1372,811.5018310546875,797.3992919921875,790.952392578125,804.6520385742188
1373,817.1428833007812,796.996337890625,790.1465454101562,801.4285888671875
1374,799.8168334960938,794.981689453125,791.7582397460938,801.025634765625
1375,796.5933837890625,797.8021850585938,796.5933837890625,805.4578857421875
1376,791.7582397460938,801.025634765625,800.6226806640625,801.4285888671875
1377,793.3699340820312,800.6226806640625,802.6373901367188,800.6226806640625
1378,797.3992919921875,797.3992919921875,800.6226806640625,799.010986328125
1379,807.069580078125,796.1904907226562,798.2051391601562,796.1904907226562
1380,807.4725341796875,796.5933837890625,800.2197875976562,801.025634765625
1381,797.8021850585938,799.010986328125,801.025634765625,803.040283203125
1382,803.8461303710938,802.6373901367188,803.8461303710938,804.2490844726562
1383,802.2344360351562,802.2344360351562,801.8314819335938,806.6666870117188
1384,791.7582397460938,800.6226806640625,796.1904907226562,803.4432373046875
1385,795.3846435546875,799.8168334960938,800.2197875976562,803.8461303710938
1386,800.2197875976562,799.4139404296875,799.8168334960938,810.2930297851562
1387,793.3699340820312,800.6226806640625,801.4285888671875,810.6959838867188
1388,793.7728881835938,801.8314819335938,803.8461303710938,803.4432373046875
1389,805.4578857421875,804.2490844726562,802.2344360351562,802.6373901367188
1390,806.6666870117188,807.069580078125,797.3992919921875,805.054931640625
1391,801.025634765625,806.6666870117188,792.5640869140625,803.4432373046875
1392,799.4139404296875,801.4285888671875,792.967041015625,796.1904907226562
1393,804.6520385742188,799.8168334960938,797.3992919921875,798.6080322265625
1394,809.89013671875,798.6080322265625,799.8168334960938,803.040283203125
1395,800.6226806640625,794.981689453125,797.3992919921875,796.5933837890625
1396,801.4285888671875,794.5787353515625,795.7875366210938,796.996337890625
1397,806.2637329101562,792.1611938476562,795.7875366210938,796.5933837890625
1398,802.2344360351562,790.952392578125,796.1904907226562,800.6226806640625
1399,801.8314819335938,792.967041015625,792.967041015625,803.8461303710938
1400,802.6373901367188,792.967041015625,799.4139404296875,804.2490844726562
1401,798.2051391601562,789.3406372070312,800.2197875976562,797.8021850585938
1402,801.025634765625,787.7289428710938,794.1758422851562,794.5787353515625
1403,802.6373901367188,791.7582397460938,792.1611938476562,797.3992919921875
1404,794.1758422851562,792.1611938476562,791.7582397460938,788.5347900390625
1405,791.7582397460938,789.7435913085938,791.7582397460938,787.3259887695312
1406,792.5640869140625,792.967041015625,792.1611938476562,789.3406372070312
1407,791.7582397460938,798.2051391601562,796.996337890625,789.7435913085938
1408,790.5494384765625,799.4139404296875,796.996337890625,786.5201416015625
1409,790.1465454101562,796.1904907226562,797.3992919921875,788.5347900390625
1410,790.1465454101562,793.3699340820312,795.7875366210938,792.967041015625
1411,795.7875366210938,793.3699340820312,792.5640869140625,788.937744140625
1412,795.3846435546875,797.3992919921875,793.3699340820312,787.3259887695312
1413,792.1611938476562,797.3992919921875,794.5787353515625,785.3113403320312
1414,798.2051391601562,799.010986328125,797.3992919921875,787.3259887695312
1415,800.2197875976562,799.4139404296875,797.8021850585938,789.3406372070312
1416,797.8021850585938,795.3846435546875,791.7582397460938,790.952392578125
1417,789.3406372070312,791.3552856445312,788.5347900390625,793.7728881835938
1418,788.5347900390625,790.5494384765625,790.5494384765625,796.996337890625
1419,797.8021850585938,788.5347900390625,790.952392578125,792.5640869140625
1420,792.967041015625,786.923095703125,791.3552856445312,785.7142944335938
1421,786.923095703125,790.1465454101562,791.7582397460938,792.1611938476562
1422,784.908447265625,793.3699340820312,795.7875366210938,791.3552856445312
1423,783.6996459960938,793.7728881835938,798.6080322265625,784.1025390625
1424,782.893798828125,790.952392578125,794.5787353515625,783.6996459960938
1425,784.1025390625,788.5347900390625,794.981689453125,782.087890625
1426,790.5494384765625,790.5494384765625,793.7728881835938,782.893798828125
1427,796.5933837890625,792.1611938476562,790.1465454101562,786.1171875
1428,792.967041015625,783.2966918945312,793.3699340820312,785.3113403320312
1429,795.7875366210938,781.6849975585938,791.7582397460938,786.923095703125
1430,797.8021850585938,787.7289428710938,796.5933837890625,789.3406372070312
1431,792.1611938476562,790.5494384765625,796.996337890625,790.1465454101562
1432,794.981689453125,791.3552856445312,789.3406372070312,786.923095703125
1433,784.1025390625,787.7289428710938,786.923095703125,789.7435913085938
1434,777.2527465820312,788.5347900390625,787.7289428710938,792.1611938476562
1435,789.3406372070312,787.7289428710938,788.5347900390625,791.3552856445312
1436,796.5933837890625,787.7289428710938,790.952392578125,794.981689453125
1437,788.937744140625,792.1611938476562,794.1758422851562,791.7582397460938
1438,780.0732421875,788.5347900390625,794.981689453125,788.1318969726562
1439,774.029296875,785.7142944335938,796.996337890625,789.3406372070312
1440,774.8351440429688,784.908447265625,795.3846435546875,787.3259887695312
1441,783.2966918945312,785.7142944335938,792.1611938476562,781.2820434570312
1442,787.3259887695312,788.5347900390625,792.967041015625,779.2673950195312
1443,786.5201416015625,783.6996459960938,793.3699340820312,784.908447265625
1444,792.967041015625,786.1171875,795.3846435546875,796.1904907226562
1445,797.3992919921875,791.3552856445312,794.1758422851562,801.8314819335938
1446,799.010986328125,790.1465454101562,792.967041015625,794.1758422851562
1447,807.87548828125,788.5347900390625,794.981689453125,794.5787353515625
1448,802.2344360351562,786.5201416015625,795.7875366210938,795.3846435546875
1449,791.3552856445312,780.0732421875,794.1758422851562,789.3406372070312
1450,790.952392578125,782.4908447265625,789.7435913085938,794.1758422851562
1451,791.7582397460938,789.7435913085938,794.1758422851562,801.025634765625
1452,788.5347900390625,788.5347900390625,792.967041015625,794.1758422851562
1453,789.3406372070312,790.1465454101562,791.3552856445312,787.3259887695312
1454,793.3699340820312,791.7582397460938,794.5787353515625,784.908447265625
1455,791.7582397460938,790.1465454101562,790.952392578125,788.1318969726562
1456,790.5494384765625,791.7582397460938,792.1611938476562,795.7875366210938
1457,796.5933837890625,795.3846435546875,794.1758422851562,791.3552856445312
1458,806.2637329101562,795.7875366210938,796.996337890625,789.7435913085938
1459,799.4139404296875,795.3846435546875,797.8021850585938,803.8461303710938
1460,794.1758422851562,800.2197875976562,795.3846435546875,806.2637329101562
1461,800.2197875976562,798.6080322265625,796.1904907226562,791.3552856445312
1462,801.025634765625,796.1904907226562,794.1758422851562,790.952392578125
1463,791.3552856445312,794.5787353515625,794.5787353515625,789.3406372070312
1464,788.5347900390625,792.5640869140625,796.1904907226562,784.5054931640625
1465,798.2051391601562,794.1758422851562,797.8021850585938,790.5494384765625
1466,791.7582397460938,794.5787353515625,799.4139404296875,797.3992919921875
1467,784.1025390625,796.996337890625,801.025634765625,805.8607788085938
1468,787.3259887695312,794.981689453125,800.2197875976562,809.084228515625
1469,784.908447265625,792.1611938476562,797.3992919921875,800.6226806640625
1470,788.1318969726562,794.1758422851562,796.996337890625,800.6226806640625
1471,790.5494384765625,790.952392578125,797.8021850585938,798.6080322265625
1472,787.3259887695312,783.6996459960938,791.3552856445312,789.7435913085938
1473,786.5201416015625,782.893798828125,782.087890625,790.952392578125
1474,783.6996459960938,783.2966918945312,780.0732421875,793.7728881835938
1475,776.4468994140625,782.893798828125,781.2820434570312,790.1465454101562
1476,786.923095703125,788.937744140625,786.5201416015625,791.3552856445312
1477,800.2197875976562,793.3699340820312,791.7582397460938,793.7728881835938
1478,794.5787353515625,793.7728881835938,791.3552856445312,800.2197875976562
1479,782.4908447265625,794.1758422851562,790.5494384765625,799.8168334960938
1480,781.2820434570312,793.3699340820312,790.952392578125,792.1611938476562
1481,791.7582397460938,792.1611938476562,791.3552856445312,789.7435913085938
1482,794.1758422851562,792.967041015625,789.3406372070312,790.952392578125
1483,796.5933837890625,796.1904907226562,788.937744140625,789.3406372070312
1484,787.3259887695312,790.952392578125,791.3552856445312,784.908447265625
1485,775.6410522460938,785.3113403320312,793.7728881835938,787.3259887695312
1486,780.0732421875,786.5201416015625,794.1758422851562,786.1171875
1487,785.7142944335938,790.952392578125,793.3699340820312,787.7289428710938
1488,784.5054931640625,796.1904907226562,791.3552856445312,790.952392578125
1489,782.893798828125,795.7875366210938,792.5640869140625,787.7289428710938
1490,784.5054931640625,795.3846435546875,796.1904907226562,799.8168334960938
1491,779.6703491210938,796.1904907226562,794.5787353515625,801.4285888671875
1492,780.879150390625,796.996337890625,789.7435913085938,786.5201416015625
1493,792.1611938476562,796.5933837890625,785.7142944335938,784.1025390625
1494,789.3406372070312,798.2051391601562,786.5201416015625,785.3113403320312
1495,780.4761962890625,794.981689453125,789.7435913085938,788.5347900390625
1496,796.5933837890625,793.7728881835938,787.7289428710938,793.3699340820312
1497,809.084228515625,796.996337890625,787.7289428710938,795.7875366210938
1498,803.4432373046875,799.8168334960938,789.3406372070312,798.2051391601562
1499,795.7875366210938,796.5933837890625,788.5347900390625,795.3846435546875
1500,795.7875366210938,793.7728881835938,793.3699340820312,794.981689453125
1501,801.025634765625,795.3846435546875,798.2051391601562,800.2197875976562
1502,803.8461303710938,788.5347900390625,794.5787353515625,799.4139404296875
1503,800.2197875976562,792.1611938476562,790.5494384765625,797.3992919921875
1504,797.8021850585938,798.6080322265625,786.923095703125,791.3552856445312
1505,805.8607788085938,800.2197875976562,787.7289428710938,800.2197875976562
1506,799.8168334960938,797.8021850585938,793.3699340820312,806.2637329101562
1507,794.5787353515625,793.7728881835938,794.5787353515625,799.010986328125
1508,796.5933837890625,792.5640869140625,790.5494384765625,796.1904907226562
1509,791.3552856445312,792.5640869140625,795.3846435546875,794.5787353515625
1510,786.923095703125,796.996337890625,798.2051391601562,791.7582397460938
1511,790.1465454101562,799.4139404296875,791.3552856445312,787.3259887695312
1512,793.3699340820312,796.5933837890625,793.3699340820312,788.5347900390625
1513,796.1904907226562,795.7875366210938,792.967041015625,789.7435913085938
1514,800.2197875976562,794.981689453125,788.937744140625,790.5494384765625
1515,791.3552856445312,792.967041015625,790.5494384765625,790.5494384765625
1516,787.3259887695312,793.3699340820312,788.5347900390625,786.5201416015625
1517,789.7435913085938,790.952392578125,787.3259887695312,782.893798828125
1518,794.5787353515625,798.6080322265625,791.7582397460938,792.1611938476562
1519,794.1758422851562,801.4285888671875,797.8021850585938,790.952392578125
1520,796.996337890625,798.6080322265625,800.6226806640625,784.908447265625
1521,796.1904907226562,799.010986328125,793.3699340820312,784.1025390625
1522,786.5201416015625,796.996337890625,788.5347900390625,778.4615478515625
1523,784.908447265625,797.3992919921875,790.1465454101562,782.4908447265625
1524,786.923095703125,799.010986328125,790.952392578125,786.923095703125
1525,785.7142944335938,802.2344360351562,791.7582397460938,783.6996459960938
1526,783.2966918945312,801.4285888671875,790.952392578125,784.1025390625
1527,786.5201416015625,798.2051391601562,789.7435913085938,784.908447265625
1528,790.1465454101562,799.4139404296875,788.5347900390625,790.1465454101562
1529,792.967041015625,801.025634765625,792.1611938476562,796.1904907226562
1530,791.7582397460938,799.010986328125,793.7728881835938,789.3406372070312
1531,789.3406372070312,796.5933837890625,791.3552856445312,784.908447265625
1532,794.5787353515625,795.3846435546875,791.7582397460938,789.7435913085938
1533,796.5933837890625,796.5933837890625,794.1758422851562,791.3552856445312
1534,794.1758422851562,796.5933837890625,792.967041015625,791.7582397460938
1535,794.1758422851562,793.3699340820312,790.952392578125,791.7582397460938
1536,790.1465454101562,791.7582397460938,789.7435913085938,783.6996459960938
1537,790.1465454101562,789.7435913085938,790.1465454101562,781.6849975585938
1538,794.5787353515625,788.5347900390625,791.3552856445312,785.3113403320312
1539,788.5347900390625,788.1318969726562,787.3259887695312,784.908447265625
1540,783.6996459960938,787.3259887695312,784.908447265625,790.5494384765625
1541,785.7142944335938,788.937744140625,788.1318969726562,786.5201416015625
1542,786.5201416015625,790.5494384765625,788.1318969726562,776.8497924804688
1543,788.937744140625,793.3699340820312,789.7435913085938,782.893798828125
1544,790.5494384765625,794.5787353515625,789.7435913085938,783.2966918945312
1545,790.1465454101562,794.5787353515625,788.5347900390625,780.4761962890625
1546,789.7435913085938,798.2051391601562,790.952392578125,783.2966918945312
1547,792.1611938476562,795.7875366210938,792.1611938476562,788.5347900390625
1548,790.5494384765625,792.967041015625,791.3552856445312,794.1758422851562
1549,794.1758422851562,799.8168334960938,794.5787353515625,797.8021850585938
1550,795.3846435546875,802.2344360351562,796.1904907226562,799.010986328125
1551,789.7435913085938,798.6080322265625,790.5494384765625,799.010986328125
1552,790.1465454101562,796.1904907226562,788.5347900390625,803.4432373046875
1553,784.1025390625,792.5640869140625,788.937744140625,798.6080322265625
1554,782.893798828125,792.1611938476562,789.7435913085938,797.8021850585938
1555,780.879150390625,789.3406372070312,791.7582397460938,796.996337890625
1556,782.087890625,787.7289428710938,791.3552856445312,794.1758422851562
1557,786.1171875,788.1318969726562,788.5347900390625,793.3699340820312
1558,788.937744140625,788.1318969726562,789.3406372070312,791.3552856445312
1559,790.5494384765625,788.937744140625,789.3406372070312,797.3992919921875
1560,787.3259887695312,788.5347900390625,786.5201416015625,795.3846435546875
1561,787.7289428710938,788.1318969726562,787.3259887695312,789.3406372070312
1562,788.5347900390625,789.3406372070312,788.937744140625,788.937744140625
1563,790.952392578125,787.7289428710938,790.1465454101562,792.5640869140625
1564,794.1758422851562,784.908447265625,787.7289428710938,786.923095703125
1565,799.8168334960938,789.3406372070312,789.7435913085938,786.923095703125
1566,797.8021850585938,793.7728881835938,791.7582397460938,795.7875366210938
1567,792.967041015625,796.1904907226562,790.1465454101562,792.5640869140625
1568,796.5933837890625,797.3992919921875,791.3552856445312,796.5933837890625
1569,799.010986328125,795.7875366210938,792.1611938476562,797.3992919921875
1570,796.1904907226562,794.1758422851562,794.981689453125,797.8021850585938
1571,799.8168334960938,797.3992919921875,798.2051391601562,797.3992919921875
1572,794.5787353515625,799.8168334960938,799.010986328125,790.952392578125
1573,785.7142944335938,796.5933837890625,798.2051391601562,789.7435913085938
1574,791.7582397460938,793.3699340820312,798.6080322265625,786.923095703125
1575,791.3552856445312,792.967041015625,801.025634765625,788.937744140625
1576,784.5054931640625,792.5640869140625,797.8021850585938,784.5054931640625
1577,784.1025390625,791.7582397460938,797.8021850585938,774.8351440429688
1578,789.3406372070312,795.7875366210938,798.6080322265625,782.893798828125
1579,790.1465454101562,795.3846435546875,793.3699340820312,781.6849975585938
1580,790.952392578125,790.952392578125,796.1904907226562,780.4761962890625
1581,784.5054931640625,788.937744140625,794.1758422851562,779.2673950195312
1582,778.8644409179688,790.952392578125,793.3699340820312,775.6410522460938
1583,787.7289428710938,794.5787353515625,790.952392578125,777.6557006835938
1584,787.3259887695312,794.981689453125,782.4908447265625,775.6410522460938
1585,782.087890625,794.981689453125,783.6996459960938,775.2380981445312
