timestamp,RAW_TP9,RAW_AF7,RAW_AF8,RAW_TP10
1,676.1171875,787.7289428710938,857.8388061523438,691.8314819335938
2,688.6080322265625,786.1171875,859.4505615234375,698.6813354492188
3,699.4871826171875,784.1025390625,858.2417602539062,710.7692260742188
4,707.94873046875,783.6996459960938,852.1978149414062,720.8424682617188
5,716.00732421875,778.8644409179688,849.7802124023438,735.7509155273438
6,718.4249267578125,782.087890625,849.7802124023438,745.4212646484375
7,728.4981689453125,786.5201416015625,844.5421142578125,754.2857055664062
8,740.5860595703125,783.6996459960938,846.959716796875,763.1502075195312
9,754.6886596679688,780.4761962890625,842.930419921875,776.0439453125
10,775.2380981445312,779.2673950195312,834.8717651367188,798.2051391601562
11,788.5347900390625,773.2234497070312,837.2893676757812,804.2490844726562
12,796.996337890625,777.2527465820312,826.4102783203125,804.2490844726562
13,810.6959838867188,784.5054931640625,814.3223266601562,811.90478515625
14,816.7399291992188,780.879150390625,812.3076782226562,820.3662719726562
15,811.098876953125,780.4761962890625,809.4871826171875,819.96337890625
16,812.3076782226562,774.4322509765625,805.8607788085938,828.02197265625
17,823.99267578125,770.8058471679688,800.6226806640625,841.3186645507812
18,828.8278198242188,772.8204956054688,799.8168334960938,843.3333129882812
19,826.00732421875,772.0146484375,800.6226806640625,850.989013671875
20,839.7069702148438,770.8058471679688,801.025634765625,863.4798583984375
21,854.2124633789062,770.8058471679688,799.4139404296875,867.912109375
22,861.062255859375,775.6410522460938,794.1758422851562,866.7033081054688
23,858.6447143554688,776.8497924804688,793.3699340820312,867.5091552734375
24,859.4505615234375,773.2234497070312,789.7435913085938,873.9560546875
25,863.076904296875,770.8058471679688,786.1171875,877.1795043945312
26,857.032958984375,770.8058471679688,787.7289428710938,871.94140625
27,863.8828125,775.2380981445312,785.3113403320312,869.5238037109375
28,867.106201171875,778.05859375,778.05859375,870.7326049804688
29,860.6593627929688,781.6849975585938,780.879150390625,871.1355590820312
30,857.8388061523438,782.087890625,783.2966918945312,866.7033081054688
31,858.2417602539062,780.879150390625,782.087890625,864.2857055664062
32,864.6886596679688,784.1025390625,781.2820434570312,875.1648559570312
33,861.4652099609375,784.908447265625,775.6410522460938,874.3589477539062
34,859.8534545898438,781.6849975585938,776.0439453125,866.7033081054688
35,863.8828125,780.4761962890625,773.6264038085938,868.7179565429688
36,863.076904296875,782.4908447265625,772.8204956054688,871.1355590820312
37,860.2564086914062,789.3406372070312,776.4468994140625,869.9267578125
38,859.8534545898438,790.952392578125,779.2673950195312,863.8828125
39,860.6593627929688,790.952392578125,778.8644409179688,857.032958984375
40,862.6740112304688,792.1611938476562,779.2673950195312,850.989013671875
41,861.4652099609375,789.3406372070312,780.879150390625,848.5714111328125
42,853.4066162109375,788.1318969726562,776.4468994140625,845.3479614257812
43,851.7948608398438,788.937744140625,780.4761962890625,845.7509155273438
44,854.6153564453125,789.7435913085938,784.1025390625,847.7655639648438
45,856.2271118164062,792.5640869140625,779.6703491210938,846.959716796875
46,850.989013671875,792.1611938476562,780.0732421875,842.5274658203125
47,842.12451171875,790.5494384765625,782.087890625,836.4835205078125
48,837.2893676757812,789.7435913085938,778.4615478515625,838.09521484375
49,834.06591796875,786.5201416015625,778.05859375,841.3186645507812
50,835.6776733398438,788.1318969726562,777.2527465820312,838.901123046875
51,836.4835205078125,790.1465454101562,777.2527465820312,831.2454223632812
52,828.8278198242188,787.7289428710938,777.6557006835938,823.1868286132812
53,825.2014770507812,784.908447265625,778.4615478515625,821.97802734375
54,832.4542236328125,787.7289428710938,777.6557006835938,830.03662109375
55,831.6483764648438,786.923095703125,778.4615478515625,836.4835205078125
56,824.7985229492188,782.4908447265625,780.879150390625,826.8131713867188
57,818.7545776367188,782.4908447265625,776.0439453125,813.113525390625
58,817.5457763671875,784.5054931640625,776.0439453125,804.2490844726562
59,820.3662719726562,790.5494384765625,778.8644409179688,805.054931640625
60,819.1575317382812,791.3552856445312,782.4908447265625,808.6813354492188
61,818.7545776367188,791.3552856445312,782.4908447265625,810.2930297851562
62,819.96337890625,793.3699340820312,780.0732421875,807.87548828125
63,821.97802734375,793.3699340820312,782.893798828125,809.084228515625
64,822.3809814453125,792.967041015625,786.923095703125,811.5018310546875
65,823.99267578125,791.7582397460938,785.7142944335938,809.89013671875
66,823.99267578125,794.5787353515625,785.7142944335938,815.1282348632812
67,824.3956298828125,796.5933837890625,790.1465454101562,821.5750732421875
68,821.1721801757812,798.2051391601562,793.3699340820312,823.1868286132812
69,815.1282348632812,798.6080322265625,795.3846435546875,821.97802734375
70,817.94873046875,792.1611938476562,791.7582397460938,816.7399291992188
71,821.1721801757812,792.967041015625,793.3699340820312,813.113525390625
72,819.1575317382812,797.8021850585938,792.1611938476562,804.2490844726562
73,814.7252807617188,793.3699340820312,788.1318969726562,803.040283203125
74,806.6666870117188,792.5640869140625,788.5347900390625,808.6813354492188
75,809.89013671875,795.7875366210938,790.5494384765625,808.2783813476562
76,810.2930297851562,794.1758422851562,788.1318969726562,796.996337890625
77,801.8314819335938,794.5787353515625,789.3406372070312,791.7582397460938
78,799.8168334960938,796.1904907226562,789.7435913085938,797.3992919921875
79,798.2051391601562,794.1758422851562,786.1171875,797.8021850585938
80,801.025634765625,792.5640869140625,788.937744140625,798.6080322265625
81,799.4139404296875,790.952392578125,790.1465454101562,801.8314819335938
82,797.8021850585938,790.952392578125,790.1465454101562,803.4432373046875
83,797.3992919921875,791.7582397460938,792.967041015625,801.8314819335938
84,795.7875366210938,789.7435913085938,794.5787353515625,794.1758422851562
85,808.6813354492188,792.967041015625,798.6080322265625,792.967041015625
86,811.098876953125,793.3699340820312,797.8021850585938,793.3699340820312
87,803.8461303710938,791.3552856445312,796.1904907226562,790.1465454101562
88,796.1904907226562,790.5494384765625,794.1758422851562,795.3846435546875
89,788.5347900390625,788.5347900390625,790.952392578125,799.010986328125
90,796.1904907226562,789.7435913085938,792.1611938476562,797.3992919921875
91,801.8314819335938,794.981689453125,797.3992919921875,802.2344360351562
92,797.3992919921875,794.5787353515625,797.8021850585938,801.025634765625
93,793.7728881835938,790.952392578125,795.3846435546875,797.8021850585938
94,789.3406372070312,789.3406372070312,792.5640869140625,803.4432373046875
95,787.7289428710938,790.5494384765625,792.1611938476562,799.010986328125
96,792.5640869140625,791.7582397460938,791.7582397460938,798.2051391601562
97,799.8168334960938,792.1611938476562,794.1758422851562,796.996337890625
98,802.6373901367188,794.981689453125,798.6080322265625,792.1611938476562
99,799.4139404296875,796.5933837890625,798.6080322265625,789.7435913085938
100,794.981689453125,796.5933837890625,803.040283203125,792.1611938476562
101,791.3552856445312,797.8021850585938,805.8607788085938,799.4139404296875
102,794.981689453125,792.5640869140625,799.8168334960938,792.967041015625
103,795.7875366210938,791.7582397460938,792.1611938476562,789.7435913085938
104,792.5640869140625,794.1758422851562,793.7728881835938,792.5640869140625
105,794.1758422851562,794.1758422851562,792.5640869140625,792.967041015625
106,790.5494384765625,793.3699340820312,790.1465454101562,794.1758422851562
107,790.1465454101562,791.7582397460938,790.1465454101562,790.5494384765625
108,790.952392578125,790.952392578125,792.967041015625,789.3406372070312
109,788.5347900390625,788.1318969726562,794.1758422851562,787.3259887695312
110,786.1171875,783.6996459960938,790.5494384765625,782.893798828125
111,790.952392578125,783.6996459960938,792.1611938476562,784.908447265625
112,792.1611938476562,784.5054931640625,790.952392578125,783.2966918945312
113,786.1171875,786.923095703125,792.1611938476562,782.4908447265625
114,788.1318969726562,787.7289428710938,793.3699340820312,787.7289428710938
115,787.7289428710938,786.923095703125,792.1611938476562,788.937744140625
116,792.5640869140625,789.7435913085938,792.967041015625,793.3699340820312
117,794.5787353515625,790.952392578125,793.3699340820312,794.1758422851562
118,786.923095703125,788.1318969726562,790.952392578125,784.908447265625
119,792.5640869140625,789.3406372070312,790.952392578125,786.1171875
120,796.5933837890625,794.981689453125,795.3846435546875,793.3699340820312
121,792.5640869140625,795.7875366210938,794.5787353515625,794.5787353515625
122,792.5640869140625,792.967041015625,791.7582397460938,790.952392578125
123,792.1611938476562,791.3552856445312,792.1611938476562,791.3552856445312
124,790.5494384765625,792.1611938476562,793.7728881835938,788.1318969726562
125,790.952392578125,790.952392578125,791.3552856445312,780.879150390625
126,790.5494384765625,794.1758422851562,792.5640869140625,784.1025390625
127,785.7142944335938,797.8021850585938,796.5933837890625,784.5054931640625
128,779.2673950195312,794.1758422851562,791.7582397460938,783.2966918945312
129,780.0732421875,797.8021850585938,793.7728881835938,787.3259887695312
130,784.908447265625,803.040283203125,800.6226806640625,783.6996459960938
131,784.1025390625,799.010986328125,797.8021850585938,780.879150390625
132,784.5054931640625,796.996337890625,795.7875366210938,784.908447265625
133,786.1171875,797.8021850585938,800.6226806640625,785.3113403320312
134,786.5201416015625,794.981689453125,801.4285888671875,786.5201416015625
135,793.7728881835938,794.5787353515625,801.4285888671875,790.5494384765625
136,799.4139404296875,798.2051391601562,801.8314819335938,788.5347900390625
137,793.7728881835938,797.8021850585938,799.010986328125,784.5054931640625
138,786.1171875,792.967041015625,796.996337890625,785.7142944335938
139,780.4761962890625,788.937744140625,794.5787353515625,784.1025390625
140,782.893798828125,792.1611938476562,794.1758422851562,798.2051391601562
141,785.7142944335938,793.7728881835938,796.1904907226562,795.3846435546875
142,790.952392578125,790.1465454101562,795.3846435546875,782.893798828125
143,789.3406372070312,789.7435913085938,796.5933837890625,787.7289428710938
144,775.6410522460938,792.5640869140625,796.1904907226562,786.1171875
145,781.6849975585938,793.3699340820312,794.5787353515625,794.981689453125
146,792.1611938476562,794.1758422851562,798.6080322265625,806.2637329101562
147,790.952392578125,795.7875366210938,798.6080322265625,804.2490844726562
148,792.967041015625,797.8021850585938,799.010986328125,801.4285888671875
149,795.3846435546875,798.2051391601562,799.010986328125,802.2344360351562
150,799.010986328125,798.2051391601562,802.6373901367188,807.069580078125
151,801.8314819335938,799.8168334960938,807.069580078125,806.6666870117188
152,801.8314819335938,798.2051391601562,801.8314819335938,799.8168334960938
153,801.4285888671875,799.010986328125,801.025634765625,800.2197875976562
154,800.2197875976562,799.8168334960938,803.8461303710938,805.4578857421875
155,794.5787353515625,796.1904907226562,802.2344360351562,802.6373901367188
156,794.1758422851562,794.5787353515625,799.4139404296875,798.2051391601562
157,801.025634765625,794.5787353515625,800.2197875976562,796.5933837890625
158,803.8461303710938,796.1904907226562,800.6226806640625,799.4139404296875
159,795.3846435546875,792.5640869140625,796.996337890625,792.5640869140625
160,792.1611938476562,788.1318969726562,795.3846435546875,782.893798828125
161,796.996337890625,791.7582397460938,794.5787353515625,782.087890625
162,797.8021850585938,792.5640869140625,795.7875366210938,789.7435913085938
163,795.3846435546875,792.5640869140625,799.8168334960938,796.996337890625
164,790.952392578125,793.7728881835938,798.2051391601562,794.981689453125
165,790.952392578125,789.7435913085938,796.996337890625,791.3552856445312
166,794.5787353515625,785.7142944335938,801.4285888671875,795.7875366210938
167,793.3699340820312,787.7289428710938,800.2197875976562,802.6373901367188
168,791.3552856445312,788.5347900390625,799.4139404296875,795.7875366210938
169,791.3552856445312,784.5054931640625,798.6080322265625,787.7289428710938
170,786.923095703125,781.6849975585938,794.981689453125,786.923095703125
171,788.5347900390625,783.6996459960938,794.981689453125,788.1318969726562
172,796.5933837890625,789.3406372070312,796.1904907226562,793.7728881835938
173,797.3992919921875,790.1465454101562,798.2051391601562,792.1611938476562
174,796.1904907226562,786.5201416015625,795.7875366210938,792.967041015625
175,796.996337890625,788.5347900390625,793.3699340820312,794.5787353515625
176,795.7875366210938,791.3552856445312,795.3846435546875,794.1758422851562
177,800.6226806640625,788.5347900390625,790.952392578125,797.3992919921875
178,803.4432373046875,785.3113403320312,788.1318969726562,796.996337890625
179,799.010986328125,788.937744140625,789.3406372070312,790.952392578125
180,803.040283203125,794.981689453125,791.7582397460938,794.5787353515625
181,803.4432373046875,796.996337890625,792.1611938476562,797.8021850585938
182,799.8168334960938,799.8168334960938,789.3406372070312,799.010986328125
183,805.054931640625,800.6226806640625,792.5640869140625,802.2344360351562
184,806.2637329101562,797.3992919921875,790.5494384765625,796.5933837890625
185,804.2490844726562,799.4139404296875,789.7435913085938,794.1758422851562
186,803.8461303710938,803.4432373046875,790.952392578125,795.7875366210938
187,805.8607788085938,803.4432373046875,788.5347900390625,796.5933837890625
188,808.2783813476562,798.2051391601562,788.1318969726562,797.3992919921875
189,805.4578857421875,795.7875366210938,786.1171875,798.6080322265625
190,799.8168334960938,796.5933837890625,785.7142944335938,803.040283203125
191,792.5640869140625,795.7875366210938,789.3406372070312,802.6373901367188
192,793.3699340820312,790.952392578125,791.7582397460938,799.010986328125
193,796.1904907226562,789.7435913085938,792.1611938476562,791.3552856445312
194,788.937744140625,788.937744140625,792.967041015625,783.6996459960938
195,791.7582397460938,782.893798828125,797.8021850585938,786.1171875
196,792.5640869140625,785.7142944335938,796.5933837890625,782.893798828125
197,788.5347900390625,789.7435913085938,794.1758422851562,778.4615478515625
198,789.3406372070312,785.3113403320312,794.981689453125,781.6849975585938
199,784.908447265625,784.1025390625,793.7728881835938,783.6996459960938
200,778.8644409179688,783.6996459960938,793.7728881835938,784.1025390625
201,777.2527465820312,785.3113403320312,795.7875366210938,788.5347900390625
202,779.2673950195312,789.7435913085938,796.5933837890625,788.937744140625
203,781.6849975585938,792.967041015625,798.6080322265625,785.3113403320312
204,784.5054931640625,790.952392578125,792.967041015625,782.4908447265625
205,790.1465454101562,790.952392578125,785.3113403320312,777.6557006835938
206,786.5201416015625,795.3846435546875,784.908447265625,774.4322509765625
207,786.1171875,797.3992919921875,785.7142944335938,774.4322509765625
208,793.3699340820312,799.4139404296875,783.2966918945312,777.6557006835938
209,795.3846435546875,799.010986328125,780.4761962890625,779.2673950195312
210,801.4285888671875,798.6080322265625,782.893798828125,780.879150390625
211,802.6373901367188,801.025634765625,789.3406372070312,785.3113403320312
212,799.4139404296875,796.5933837890625,792.1611938476562,794.1758422851562
213,798.6080322265625,793.7728881835938,790.1465454101562,807.069580078125
214,797.3992919921875,797.3992919921875,792.1611938476562,807.4725341796875
215,802.6373901367188,801.4285888671875,798.2051391601562,803.4432373046875
216,805.4578857421875,801.025634765625,796.996337890625,805.4578857421875
217,801.025634765625,798.6080322265625,797.8021850585938,803.4432373046875
218,795.7875366210938,794.5787353515625,796.1904907226562,798.6080322265625
219,798.6080322265625,795.7875366210938,792.967041015625,801.025634765625
220,796.1904907226562,797.8021850585938,797.8021850585938,800.2197875976562
221,786.5201416015625,799.010986328125,799.4139404296875,795.3846435546875
222,778.4615478515625,795.3846435546875,798.6080322265625,790.1465454101562
223,778.8644409179688,793.3699340820312,795.3846435546875,787.3259887695312
224,781.2820434570312,793.3699340820312,796.1904907226562,797.3992919921875
225,777.6557006835938,791.3552856445312,796.1904907226562,798.6080322265625
226,778.4615478515625,790.5494384765625,797.3992919921875,782.087890625
227,776.4468994140625,794.1758422851562,794.5787353515625,781.6849975585938
228,774.4322509765625,792.1611938476562,791.3552856445312,784.908447265625
229,778.05859375,786.1171875,792.5640869140625,781.6849975585938
230,781.6849975585938,788.937744140625,795.3846435546875,785.7142944335938
231,780.0732421875,791.7582397460938,801.8314819335938,787.7289428710938
232,779.6703491210938,789.3406372070312,797.3992919921875,782.893798828125
233,780.879150390625,786.923095703125,793.3699340820312,777.6557006835938
234,784.1025390625,788.5347900390625,795.7875366210938,779.6703491210938
235,785.3113403320312,792.1611938476562,795.3846435546875,788.937744140625
236,779.6703491210938,788.937744140625,794.981689453125,787.3259887695312
237,780.4761962890625,789.7435913085938,794.5787353515625,783.2966918945312
238,780.4761962890625,790.5494384765625,791.3552856445312,783.6996459960938
239,784.5054931640625,790.5494384765625,790.952392578125,787.3259887695312
240,798.6080322265625,794.5787353515625,791.7582397460938,792.1611938476562
241,806.6666870117188,797.8021850585938,794.5787353515625,793.3699340820312
242,802.2344360351562,799.010986328125,794.1758422851562,797.3992919921875
243,798.2051391601562,796.1904907226562,794.981689453125,798.6080322265625
244,803.4432373046875,797.3992919921875,799.8168334960938,802.2344360351562
245,803.8461303710938,801.025634765625,807.4725341796875,810.6959838867188
246,798.6080322265625,801.8314819335938,811.5018310546875,807.069580078125
247,796.1904907226562,795.7875366210938,808.2783813476562,805.4578857421875
248,788.5347900390625,794.1758422851562,811.5018310546875,807.4725341796875
249,788.5347900390625,794.981689453125,816.3369750976562,803.4432373046875
250,789.3406372070312,792.1611938476562,811.098876953125,796.996337890625
251,780.879150390625,790.952392578125,805.054931640625,789.3406372070312
252,779.2673950195312,792.5640869140625,804.2490844726562,788.5347900390625
253,776.8497924804688,790.5494384765625,805.054931640625,784.1025390625
254,778.4615478515625,787.7289428710938,805.8607788085938,781.2820434570312
255,781.6849975585938,787.7289428710938,805.8607788085938,780.879150390625
256,778.05859375,791.7582397460938,804.6520385742188,775.2380981445312
257,778.05859375,790.5494384765625,802.6373901367188,771.6116943359375
258,784.908447265625,791.3552856445312,804.2490844726562,779.2673950195312
259,789.7435913085938,796.996337890625,804.6520385742188,785.7142944335938
260,788.5347900390625,797.3992919921875,801.025634765625,786.1171875
261,787.7289428710938,796.5933837890625,791.7582397460938,786.923095703125
262,790.5494384765625,797.8021850585938,790.5494384765625,786.5201416015625
263,790.952392578125,795.3846435546875,793.7728881835938,790.1465454101562
264,794.1758422851562,793.7728881835938,791.7582397460938,792.967041015625
265,803.040283203125,792.5640869140625,792.5640869140625,789.7435913085938
266,801.025634765625,793.3699340820312,790.5494384765625,787.3259887695312
267,790.952392578125,792.967041015625,789.7435913085938,786.923095703125
268,782.893798828125,792.967041015625,794.1758422851562,786.923095703125
269,779.6703491210938,791.7582397460938,794.981689453125,786.923095703125
270,783.2966918945312,789.7435913085938,794.1758422851562,793.7728881835938
271,786.1171875,788.5347900390625,792.967041015625,797.3992919921875
272,782.087890625,787.7289428710938,792.967041015625,790.1465454101562
273,784.908447265625,790.1465454101562,790.952392578125,790.1465454101562
274,784.908447265625,788.937744140625,790.952392578125,792.967041015625
275,781.2820434570312,789.7435913085938,791.3552856445312,792.967041015625
276,785.3113403320312,787.7289428710938,791.3552856445312,788.5347900390625
277,783.2966918945312,786.5201416015625,794.5787353515625,780.879150390625
278,783.6996459960938,788.937744140625,794.981689453125,778.8644409179688
279,788.937744140625,790.952392578125,799.8168334960938,783.6996459960938
280,788.1318969726562,792.5640869140625,796.5933837890625,783.6996459960938
281,784.1025390625,788.937744140625,794.981689453125,779.6703491210938
282,786.5201416015625,788.1318969726562,796.996337890625,776.4468994140625
283,790.1465454101562,788.1318969726562,795.7875366210938,776.0439453125
284,786.1171875,786.923095703125,795.3846435546875,778.05859375
285,788.937744140625,788.5347900390625,792.967041015625,787.7289428710938
286,790.5494384765625,791.3552856445312,792.967041015625,794.1758422851562
287,787.7289428710938,793.7728881835938,793.7728881835938,788.5347900390625
288,795.7875366210938,796.5933837890625,793.3699340820312,786.923095703125
289,792.967041015625,791.3552856445312,790.5494384765625,788.5347900390625
290,784.908447265625,787.7289428710938,792.967041015625,790.1465454101562
291,789.7435913085938,794.1758422851562,794.5787353515625,794.5787353515625
292,795.3846435546875,798.2051391601562,795.3846435546875,799.4139404296875
293,792.967041015625,799.8168334960938,796.996337890625,798.6080322265625
294,791.7582397460938,801.4285888671875,794.981689453125,793.7728881835938
295,799.010986328125,800.2197875976562,793.3699340820312,793.3699340820312
296,799.8168334960938,797.3992919921875,792.1611938476562,792.967041015625
297,786.923095703125,795.7875366210938,788.937744140625,785.3113403320312
298,782.4908447265625,797.3992919921875,789.3406372070312,784.5054931640625
299,786.923095703125,799.4139404296875,794.1758422851562,784.908447265625
300,789.3406372070312,798.6080322265625,792.5640869140625,786.923095703125
301,794.1758422851562,796.1904907226562,790.952392578125,792.967041015625
302,792.967041015625,796.996337890625,791.3552856445312,790.952392578125
303,781.6849975585938,795.3846435546875,789.3406372070312,785.3113403320312
304,771.2088012695312,790.5494384765625,787.3259887695312,783.2966918945312
305,767.9853515625,794.1758422851562,788.5347900390625,784.1025390625
306,775.6410522460938,795.7875366210938,790.5494384765625,788.5347900390625
307,785.3113403320312,795.3846435546875,792.5640869140625,790.952392578125
308,784.5054931640625,793.7728881835938,792.967041015625,792.1611938476562
309,786.5201416015625,794.981689453125,796.1904907226562,798.6080322265625
310,790.1465454101562,799.4139404296875,799.4139404296875,794.981689453125
311,794.5787353515625,794.981689453125,798.6080322265625,790.5494384765625
312,794.1758422851562,790.952392578125,797.8021850585938,799.010986328125
313,788.1318969726562,792.5640869140625,796.1904907226562,797.8021850585938
314,796.1904907226562,792.5640869140625,794.981689453125,793.3699340820312
315,803.8461303710938,792.1611938476562,792.967041015625,794.1758422851562
316,798.6080322265625,794.1758422851562,795.7875366210938,796.996337890625
317,790.5494384765625,794.5787353515625,797.8021850585938,788.937744140625
318,788.5347900390625,799.010986328125,793.3699340820312,784.1025390625
319,792.5640869140625,799.010986328125,794.5787353515625,790.5494384765625
320,794.1758422851562,795.3846435546875,795.3846435546875,797.3992919921875
321,796.996337890625,794.1758422851562,799.4139404296875,796.996337890625
322,797.3992919921875,796.1904907226562,800.6226806640625,791.3552856445312
323,795.3846435546875,804.2490844726562,800.2197875976562,791.3552856445312
324,792.1611938476562,804.2490844726562,799.4139404296875,787.3259887695312
325,789.7435913085938,799.010986328125,794.1758422851562,786.923095703125
326,791.7582397460938,798.6080322265625,789.3406372070312,784.908447265625
327,792.967041015625,799.8168334960938,788.5347900390625,784.5054931640625
328,792.1611938476562,796.5933837890625,785.3113403320312,786.1171875
329,788.5347900390625,793.7728881835938,782.087890625,782.893798828125
330,786.923095703125,794.981689453125,785.3113403320312,781.2820434570312
331,788.5347900390625,795.7875366210938,791.3552856445312,781.6849975585938
332,789.3406372070312,797.3992919921875,791.7582397460938,786.1171875
333,785.7142944335938,799.8168334960938,789.3406372070312,785.7142944335938
334,776.8497924804688,796.996337890625,792.1611938476562,786.923095703125
335,776.8497924804688,800.6226806640625,796.1904907226562,790.952392578125
336,778.4615478515625,806.2637329101562,794.981689453125,790.1465454101562
337,773.2234497070312,803.040283203125,791.3552856445312,789.3406372070312
338,778.05859375,799.4139404296875,793.7728881835938,788.5347900390625
339,779.2673950195312,798.2051391601562,796.996337890625,789.7435913085938
340,776.4468994140625,797.8021850585938,797.8021850585938,786.1171875
341,775.2380981445312,795.7875366210938,792.967041015625,776.4468994140625
342,776.0439453125,793.7728881835938,792.5640869140625,776.4468994140625
343,784.1025390625,796.5933837890625,799.8168334960938,787.7289428710938
344,782.893798828125,796.1904907226562,801.8314819335938,790.952392578125
345,780.4761962890625,793.7728881835938,799.010986328125,784.908447265625
346,780.879150390625,792.5640869140625,797.3992919921875,781.6849975585938
347,781.2820434570312,792.967041015625,794.981689453125,788.5347900390625
348,782.893798828125,793.7728881835938,793.7728881835938,793.3699340820312
349,787.7289428710938,794.5787353515625,799.8168334960938,794.1758422851562
350,788.937744140625,793.3699340820312,801.4285888671875,795.3846435546875
351,787.7289428710938,788.1318969726562,795.7875366210938,794.981689453125
352,795.7875366210938,787.3259887695312,798.6080322265625,795.7875366210938
353,801.8314819335938,788.1318969726562,802.6373901367188,794.1758422851562
354,799.8168334960938,790.5494384765625,798.2051391601562,793.3699340820312
355,796.1904907226562,793.7728881835938,794.5787353515625,788.1318969726562
356,796.996337890625,796.1904907226562,797.3992919921875,785.7142944335938
357,791.7582397460938,796.996337890625,799.010986328125,788.5347900390625
358,792.1611938476562,795.7875366210938,794.5787353515625,793.3699340820312
359,797.8021850585938,796.996337890625,799.010986328125,797.8021850585938
360,792.1611938476562,790.5494384765625,800.6226806640625,793.3699340820312
361,790.952392578125,792.5640869140625,796.996337890625,790.952392578125
362,788.937744140625,792.1611938476562,794.981689453125,795.7875366210938
363,787.7289428710938,787.3259887695312,790.1465454101562,794.1758422851562
364,793.7728881835938,790.5494384765625,794.5787353515625,788.937744140625
365,791.7582397460938,793.3699340820312,798.6080322265625,792.967041015625
366,791.3552856445312,790.5494384765625,798.6080322265625,798.2051391601562
367,793.7728881835938,790.5494384765625,801.025634765625,793.3699340820312
368,791.3552856445312,796.1904907226562,801.025634765625,786.923095703125
369,792.967041015625,796.5933837890625,805.8607788085938,787.7289428710938
370,790.952392578125,797.8021850585938,809.4871826171875,799.010986328125
371,787.3259887695312,795.7875366210938,803.040283203125,803.040283203125
372,788.1318969726562,791.7582397460938,800.2197875976562,796.5933837890625
373,786.5201416015625,790.5494384765625,799.8168334960938,790.5494384765625
374,787.7289428710938,788.1318969726562,796.996337890625,782.4908447265625
375,791.3552856445312,785.7142944335938,797.8021850585938,782.893798828125
376,792.967041015625,790.1465454101562,797.3992919921875,786.1171875
377,794.5787353515625,793.3699340820312,794.981689453125,783.6996459960938
378,799.8168334960938,798.6080322265625,796.1904907226562,788.5347900390625
379,798.6080322265625,802.6373901367188,800.2197875976562,791.7582397460938
380,802.2344360351562,807.87548828125,805.054931640625,792.1611938476562
381,800.2197875976562,804.6520385742188,801.8314819335938,792.5640869140625
382,794.981689453125,802.2344360351562,800.2197875976562,799.4139404296875
383,797.3992919921875,809.084228515625,799.8168334960938,796.1904907226562
384,796.996337890625,803.8461303710938,794.5787353515625,784.1025390625
385,793.7728881835938,801.4285888671875,786.1171875,785.7142944335938
386,792.5640869140625,803.040283203125,788.1318969726562,793.7728881835938
387,799.4139404296875,804.6520385742188,796.996337890625,794.5787353515625
388,803.040283203125,804.2490844726562,794.5787353515625,789.3406372070312
389,801.025634765625,797.3992919921875,789.3406372070312,788.937744140625
390,803.8461303710938,796.996337890625,788.5347900390625,787.7289428710938
391,800.6226806640625,796.996337890625,791.3552856445312,784.1025390625
392,794.1758422851562,793.3699340820312,794.5787353515625,784.1025390625
393,794.1758422851562,791.7582397460938,791.7582397460938,784.908447265625
394,791.7582397460938,789.3406372070312,790.1465454101562,788.937744140625
395,779.2673950195312,786.5201416015625,790.5494384765625,788.937744140625
396,775.6410522460938,785.3113403320312,788.1318969726562,787.3259887695312
397,783.6996459960938,786.923095703125,794.5787353515625,792.967041015625
398,787.7289428710938,792.1611938476562,800.2197875976562,799.4139404296875
399,792.1611938476562,795.3846435546875,799.010986328125,796.996337890625
400,791.7582397460938,794.1758422851562,797.3992919921875,792.967041015625
401,784.908447265625,792.1611938476562,796.996337890625,789.7435913085938
402,780.879150390625,786.1171875,792.1611938476562,784.1025390625
403,784.1025390625,785.3113403320312,793.3699340820312,788.1318969726562
404,784.5054931640625,787.3259887695312,794.5787353515625,794.1758422851562
405,781.2820434570312,784.1025390625,793.7728881835938,792.1611938476562
406,781.6849975585938,783.6996459960938,796.1904907226562,784.5054931640625
407,782.087890625,786.5201416015625,797.3992919921875,783.6996459960938
408,787.7289428710938,788.937744140625,795.3846435546875,788.937744140625
409,789.7435913085938,793.3699340820312,794.981689453125,784.908447265625
410,790.952392578125,795.3846435546875,796.1904907226562,782.893798828125
411,788.937744140625,794.5787353515625,794.1758422851562,783.2966918945312
412,781.6849975585938,795.3846435546875,794.5787353515625,784.1025390625
413,784.5054931640625,797.8021850585938,795.3846435546875,786.1171875
414,785.3113403320312,799.8168334960938,792.1611938476562,785.7142944335938
415,786.923095703125,795.7875366210938,791.3552856445312,782.893798828125
416,791.3552856445312,796.1904907226562,793.3699340820312,790.1465454101562
417,792.1611938476562,803.8461303710938,796.5933837890625,800.2197875976562
418,797.3992919921875,804.6520385742188,798.2051391601562,795.3846435546875
419,795.7875366210938,799.010986328125,797.8021850585938,788.1318969726562
420,790.1465454101562,800.6226806640625,799.8168334960938,793.3699340820312
421,784.5054931640625,800.2197875976562,801.025634765625,793.7728881835938
422,781.6849975585938,792.967041015625,799.8168334960938,788.5347900390625
423,782.4908447265625,787.3259887695312,796.5933837890625,790.952392578125
424,783.6996459960938,788.5347900390625,793.3699340820312,792.5640869140625
425,785.3113403320312,784.908447265625,794.1758422851562,790.952392578125
426,782.4908447265625,780.0732421875,790.5494384765625,783.6996459960938
427,786.1171875,784.908447265625,789.3406372070312,784.1025390625
428,792.5640869140625,789.3406372070312,793.7728881835938,797.3992919921875
429,790.1465454101562,792.967041015625,795.3846435546875,797.3992919921875
430,788.937744140625,791.3552856445312,791.7582397460938,790.952392578125
431,791.7582397460938,790.5494384765625,790.952392578125,792.1611938476562
432,794.5787353515625,792.967041015625,794.5787353515625,790.1465454101562
433,794.981689453125,794.5787353515625,793.3699340820312,787.7289428710938
434,795.7875366210938,792.967041015625,789.7435913085938,791.3552856445312
435,797.3992919921875,788.1318969726562,789.3406372070312,789.7435913085938
436,799.4139404296875,792.1611938476562,792.967041015625,790.952392578125
437,796.1904907226562,796.1904907226562,797.3992919921875,789.3406372070312
438,790.5494384765625,791.7582397460938,796.1904907226562,780.0732421875
439,788.937744140625,788.937744140625,796.5933837890625,786.1171875
440,782.893798828125,790.1465454101562,794.1758422851562,790.5494384765625
441,774.8351440429688,791.7582397460938,794.5787353515625,788.1318969726562
442,775.6410522460938,792.1611938476562,796.1904907226562,790.1465454101562
443,786.5201416015625,797.3992919921875,795.3846435546875,799.010986328125
444,784.1025390625,801.8314819335938,793.3699340820312,797.8021850585938
445,782.4908447265625,797.8021850585938,792.1611938476562,790.5494384765625
446,784.5054931640625,792.967041015625,791.7582397460938,789.7435913085938
447,783.2966918945312,792.5640869140625,788.5347900390625,788.937744140625
448,783.6996459960938,789.3406372070312,790.1465454101562,786.923095703125
449,782.893798828125,786.923095703125,792.5640869140625,786.5201416015625
450,786.1171875,787.3259887695312,791.3552856445312,788.1318969726562
451,787.3259887695312,787.7289428710938,795.3846435546875,790.1465454101562
452,788.1318969726562,789.7435913085938,796.5933837890625,788.1318969726562
453,789.3406372070312,792.967041015625,796.5933837890625,786.923095703125
454,792.1611938476562,789.7435913085938,799.010986328125,790.952392578125
455,797.8021850585938,789.7435913085938,801.025634765625,796.1904907226562
456,791.3552856445312,794.981689453125,798.6080322265625,789.3406372070312
457,787.3259887695312,792.967041015625,797.3992919921875,784.908447265625
458,788.1318969726562,792.5640869140625,801.025634765625,788.937744140625
459,792.5640869140625,794.1758422851562,803.040283203125,788.937744140625
460,797.3992919921875,796.1904907226562,802.6373901367188,788.5347900390625
461,791.3552856445312,801.8314819335938,796.5933837890625,790.1465454101562
462,786.5201416015625,800.2197875976562,795.7875366210938,788.5347900390625
463,787.3259887695312,795.7875366210938,797.8021850585938,788.1318969726562
464,786.923095703125,795.7875366210938,794.1758422851562,778.8644409179688
465,790.5494384765625,794.1758422851562,795.3846435546875,778.4615478515625
466,795.3846435546875,792.5640869140625,797.3992919921875,791.7582397460938
467,794.1758422851562,793.7728881835938,796.1904907226562,792.967041015625
468,787.3259887695312,793.7728881835938,795.7875366210938,789.3406372070312
469,788.1318969726562,792.1611938476562,791.7582397460938,792.967041015625
470,795.7875366210938,796.1904907226562,792.967041015625,799.4139404296875
471,789.3406372070312,794.981689453125,792.1611938476562,798.2051391601562
472,781.2820434570312,793.7728881835938,792.967041015625,792.1611938476562
473,782.087890625,792.967041015625,794.5787353515625,792.1611938476562
474,786.1171875,788.1318969726562,792.967041015625,794.5787353515625
475,789.3406372070312,787.3259887695312,797.8021850585938,788.937744140625
476,784.1025390625,789.7435913085938,800.2197875976562,780.879150390625
477,784.1025390625,791.7582397460938,798.6080322265625,783.6996459960938
478,787.3259887695312,787.7289428710938,793.3699340820312,788.937744140625
479,781.6849975585938,786.1171875,790.952392578125,786.5201416015625
480,779.6703491210938,787.3259887695312,793.7728881835938,786.923095703125
481,782.4908447265625,787.3259887695312,796.5933837890625,790.952392578125
482,784.1025390625,789.3406372070312,800.6226806640625,792.1611938476562
483,785.3113403320312,791.3552856445312,801.8314819335938,793.7728881835938
484,788.1318969726562,793.7728881835938,802.2344360351562,798.6080322265625
485,789.7435913085938,790.5494384765625,801.4285888671875,796.5933837890625
486,792.5640869140625,786.5201416015625,797.8021850585938,791.7582397460938
487,786.1171875,784.1025390625,794.5787353515625,784.5054931640625
488,782.087890625,787.7289428710938,796.5933837890625,785.3113403320312
489,786.1171875,792.5640869140625,798.2051391601562,796.5933837890625
490,788.937744140625,794.981689453125,798.2051391601562,796.996337890625
491,790.952392578125,798.2051391601562,799.010986328125,787.3259887695312
492,791.7582397460938,798.6080322265625,799.4139404296875,788.1318969726562
493,790.952392578125,797.3992919921875,793.7728881835938,785.7142944335938
494,793.3699340820312,797.8021850585938,792.5640869140625,783.6996459960938
495,798.2051391601562,797.3992919921875,794.1758422851562,782.4908447265625
496,799.8168334960938,792.1611938476562,792.1611938476562,780.0732421875
497,792.1611938476562,787.7289428710938,790.5494384765625,784.1025390625
498,774.4322509765625,785.7142944335938,788.5347900390625,778.05859375
499,773.2234497070312,786.1171875,787.7289428710938,768.3883056640625
500,784.908447265625,789.3406372070312,793.7728881835938,779.6703491210938
501,789.3406372070312,791.3552856445312,798.2051391601562,791.3552856445312
502,782.4908447265625,790.1465454101562,796.1904907226562,784.5054931640625
503,780.4761962890625,789.3406372070312,789.3406372070312,782.4908447265625
504,784.5054931640625,792.5640869140625,790.952392578125,787.3259887695312
505,784.1025390625,790.952392578125,796.5933837890625,785.7142944335938
506,784.5054931640625,788.937744140625,794.5787353515625,788.5347900390625
507,786.1171875,791.3552856445312,790.5494384765625,792.5640869140625
508,786.5201416015625,792.967041015625,791.7582397460938,785.7142944335938
509,783.2966918945312,790.5494384765625,792.5640869140625,782.4908447265625
510,783.6996459960938,786.5201416015625,792.1611938476562,783.2966918945312
511,783.6996459960938,789.7435913085938,796.1904907226562,780.0732421875
512,783.6996459960938,793.3699340820312,797.8021850585938,787.7289428710938
513,784.5054931640625,792.5640869140625,799.4139404296875,796.996337890625
514,780.879150390625,792.967041015625,797.8021850585938,788.5347900390625
515,785.3113403320312,794.981689453125,793.3699340820312,784.1025390625
516,790.952392578125,796.1904907226562,793.3699340820312,788.1318969726562
517,790.5494384765625,796.5933837890625,793.7728881835938,789.7435913085938
518,784.908447265625,794.981689453125,788.937744140625,783.6996459960938
519,782.893798828125,794.5787353515625,786.5201416015625,781.2820434570312
520,794.5787353515625,797.8021850585938,791.3552856445312,789.3406372070312
521,800.6226806640625,796.996337890625,793.3699340820312,784.908447265625
522,799.4139404296875,794.1758422851562,792.5640869140625,780.0732421875
523,802.2344360351562,796.996337890625,792.5640869140625,787.7289428710938
524,807.4725341796875,801.025634765625,793.7728881835938,800.2197875976562
525,806.2637329101562,801.4285888671875,794.5787353515625,798.2051391601562
526,810.6959838867188,796.996337890625,789.7435913085938,792.1611938476562
527,810.2930297851562,796.5933837890625,790.952392578125,794.981689453125
528,801.025634765625,796.996337890625,794.1758422851562,790.952392578125
529,790.952392578125,790.952392578125,792.5640869140625,785.7142944335938
530,782.087890625,786.923095703125,791.7582397460938,789.3406372070312
531,783.6996459960938,790.5494384765625,792.967041015625,796.996337890625
532,788.937744140625,792.1611938476562,796.5933837890625,796.996337890625
533,782.4908447265625,785.7142944335938,796.5933837890625,794.1758422851562
534,775.2380981445312,783.6996459960938,795.7875366210938,796.5933837890625
535,780.4761962890625,783.6996459960938,794.981689453125,797.3992919921875
536,784.1025390625,784.5054931640625,795.3846435546875,794.981689453125
537,788.1318969726562,786.1171875,797.3992919921875,792.967041015625
538,787.7289428710938,786.923095703125,795.3846435546875,786.5201416015625
539,790.1465454101562,784.1025390625,797.8021850585938,778.4615478515625
540,794.5787353515625,786.1171875,794.1758422851562,777.2527465820312
541,791.3552856445312,788.1318969726562,792.967041015625,781.6849975585938
542,793.7728881835938,786.1171875,794.1758422851562,787.7289428710938
543,796.1904907226562,784.5054931640625,788.937744140625,788.937744140625
544,794.1758422851562,784.5054931640625,785.3113403320312,786.923095703125
545,792.1611938476562,787.7289428710938,791.7582397460938,778.05859375
546,797.8021850585938,792.5640869140625,793.7728881835938,780.4761962890625
547,799.010986328125,792.1611938476562,787.3259887695312,785.3113403320312
548,799.010986328125,791.7582397460938,789.3406372070312,782.4908447265625
549,795.7875366210938,793.7728881835938,793.7728881835938,782.893798828125
550,786.923095703125,792.1611938476562,790.5494384765625,788.1318969726562
551,784.5054931640625,786.1171875,788.1318969726562,785.3113403320312
552,781.2820434570312,783.2966918945312,791.7582397460938,778.05859375
553,784.908447265625,783.2966918945312,787.3259887695312,777.6557006835938
554,788.1318969726562,783.6996459960938,784.5054931640625,784.1025390625
555,778.4615478515625,786.1171875,784.5054931640625,788.1318969726562
556,773.2234497070312,786.5201416015625,787.3259887695312,787.3259887695312
557,776.4468994140625,788.1318969726562,790.952392578125,787.7289428710938
558,783.2966918945312,790.1465454101562,792.5640869140625,784.908447265625
559,786.923095703125,793.7728881835938,792.1611938476562,787.3259887695312
560,786.1171875,795.3846435546875,793.7728881835938,786.923095703125
561,787.7289428710938,793.3699340820312,792.967041015625,788.5347900390625
562,790.952392578125,795.3846435546875,788.5347900390625,790.952392578125
563,792.5640869140625,797.3992919921875,790.5494384765625,782.893798828125
564,792.1611938476562,797.3992919921875,794.1758422851562,780.879150390625
565,790.1465454101562,797.3992919921875,794.981689453125,786.5201416015625
566,789.3406372070312,795.7875366210938,790.5494384765625,788.937744140625
567,793.7728881835938,796.5933837890625,797.8021850585938,789.3406372070312
568,794.5787353515625,800.6226806640625,799.8168334960938,788.1318969726562
569,793.7728881835938,801.4285888671875,796.996337890625,789.3406372070312
570,797.3992919921875,801.025634765625,799.4139404296875,788.937744140625
571,798.2051391601562,800.6226806640625,799.8168334960938,792.5640869140625
572,803.4432373046875,799.8168334960938,802.2344360351562,799.4139404296875
573,799.8168334960938,796.5933837890625,801.025634765625,801.8314819335938
574,788.937744140625,793.3699340820312,797.8021850585938,803.4432373046875
575,787.3259887695312,795.7875366210938,794.981689453125,795.3846435546875
576,789.3406372070312,794.1758422851562,797.8021850585938,792.967041015625
577,788.1318969726562,790.1465454101562,802.2344360351562,794.5787353515625
578,786.5201416015625,790.5494384765625,801.4285888671875,791.7582397460938
579,785.7142944335938,788.937744140625,795.3846435546875,788.5347900390625
580,783.6996459960938,786.5201416015625,794.1758422851562,789.3406372070312
581,780.0732421875,787.7289428710938,801.025634765625,798.6080322265625
582,778.4615478515625,786.5201416015625,799.010986328125,795.3846435546875
583,782.4908447265625,785.3113403320312,792.967041015625,789.7435913085938
584,784.908447265625,789.3406372070312,793.3699340820312,791.7582397460938
585,786.923095703125,796.1904907226562,792.5640869140625,792.1611938476562
586,793.3699340820312,805.4578857421875,794.981689453125,798.2051391601562
587,795.7875366210938,804.6520385742188,796.5933837890625,789.7435913085938
588,800.2197875976562,797.3992919921875,792.1611938476562,783.6996459960938
589,798.6080322265625,794.5787353515625,790.952392578125,787.3259887695312
590,795.3846435546875,796.1904907226562,790.5494384765625,789.7435913085938
591,788.5347900390625,794.1758422851562,792.1611938476562,787.3259887695312
592,785.3113403320312,789.3406372070312,792.1611938476562,784.908447265625
593,787.7289428710938,790.1465454101562,792.1611938476562,786.923095703125
594,790.1465454101562,792.5640869140625,796.5933837890625,786.1171875
595,792.1611938476562,795.3846435546875,798.6080322265625,784.908447265625
596,800.2197875976562,799.4139404296875,799.4139404296875,792.1611938476562
597,801.025634765625,799.4139404296875,799.4139404296875,802.2344360351562
598,793.7728881835938,797.3992919921875,797.8021850585938,794.981689453125
599,799.8168334960938,799.010986328125,803.4432373046875,798.2051391601562
600,799.010986328125,801.8314819335938,806.2637329101562,803.040283203125
601,792.1611938476562,796.5933837890625,803.8461303710938,796.996337890625
602,792.1611938476562,794.1758422851562,802.6373901367188,797.3992919921875
603,797.3992919921875,798.2051391601562,799.4139404296875,794.981689453125
604,803.8461303710938,796.1904907226562,798.2051391601562,792.5640869140625
605,799.4139404296875,792.967041015625,794.1758422851562,790.5494384765625
606,794.1758422851562,798.6080322265625,793.7728881835938,795.3846435546875
607,800.2197875976562,805.4578857421875,801.025634765625,803.040283203125
608,805.054931640625,803.8461303710938,802.2344360351562,804.2490844726562
609,796.996337890625,800.2197875976562,797.8021850585938,795.7875366210938
610,785.7142944335938,796.5933837890625,794.5787353515625,788.1318969726562
611,789.7435913085938,798.6080322265625,795.7875366210938,791.7582397460938
612,797.3992919921875,802.6373901367188,797.3992919921875,791.3552856445312
613,798.2051391601562,803.040283203125,796.996337890625,786.1171875
614,795.3846435546875,802.6373901367188,796.5933837890625,781.2820434570312
615,788.5347900390625,802.6373901367188,796.996337890625,777.6557006835938
616,782.893798828125,801.8314819335938,797.3992919921875,776.4468994140625
617,784.908447265625,801.8314819335938,796.996337890625,780.4761962890625
618,790.1465454101562,799.8168334960938,794.981689453125,784.1025390625
619,792.967041015625,799.8168334960938,798.2051391601562,785.7142944335938
620,794.1758422851562,803.040283203125,801.025634765625,791.7582397460938
621,790.5494384765625,801.8314819335938,799.8168334960938,792.967041015625
622,787.7289428710938,794.981689453125,799.4139404296875,791.3552856445312
623,786.5201416015625,788.1318969726562,795.7875366210938,793.7728881835938
624,786.5201416015625,789.3406372070312,794.1758422851562,796.996337890625
625,786.923095703125,794.5787353515625,796.996337890625,792.967041015625
626,784.908447265625,793.7728881835938,800.6226806640625,795.3846435546875
627,784.908447265625,790.952392578125,803.040283203125,795.7875366210938
628,790.952392578125,796.5933837890625,805.8607788085938,794.981689453125
629,790.1465454101562,799.010986328125,805.8607788085938,793.3699340820312
630,786.923095703125,794.1758422851562,801.025634765625,784.5054931640625
631,787.7289428710938,794.5787353515625,800.6226806640625,790.1465454101562
632,783.2966918945312,796.996337890625,803.4432373046875,794.1758422851562
633,782.4908447265625,793.3699340820312,803.040283203125,784.5054931640625
634,785.3113403320312,792.1611938476562,799.010986328125,782.893798828125
635,784.5054931640625,790.1465454101562,796.1904907226562,783.6996459960938
636,791.3552856445312,791.3552856445312,794.1758422851562,781.2820434570312
637,800.2197875976562,792.1611938476562,796.996337890625,779.6703491210938
638,795.3846435546875,791.3552856445312,797.3992919921875,777.6557006835938
639,795.7875366210938,795.7875366210938,793.7728881835938,778.8644409179688
640,797.8021850585938,799.010986328125,793.3699340820312,784.908447265625
641,792.5640869140625,797.8021850585938,793.3699340820312,781.6849975585938
642,789.7435913085938,798.6080322265625,793.3699340820312,777.6557006835938
643,792.1611938476562,801.025634765625,797.3992919921875,791.3552856445312
644,796.996337890625,802.6373901367188,797.3992919921875,794.981689453125
645,799.010986328125,799.8168334960938,793.7728881835938,791.7582397460938
646,798.6080322265625,799.4139404296875,799.010986328125,796.996337890625
647,792.967041015625,803.4432373046875,799.8168334960938,799.8168334960938
648,791.3552856445312,797.3992919921875,798.2051391601562,805.4578857421875
649,794.1758422851562,794.1758422851562,803.8461303710938,812.7106323242188
650,786.1171875,791.7582397460938,804.2490844726562,813.5164794921875
651,784.5054931640625,790.1465454101562,801.4285888671875,807.4725341796875
652,787.7289428710938,792.967041015625,799.4139404296875,799.8168334960938
653,787.3259887695312,796.996337890625,799.8168334960938,795.3846435546875
654,788.937744140625,792.5640869140625,799.010986328125,797.8021850585938
655,786.5201416015625,787.7289428710938,793.3699340820312,797.3992919921875
656,784.908447265625,792.967041015625,792.5640869140625,794.1758422851562
657,790.1465454101562,795.7875366210938,796.1904907226562,796.1904907226562
658,786.1171875,792.5640869140625,793.3699340820312,792.967041015625
659,784.1025390625,787.7289428710938,792.1611938476562,786.923095703125
660,789.7435913085938,786.1171875,794.5787353515625,780.4761962890625
661,786.5201416015625,786.923095703125,791.7582397460938,778.05859375
662,787.3259887695312,788.5347900390625,790.1465454101562,779.2673950195312
663,791.7582397460938,792.1611938476562,792.5640869140625,778.8644409179688
664,792.1611938476562,791.7582397460938,790.952392578125,774.4322509765625
665,794.1758422851562,790.5494384765625,787.7289428710938,777.6557006835938
666,792.967041015625,790.5494384765625,789.7435913085938,785.7142944335938
667,785.7142944335938,786.923095703125,790.952392578125,784.908447265625
668,784.5054931640625,788.1318969726562,784.5054931640625,785.7142944335938
669,779.6703491210938,792.967041015625,784.1025390625,789.3406372070312
670,778.4615478515625,795.7875366210938,789.7435913085938,790.952392578125
671,782.087890625,796.1904907226562,789.3406372070312,784.1025390625
672,780.4761962890625,795.7875366210938,787.3259887695312,782.893798828125
673,782.087890625,799.4139404296875,786.5201416015625,787.3259887695312
674,790.1465454101562,799.4139404296875,790.952392578125,787.7289428710938
675,794.1758422851562,799.8168334960938,793.3699340820312,782.4908447265625
676,796.1904907226562,796.996337890625,789.3406372070312,782.893798828125
677,796.1904907226562,793.3699340820312,789.7435913085938,791.7582397460938
678,790.1465454101562,795.7875366210938,790.952392578125,792.1611938476562
679,793.3699340820312,798.6080322265625,792.1611938476562,792.967041015625
680,800.2197875976562,799.4139404296875,792.5640869140625,790.952392578125
681,801.025634765625,796.5933837890625,790.952392578125,791.7582397460938
682,797.3992919921875,798.6080322265625,792.5640869140625,792.5640869140625
683,796.996337890625,801.4285888671875,795.3846435546875,787.3259887695312
684,798.6080322265625,795.7875366210938,796.996337890625,789.7435913085938
685,794.981689453125,791.7582397460938,794.981689453125,788.1318969726562
686,791.3552856445312,795.3846435546875,794.981689453125,789.7435913085938
687,790.1465454101562,793.7728881835938,797.3992919921875,790.5494384765625
688,792.1611938476562,791.3552856445312,792.1611938476562,788.5347900390625
689,794.5787353515625,791.7582397460938,788.5347900390625,794.1758422851562
690,792.1611938476562,790.5494384765625,791.3552856445312,796.996337890625
691,782.893798828125,789.7435913085938,792.1611938476562,792.1611938476562
692,772.4176025390625,788.1318969726562,792.5640869140625,788.937744140625
693,767.5823974609375,786.923095703125,792.967041015625,790.1465454101562
694,770.0,790.1465454101562,794.1758422851562,789.3406372070312
695,781.2820434570312,791.7582397460938,800.2197875976562,793.7728881835938
696,784.908447265625,789.3406372070312,801.8314819335938,798.6080322265625
697,776.0439453125,786.1171875,800.2197875976562,794.1758422851562
698,771.2088012695312,785.3113403320312,799.8168334960938,793.7728881835938
699,771.2088012695312,782.893798828125,803.8461303710938,798.2051391601562
700,775.2380981445312,782.4908447265625,806.2637329101562,798.6080322265625
701,782.087890625,786.5201416015625,805.8607788085938,798.2051391601562
702,788.1318969726562,788.5347900390625,803.8461303710938,798.6080322265625
703,786.5201416015625,786.923095703125,801.025634765625,796.1904907226562
704,789.3406372070312,783.6996459960938,802.2344360351562,799.4139404296875
705,797.3992919921875,786.1171875,806.2637329101562,804.2490844726562
706,796.996337890625,787.3259887695312,804.2490844726562,797.3992919921875
707,791.7582397460938,785.7142944335938,798.6080322265625,793.3699340820312
708,787.7289428710938,784.908447265625,796.1904907226562,792.1611938476562
709,780.4761962890625,785.3113403320312,795.3846435546875,786.5201416015625
710,782.4908447265625,784.5054931640625,794.981689453125,791.7582397460938
711,787.7289428710938,786.1171875,790.952392578125,794.981689453125
712,785.7142944335938,786.1171875,788.5347900390625,789.7435913085938
713,788.937744140625,791.7582397460938,791.7582397460938,795.3846435546875
714,786.923095703125,794.5787353515625,790.1465454101562,792.967041015625
715,785.3113403320312,792.5640869140625,787.7289428710938,795.7875366210938
716,789.7435913085938,792.967041015625,789.3406372070312,800.2197875976562
717,788.5347900390625,796.5933837890625,792.1611938476562,789.7435913085938
718,785.3113403320312,797.8021850585938,790.5494384765625,785.7142944335938
719,783.6996459960938,794.981689453125,792.967041015625,791.3552856445312
720,790.5494384765625,793.3699340820312,797.8021850585938,796.1904907226562
721,790.952392578125,791.3552856445312,795.7875366210938,792.1611938476562
722,782.893798828125,795.7875366210938,794.981689453125,795.3846435546875
723,777.6557006835938,796.996337890625,796.1904907226562,794.981689453125
724,780.879150390625,798.6080322265625,793.7728881835938,782.893798828125
725,787.7289428710938,795.7875366210938,792.967041015625,783.2966918945312
726,785.3113403320312,788.937744140625,792.1611938476562,785.3113403320312
727,785.7142944335938,792.1611938476562,790.952392578125,792.5640869140625
728,779.2673950195312,792.967041015625,791.7582397460938,788.937744140625
729,776.8497924804688,792.967041015625,790.5494384765625,779.6703491210938
730,784.5054931640625,794.1758422851562,793.7728881835938,784.1025390625
731,790.952392578125,795.7875366210938,793.7728881835938,783.2966918945312
732,791.7582397460938,795.7875366210938,793.3699340820312,783.6996459960938
733,790.1465454101562,796.1904907226562,794.1758422851562,782.4908447265625
734,795.3846435546875,800.6226806640625,794.5787353515625,788.5347900390625
735,795.3846435546875,799.4139404296875,795.7875366210938,791.3552856445312
736,792.5640869140625,797.3992919921875,792.967041015625,790.1465454101562
737,789.3406372070312,795.3846435546875,787.3259887695312,791.3552856445312
738,786.923095703125,793.7728881835938,793.7728881835938,786.923095703125
739,788.1318969726562,789.7435913085938,801.025634765625,785.3113403320312
740,786.1171875,789.3406372070312,797.8021850585938,785.3113403320312
741,789.7435913085938,793.7728881835938,795.3846435546875,788.1318969726562
742,798.2051391601562,796.996337890625,796.996337890625,794.1758422851562
743,790.1465454101562,795.3846435546875,799.4139404296875,789.7435913085938
744,783.6996459960938,791.7582397460938,797.8021850585938,787.7289428710938
745,787.3259887695312,790.1465454101562,798.6080322265625,790.1465454101562
746,787.3259887695312,787.7289428710938,801.025634765625,793.3699340820312
747,790.952392578125,784.908447265625,803.4432373046875,803.4432373046875
748,784.5054931640625,785.7142944335938,804.6520385742188,793.7728881835938
749,781.6849975585938,788.937744140625,798.6080322265625,779.2673950195312
750,785.7142944335938,792.1611938476562,795.7875366210938,781.2820434570312
751,785.3113403320312,794.1758422851562,797.8021850585938,784.5054931640625
752,792.1611938476562,796.5933837890625,797.3992919921875,786.1171875
753,792.1611938476562,798.6080322265625,796.996337890625,780.4761962890625
754,786.1171875,801.025634765625,798.2051391601562,786.923095703125
755,782.087890625,799.4139404296875,799.8168334960938,792.5640869140625
756,784.1025390625,796.1904907226562,797.8021850585938,784.1025390625
757,787.7289428710938,793.7728881835938,797.3992919921875,785.3113403320312
758,788.1318969726562,792.1611938476562,799.010986328125,787.7289428710938
759,793.3699340820312,794.5787353515625,799.8168334960938,785.7142944335938
760,794.5787353515625,798.6080322265625,801.4285888671875,788.5347900390625
761,791.7582397460938,793.7728881835938,797.3992919921875,791.7582397460938
762,790.952392578125,793.7728881835938,796.5933837890625,793.3699340820312
763,785.3113403320312,796.5933837890625,796.5933837890625,784.5054931640625
764,785.7142944335938,794.981689453125,790.952392578125,784.908447265625
765,790.5494384765625,796.5933837890625,792.1611938476562,792.1611938476562
766,790.952392578125,800.2197875976562,797.3992919921875,796.1904907226562
767,796.1904907226562,799.010986328125,798.2051391601562,794.981689453125
768,793.7728881835938,791.7582397460938,795.3846435546875,782.893798828125
769,785.3113403320312,790.5494384765625,796.1904907226562,780.0732421875
770,783.6996459960938,793.7728881835938,796.996337890625,784.1025390625
771,782.087890625,792.967041015625,792.1611938476562,783.2966918945312
772,784.1025390625,793.7728881835938,790.1465454101562,784.908447265625
773,786.923095703125,797.8021850585938,791.7582397460938,793.7728881835938
774,791.3552856445312,801.8314819335938,792.1611938476562,800.6226806640625
775,794.5787353515625,801.8314819335938,792.5640869140625,802.6373901367188
776,801.025634765625,802.2344360351562,793.7728881835938,801.4285888671875
777,804.2490844726562,805.054931640625,798.2051391601562,805.8607788085938
778,796.1904907226562,804.2490844726562,795.7875366210938,805.054931640625
779,789.7435913085938,799.8168334960938,789.3406372070312,796.1904907226562
780,790.1465454101562,796.996337890625,788.937744140625,795.3846435546875
781,794.1758422851562,800.2197875976562,790.952392578125,797.8021850585938
782,803.4432373046875,803.4432373046875,794.981689453125,800.6226806640625
783,805.8607788085938,803.040283203125,794.981689453125,796.996337890625
784,799.4139404296875,799.8168334960938,792.5640869140625,793.3699340820312
785,795.7875366210938,801.8314819335938,795.7875366210938,796.996337890625
786,791.3552856445312,801.025634765625,796.1904907226562,797.3992919921875
787,784.5054931640625,795.3846435546875,793.3699340820312,794.981689453125
788,783.2966918945312,793.3699340820312,798.2051391601562,800.2197875976562
789,786.5201416015625,793.7728881835938,801.4285888671875,803.8461303710938
790,787.3259887695312,795.7875366210938,803.4432373046875,800.2197875976562
791,791.7582397460938,793.7728881835938,806.2637329101562,792.1611938476562
792,796.996337890625,791.7582397460938,803.4432373046875,792.967041015625
793,802.2344360351562,794.5787353515625,801.025634765625,798.6080322265625
794,792.967041015625,792.5640869140625,796.1904907226562,791.7582397460938
795,784.908447265625,790.1465454101562,795.7875366210938,789.7435913085938
796,784.908447265625,792.5640869140625,798.2051391601562,794.5787353515625
797,782.893798828125,794.5787353515625,796.996337890625,790.1465454101562
798,785.3113403320312,792.5640869140625,793.3699340820312,782.893798828125
799,786.1171875,792.967041015625,793.3699340820312,784.908447265625
800,789.7435913085938,792.1611938476562,792.5640869140625,787.7289428710938
801,788.1318969726562,789.7435913085938,791.3552856445312,784.5054931640625
802,784.908447265625,794.5787353515625,795.3846435546875,781.6849975585938
803,795.7875366210938,794.5787353515625,798.2051391601562,786.1171875
804,796.996337890625,792.1611938476562,799.010986328125,784.1025390625
805,786.923095703125,790.1465454101562,793.3699340820312,781.2820434570312
806,786.1171875,787.7289428710938,788.1318969726562,779.2673950195312
807,785.7142944335938,792.1611938476562,790.1465454101562,778.05859375
808,781.2820434570312,795.7875366210938,792.967041015625,780.4761962890625
809,785.7142944335938,794.981689453125,790.1465454101562,782.087890625
810,787.7289428710938,792.1611938476562,791.7582397460938,785.7142944335938
811,782.893798828125,787.3259887695312,792.967041015625,783.6996459960938
812,784.5054931640625,788.1318969726562,789.7435913085938,786.923095703125
813,792.1611938476562,794.981689453125,794.981689453125,786.923095703125
814,796.1904907226562,798.6080322265625,797.3992919921875,785.7142944335938
815,789.7435913085938,796.996337890625,792.5640869140625,789.7435913085938
816,784.1025390625,793.3699340820312,792.5640869140625,786.1171875
817,789.3406372070312,794.1758422851562,790.952392578125,788.5347900390625
818,799.010986328125,799.4139404296875,787.7289428710938,794.1758422851562
819,797.3992919921875,800.2197875976562,786.1171875,792.1611938476562
820,795.3846435546875,798.2051391601562,785.3113403320312,787.7289428710938
821,797.3992919921875,796.996337890625,790.1465454101562,788.1318969726562
822,799.8168334960938,799.4139404296875,792.967041015625,789.7435913085938
823,802.2344360351562,803.8461303710938,795.7875366210938,792.967041015625
824,803.040283203125,803.4432373046875,796.996337890625,798.6080322265625
825,798.2051391601562,800.6226806640625,797.3992919921875,797.8021850585938
826,792.1611938476562,800.2197875976562,799.010986328125,794.5787353515625
827,795.7875366210938,801.025634765625,796.5933837890625,792.5640869140625
828,798.6080322265625,799.8168334960938,794.5787353515625,794.1758422851562
829,796.5933837890625,799.8168334960938,793.7728881835938,786.5201416015625
830,796.1904907226562,798.2051391601562,794.5787353515625,782.893798828125
831,794.5787353515625,797.8021850585938,796.1904907226562,786.923095703125
832,796.1904907226562,798.6080322265625,798.2051391601562,790.952392578125
833,800.6226806640625,795.7875366210938,793.3699340820312,792.1611938476562
834,807.069580078125,796.996337890625,789.3406372070312,797.3992919921875
835,807.4725341796875,792.967041015625,792.1611938476562,799.4139404296875
836,799.010986328125,793.7728881835938,792.1611938476562,793.3699340820312
837,791.3552856445312,797.8021850585938,788.5347900390625,794.981689453125
838,791.7582397460938,794.1758422851562,789.7435913085938,799.8168334960938
839,795.7875366210938,790.5494384765625,791.3552856445312,805.8607788085938
840,799.8168334960938,796.996337890625,791.3552856445312,804.6520385742188
841,801.8314819335938,796.1904907226562,792.5640869140625,796.996337890625
842,801.4285888671875,791.3552856445312,796.996337890625,793.7728881835938
843,799.010986328125,791.7582397460938,799.010986328125,791.7582397460938
844,794.1758422851562,789.7435913085938,791.7582397460938,789.7435913085938
845,791.7582397460938,787.7289428710938,787.3259887695312,786.5201416015625
846,786.923095703125,785.3113403320312,787.3259887695312,786.1171875
847,782.893798828125,786.923095703125,787.3259887695312,790.5494384765625
848,781.6849975585938,788.1318969726562,790.1465454101562,789.7435913085938
849,789.7435913085938,785.7142944335938,792.1611938476562,792.5640869140625
850,787.3259887695312,785.3113403320312,788.5347900390625,792.5640869140625
851,778.8644409179688,787.3259887695312,784.908447265625,789.3406372070312
852,776.8497924804688,787.3259887695312,785.7142944335938,788.1318969726562
853,780.879150390625,788.5347900390625,791.3552856445312,787.7289428710938
854,787.3259887695312,789.7435913085938,791.7582397460938,789.3406372070312
855,784.908447265625,790.1465454101562,793.7728881835938,788.937744140625
856,787.3259887695312,788.5347900390625,791.7582397460938,788.937744140625
857,784.908447265625,784.5054931640625,784.1025390625,787.7289428710938
858,780.0732421875,778.8644409179688,781.6849975585938,784.5054931640625
859,783.6996459960938,778.4615478515625,789.3406372070312,781.2820434570312
860,788.5347900390625,785.3113403320312,796.1904907226562,784.1025390625
861,786.923095703125,786.5201416015625,790.1465454101562,788.937744140625
862,782.893798828125,790.1465454101562,790.1465454101562,792.967041015625
863,790.1465454101562,798.2051391601562,794.981689453125,791.3552856445312
864,795.7875366210938,798.6080322265625,790.952392578125,784.5054931640625
865,792.967041015625,793.7728881835938,790.5494384765625,788.5347900390625
866,789.3406372070312,788.1318969726562,792.967041015625,792.5640869140625
867,786.923095703125,786.1171875,792.5640869140625,788.1318969726562
868,792.5640869140625,787.3259887695312,798.6080322265625,792.1611938476562
869,800.2197875976562,790.5494384765625,799.010986328125,798.6080322265625
870,797.3992919921875,790.5494384765625,796.5933837890625,799.4139404296875
871,794.981689453125,789.3406372070312,796.5933837890625,796.5933837890625
872,798.6080322265625,790.5494384765625,796.1904907226562,796.1904907226562
873,800.6226806640625,790.952392578125,792.5640869140625,800.6226806640625
874,793.7728881835938,788.5347900390625,794.5787353515625,796.996337890625
875,787.7289428710938,786.1171875,796.996337890625,788.1318969726562
876,792.1611938476562,788.1318969726562,797.8021850585938,788.5347900390625
877,792.5640869140625,790.952392578125,797.8021850585938,792.5640869140625
878,789.3406372070312,791.7582397460938,793.3699340820312,790.952392578125
879,793.3699340820312,791.7582397460938,791.3552856445312,788.5347900390625
880,788.5347900390625,792.5640869140625,794.981689453125,789.7435913085938
881,781.6849975585938,789.3406372070312,795.3846435546875,790.952392578125
882,781.6849975585938,791.7582397460938,790.952392578125,787.7289428710938
883,783.2966918945312,795.7875366210938,788.1318969726562,780.4761962890625
884,780.879150390625,796.996337890625,791.3552856445312,784.908447265625
885,781.2820434570312,795.3846435546875,790.952392578125,788.1318969726562
886,780.4761962890625,790.1465454101562,787.3259887695312,777.6557006835938
887,781.2820434570312,790.1465454101562,787.7289428710938,774.4322509765625
888,785.3113403320312,794.981689453125,792.5640869140625,778.05859375
889,785.7142944335938,796.996337890625,797.3992919921875,782.893798828125
890,784.908447265625,789.3406372070312,796.5933837890625,788.5347900390625
891,788.937744140625,789.3406372070312,794.981689453125,789.3406372070312
892,794.5787353515625,791.3552856445312,795.3846435546875,788.5347900390625
893,793.7728881835938,793.3699340820312,800.6226806640625,789.7435913085938
894,784.5054931640625,789.3406372070312,801.025634765625,787.3259887695312
895,780.4761962890625,782.087890625,794.981689453125,786.5201416015625
896,777.6557006835938,785.7142944335938,792.1611938476562,787.7289428710938
897,776.8497924804688,788.5347900390625,796.1904907226562,786.5201416015625
898,777.2527465820312,789.3406372070312,799.8168334960938,783.6996459960938
899,779.6703491210938,789.7435913085938,798.6080322265625,784.1025390625
900,786.5201416015625,789.3406372070312,798.2051391601562,786.5201416015625
901,788.5347900390625,787.3259887695312,795.7875366210938,784.1025390625
902,791.7582397460938,789.3406372070312,798.6080322265625,786.923095703125
903,787.7289428710938,794.981689453125,803.4432373046875,791.3552856445312
904,784.1025390625,793.3699340820312,801.8314819335938,789.3406372070312
905,788.5347900390625,790.952392578125,801.4285888671875,792.5640869140625
906,797.3992919921875,791.7582397460938,801.8314819335938,795.3846435546875
907,797.8021850585938,788.5347900390625,798.2051391601562,790.1465454101562
908,792.5640869140625,786.923095703125,801.4285888671875,798.6080322265625
909,784.5054931640625,793.3699340820312,801.8314819335938,793.7728881835938
910,779.2673950195312,796.996337890625,796.996337890625,778.8644409179688
911,790.1465454101562,794.981689453125,796.5933837890625,787.3259887695312
912,793.7728881835938,793.7728881835938,799.4139404296875,794.981689453125
913,783.2966918945312,791.7582397460938,803.8461303710938,788.937744140625
914,779.6703491210938,792.5640869140625,801.025634765625,786.923095703125
915,786.5201416015625,794.5787353515625,799.010986328125,793.3699340820312
916,793.7728881835938,794.981689453125,799.010986328125,796.996337890625
917,795.3846435546875,798.6080322265625,798.6080322265625,791.7582397460938
918,791.3552856445312,801.4285888671875,802.2344360351562,793.3699340820312
919,789.7435913085938,792.1611938476562,801.4285888671875,796.996337890625
920,801.8314819335938,792.967041015625,799.8168334960938,799.8168334960938
921,801.4285888671875,800.2197875976562,798.2051391601562,799.8168334960938
922,793.7728881835938,795.7875366210938,796.996337890625,796.5933837890625
923,792.5640869140625,796.5933837890625,800.6226806640625,796.996337890625
924,794.981689453125,801.4285888671875,803.4432373046875,799.8168334960938
925,795.3846435546875,802.2344360351562,803.040283203125,799.8168334960938
926,792.1611938476562,794.5787353515625,801.8314819335938,799.010986328125
927,786.923095703125,785.7142944335938,800.2197875976562,806.6666870117188
928,777.2527465820312,783.6996459960938,801.025634765625,805.4578857421875
929,782.4908447265625,784.908447265625,803.4432373046875,794.981689453125
930,788.5347900390625,785.7142944335938,799.4139404296875,792.5640869140625
931,788.5347900390625,790.5494384765625,799.4139404296875,803.040283203125
932,785.7142944335938,792.967041015625,803.8461303710938,804.2490844726562
933,781.2820434570312,792.5640869140625,803.4432373046875,793.3699340820312
934,787.7289428710938,796.996337890625,803.4432373046875,798.2051391601562
935,786.923095703125,794.1758422851562,801.4285888671875,796.1904907226562
936,784.5054931640625,791.7582397460938,799.4139404296875,792.967041015625
937,788.1318969726562,797.8021850585938,799.010986328125,797.8021850585938
938,786.1171875,796.996337890625,799.8168334960938,792.1611938476562
939,786.1171875,794.1758422851562,801.025634765625,788.937744140625
940,799.010986328125,801.025634765625,798.6080322265625,793.7728881835938
941,803.4432373046875,801.8314819335938,794.981689453125,790.952392578125
942,796.1904907226562,798.6080322265625,792.1611938476562,780.879150390625
943,789.7435913085938,793.7728881835938,791.3552856445312,776.0439453125
944,789.3406372070312,794.1758422851562,794.981689453125,774.4322509765625
945,794.1758422851562,801.8314819335938,798.6080322265625,777.2527465820312
946,798.6080322265625,800.2197875976562,799.4139404296875,782.893798828125
947,799.010986328125,800.2197875976562,801.025634765625,781.6849975585938
948,794.981689453125,803.040283203125,796.5933837890625,778.8644409179688
949,796.1904907226562,801.4285888671875,797.8021850585938,787.3259887695312
950,791.7582397460938,798.2051391601562,801.025634765625,793.7728881835938
951,784.908447265625,792.1611938476562,799.010986328125,793.7728881835938
952,789.3406372070312,787.7289428710938,799.4139404296875,793.3699340820312
953,788.937744140625,788.5347900390625,799.8168334960938,795.7875366210938
954,776.0439453125,786.1171875,796.996337890625,791.7582397460938
955,772.0146484375,783.6996459960938,797.3992919921875,782.893798828125
956,779.2673950195312,787.3259887695312,798.6080322265625,784.908447265625
957,783.2966918945312,787.7289428710938,795.7875366210938,793.7728881835938
958,784.908447265625,788.5347900390625,794.5787353515625,795.7875366210938
959,782.893798828125,791.7582397460938,798.2051391601562,791.7582397460938
960,788.5347900390625,793.7728881835938,797.3992919921875,790.1465454101562
961,786.1171875,790.952392578125,790.952392578125,786.5201416015625
962,784.908447265625,788.1318969726562,795.7875366210938,786.1171875
963,793.3699340820312,792.5640869140625,801.4285888671875,788.1318969726562
964,795.3846435546875,794.1758422851562,800.2197875976562,787.7289428710938
965,795.7875366210938,792.5640869140625,799.010986328125,788.937744140625
966,801.4285888671875,790.952392578125,798.6080322265625,793.3699340820312
967,796.996337890625,791.7582397460938,801.4285888671875,792.967041015625
968,793.7728881835938,794.1758422851562,799.010986328125,789.7435913085938
969,791.7582397460938,792.1611938476562,792.1611938476562,786.5201416015625
970,790.5494384765625,791.7582397460938,788.5347900390625,783.6996459960938
971,794.5787353515625,790.5494384765625,790.5494384765625,779.6703491210938
972,800.2197875976562,790.1465454101562,788.937744140625,783.6996459960938
973,805.054931640625,792.967041015625,790.952392578125,788.5347900390625
974,797.8021850585938,794.981689453125,791.7582397460938,787.3259887695312
975,794.5787353515625,794.5787353515625,787.3259887695312,785.7142944335938
976,794.5787353515625,791.3552856445312,792.967041015625,785.3113403320312
977,793.7728881835938,792.967041015625,799.4139404296875,786.1171875
978,791.3552856445312,799.010986328125,800.2197875976562,783.6996459960938
979,786.1171875,799.8168334960938,799.8168334960938,782.087890625
980,788.937744140625,798.2051391601562,801.025634765625,781.6849975585938
981,793.3699340820312,796.996337890625,803.040283203125,786.5201416015625
982,794.1758422851562,794.981689453125,804.6520385742188,788.5347900390625
983,795.7875366210938,796.1904907226562,804.6520385742188,793.7728881835938
984,790.1465454101562,799.010986328125,806.2637329101562,792.1611938476562
985,784.1025390625,794.981689453125,805.8607788085938,779.2673950195312
986,788.1318969726562,792.967041015625,803.040283203125,776.8497924804688
987,799.4139404296875,801.025634765625,800.6226806640625,785.7142944335938
988,795.3846435546875,802.2344360351562,799.4139404296875,789.3406372070312
989,788.5347900390625,797.8021850585938,798.2051391601562,794.1758422851562
990,787.7289428710938,796.1904907226562,797.8021850585938,792.1611938476562
991,788.1318969726562,796.1904907226562,799.4139404296875,788.1318969726562
992,790.952392578125,798.6080322265625,795.7875366210938,796.996337890625
993,791.7582397460938,793.7728881835938,796.1904907226562,796.996337890625
994,786.923095703125,794.1758422851562,794.5787353515625,785.3113403320312
995,784.908447265625,795.7875366210938,790.952392578125,783.2966918945312
996,789.7435913085938,793.7728881835938,793.3699340820312,790.952392578125
997,790.5494384765625,794.981689453125,792.967041015625,791.3552856445312
998,789.7435913085938,793.7728881835938,790.1465454101562,790.5494384765625
999,791.3552856445312,793.7728881835938,789.3406372070312,790.5494384765625
1000,788.937744140625,794.981689453125,790.1465454101562,789.3406372070312
1001,789.3406372070312,795.7875366210938,794.5787353515625,786.923095703125
1002,791.3552856445312,795.7875366210938,796.5933837890625,784.908447265625
1003,794.981689453125,796.996337890625,799.4139404296875,792.1611938476562
1004,795.3846435546875,798.2051391601562,799.8168334960938,800.2197875976562
1005,788.1318969726562,793.7728881835938,798.6080322265625,795.3846435546875
1006,785.7142944335938,787.7289428710938,794.5787353515625,787.3259887695312
1007,786.1171875,787.3259887695312,790.952392578125,790.5494384765625
1008,783.2966918945312,788.1318969726562,791.3552856445312,791.7582397460938
1009,778.8644409179688,786.923095703125,791.7582397460938,786.1171875
1010,774.8351440429688,788.937744140625,795.7875366210938,786.5201416015625
1011,771.6116943359375,792.1611938476562,799.010986328125,784.1025390625
1012,780.4761962890625,790.5494384765625,798.2051391601562,783.6996459960938
1013,787.3259887695312,788.1318969726562,799.010986328125,786.5201416015625
1014,788.5347900390625,788.5347900390625,796.996337890625,784.908447265625
1015,790.5494384765625,791.3552856445312,794.5787353515625,784.908447265625
1016,786.5201416015625,794.1758422851562,797.8021850585938,788.5347900390625
1017,788.1318969726562,793.3699340820312,800.2197875976562,786.923095703125
1018,793.3699340820312,788.937744140625,798.2051391601562,788.1318969726562
1019,796.5933837890625,791.7582397460938,798.2051391601562,786.1171875
1020,796.5933837890625,792.967041015625,796.1904907226562,783.6996459960938
1021,792.5640869140625,790.1465454101562,796.5933837890625,785.7142944335938
1022,796.996337890625,792.5640869140625,799.4139404296875,789.7435913085938
1023,803.4432373046875,791.3552856445312,796.996337890625,792.967041015625
1024,802.2344360351562,789.3406372070312,791.3552856445312,788.5347900390625
1025,799.8168334960938,790.5494384765625,793.3699340820312,784.908447265625
1026,797.3992919921875,790.5494384765625,801.025634765625,790.952392578125
1027,799.4139404296875,793.3699340820312,797.8021850585938,800.6226806640625
1028,801.4285888671875,794.5787353515625,791.7582397460938,799.8168334960938
1029,798.6080322265625,795.3846435546875,792.5640869140625,798.6080322265625
1030,794.1758422851562,793.7728881835938,790.1465454101562,796.996337890625
1031,790.952392578125,790.1465454101562,790.952392578125,784.908447265625
1032,794.1758422851562,791.3552856445312,794.981689453125,783.6996459960938
1033,800.2197875976562,794.1758422851562,793.7728881835938,789.3406372070312
1034,799.4139404296875,792.967041015625,793.3699340820312,788.5347900390625
1035,793.7728881835938,796.1904907226562,796.5933837890625,789.3406372070312
1036,789.3406372070312,796.5933837890625,795.7875366210938,784.1025390625
1037,787.3259887695312,792.967041015625,787.7289428710938,783.6996459960938
1038,790.5494384765625,793.7728881835938,790.952392578125,790.5494384765625
1039,786.5201416015625,796.1904907226562,794.1758422851562,791.3552856445312
1040,785.3113403320312,795.3846435546875,786.1171875,781.2820434570312
1041,790.952392578125,791.3552856445312,789.7435913085938,779.6703491210938
1042,790.5494384765625,791.3552856445312,793.7728881835938,792.5640869140625
1043,788.937744140625,793.3699340820312,793.7728881835938,793.7728881835938
1044,792.967041015625,796.1904907226562,792.5640869140625,787.7289428710938
1045,794.5787353515625,797.3992919921875,786.1171875,789.3406372070312
1046,792.5640869140625,795.7875366210938,791.3552856445312,793.7728881835938
1047,794.5787353515625,798.2051391601562,798.2051391601562,796.5933837890625
1048,792.5640869140625,800.2197875976562,798.2051391601562,796.5933837890625
1049,794.5787353515625,798.2051391601562,797.3992919921875,796.1904907226562
1050,796.1904907226562,797.8021850585938,796.5933837890625,795.7875366210938
1051,794.5787353515625,797.3992919921875,797.8021850585938,790.5494384765625
1052,800.2197875976562,800.6226806640625,801.025634765625,798.2051391601562
1053,801.8314819335938,802.6373901367188,802.6373901367188,807.069580078125
1054,799.8168334960938,801.4285888671875,803.040283203125,803.040283203125
1055,799.010986328125,800.6226806640625,803.8461303710938,800.6226806640625
1056,801.025634765625,799.4139404296875,802.2344360351562,798.6080322265625
1057,801.8314819335938,799.4139404296875,799.4139404296875,799.010986328125
1058,797.8021850585938,800.6226806640625,799.8168334960938,794.1758422851562
1059,796.996337890625,799.4139404296875,797.3992919921875,788.5347900390625
1060,794.1758422851562,797.3992919921875,796.996337890625,790.1465454101562
1061,787.7289428710938,793.7728881835938,794.981689453125,789.3406372070312
1062,785.3113403320312,794.1758422851562,790.5494384765625,788.1318969726562
1063,782.4908447265625,794.981689453125,791.7582397460938,788.1318969726562
1064,780.879150390625,790.5494384765625,791.3552856445312,784.1025390625
1065,786.5201416015625,790.1465454101562,789.7435913085938,790.5494384765625
1066,789.7435913085938,793.3699340820312,790.5494384765625,798.6080322265625
1067,785.3113403320312,797.3992919921875,790.952392578125,786.923095703125
1068,785.7142944335938,799.8168334960938,793.3699340820312,784.908447265625
1069,786.1171875,794.5787353515625,788.5347900390625,786.923095703125
1070,784.908447265625,791.3552856445312,786.5201416015625,782.893798828125
1071,783.2966918945312,790.952392578125,794.5787353515625,782.4908447265625
1072,781.2820434570312,791.3552856445312,792.967041015625,788.1318969726562
1073,789.7435913085938,792.5640869140625,789.3406372070312,787.7289428710938
1074,794.5787353515625,795.3846435546875,794.1758422851562,783.2966918945312
1075,793.7728881835938,801.025634765625,797.8021850585938,788.1318969726562
1076,797.8021850585938,796.996337890625,798.6080322265625,790.952392578125
1077,791.7582397460938,792.967041015625,801.025634765625,788.1318969726562
1078,786.5201416015625,792.967041015625,801.025634765625,786.5201416015625
1079,789.3406372070312,791.3552856445312,797.8021850585938,784.5054931640625
1080,788.5347900390625,792.5640869140625,792.5640869140625,782.4908447265625
1081,786.1171875,794.5787353515625,791.3552856445312,783.6996459960938
1082,787.7289428710938,792.1611938476562,794.981689453125,783.6996459960938
1083,789.3406372070312,791.3552856445312,800.6226806640625,785.3113403320312
1084,791.3552856445312,794.1758422851562,799.8168334960938,794.1758422851562
1085,786.923095703125,793.3699340820312,797.8021850585938,790.952392578125
1086,785.7142944335938,794.1758422851562,804.2490844726562,784.908447265625
1087,789.7435913085938,793.7728881835938,801.4285888671875,786.5201416015625
1088,791.7582397460938,793.3699340820312,796.5933837890625,787.3259887695312
1089,795.3846435546875,793.7728881835938,801.4285888671875,789.7435913085938
1090,794.981689453125,792.1611938476562,799.4139404296875,787.3259887695312
1091,793.7728881835938,790.5494384765625,795.3846435546875,788.1318969726562
1092,790.952392578125,789.3406372070312,795.3846435546875,786.1171875
1093,784.908447265625,791.7582397460938,797.3992919921875,785.7142944335938
1094,783.2966918945312,794.981689453125,801.4285888671875,790.1465454101562
1095,789.3406372070312,789.7435913085938,799.4139404296875,786.923095703125
1096,792.1611938476562,789.3406372070312,796.996337890625,783.2966918945312
1097,786.5201416015625,790.1465454101562,796.996337890625,783.6996459960938
1098,784.5054931640625,789.3406372070312,793.3699340820312,787.7289428710938
1099,785.3113403320312,789.3406372070312,793.7728881835938,784.908447265625
1100,786.5201416015625,786.923095703125,798.6080322265625,786.1171875
1101,786.5201416015625,793.3699340820312,799.4139404296875,786.1171875
1102,784.1025390625,793.3699340820312,794.1758422851562,781.6849975585938
1103,787.3259887695312,790.952392578125,795.3846435546875,785.3113403320312
1104,781.6849975585938,792.5640869140625,795.7875366210938,781.2820434570312
1105,778.8644409179688,793.7728881835938,790.1465454101562,780.0732421875
1106,784.1025390625,793.7728881835938,790.1465454101562,780.0732421875
1107,783.2966918945312,794.1758422851562,789.3406372070312,784.5054931640625
1108,780.4761962890625,794.981689453125,790.952392578125,788.5347900390625
1109,783.2966918945312,794.1758422851562,790.952392578125,788.937744140625
1110,801.4285888671875,794.981689453125,792.5640869140625,794.981689453125
1111,806.2637329101562,794.981689453125,797.8021850585938,800.2197875976562
1112,799.4139404296875,796.996337890625,797.8021850585938,801.4285888671875
1113,800.2197875976562,799.010986328125,795.7875366210938,800.2197875976562
1114,801.025634765625,798.2051391601562,794.981689453125,800.6226806640625
1115,800.6226806640625,800.6226806640625,801.025634765625,799.8168334960938
1116,801.025634765625,799.8168334960938,803.4432373046875,805.8607788085938
1117,798.6080322265625,797.3992919921875,801.8314819335938,803.040283203125
1118,794.1758422851562,800.2197875976562,801.8314819335938,797.3992919921875
1119,795.7875366210938,801.8314819335938,803.8461303710938,805.054931640625
1120,796.5933837890625,796.5933837890625,801.8314819335938,805.054931640625
1121,793.7728881835938,792.967041015625,798.6080322265625,806.2637329101562
1122,793.7728881835938,792.5640869140625,795.3846435546875,805.054931640625
1123,799.010986328125,795.7875366210938,798.2051391601562,809.084228515625
1124,802.2344360351562,802.6373901367188,800.2197875976562,809.084228515625
1125,802.2344360351562,802.2344360351562,799.8168334960938,799.4139404296875
1126,806.2637329101562,798.6080322265625,799.4139404296875,800.2197875976562
1127,801.4285888671875,800.2197875976562,799.010986328125,799.4139404296875
1128,788.1318969726562,800.2197875976562,799.8168334960938,796.1904907226562
1129,784.1025390625,799.8168334960938,801.4285888671875,798.6080322265625
1130,787.3259887695312,806.6666870117188,803.040283203125,795.7875366210938
1131,793.3699340820312,810.6959838867188,799.4139404296875,790.5494384765625
1132,794.1758422851562,812.3076782226562,795.3846435546875,784.5054931640625
1133,790.1465454101562,813.113525390625,795.7875366210938,782.4908447265625
1134,789.3406372070312,806.6666870117188,798.6080322265625,790.1465454101562
1135,789.3406372070312,803.4432373046875,798.6080322265625,793.7728881835938
1136,790.5494384765625,805.4578857421875,798.6080322265625,793.7728881835938
1137,792.1611938476562,800.2197875976562,796.1904907226562,796.5933837890625
1138,788.5347900390625,794.1758422851562,789.7435913085938,793.7728881835938
1139,782.893798828125,795.3846435546875,789.3406372070312,790.1465454101562
1140,782.087890625,792.1611938476562,789.7435913085938,792.1611938476562
1141,787.7289428710938,792.5640869140625,790.1465454101562,797.3992919921875
1142,795.3846435546875,799.4139404296875,790.952392578125,793.3699340820312
1143,793.7728881835938,799.4139404296875,790.5494384765625,791.3552856445312
1144,783.6996459960938,798.2051391601562,788.937744140625,793.3699340820312
1145,784.1025390625,799.4139404296875,792.5640869140625,793.3699340820312
1146,788.5347900390625,795.7875366210938,795.7875366210938,796.5933837890625
1147,786.1171875,790.1465454101562,788.5347900390625,791.7582397460938
1148,783.6996459960938,792.1611938476562,785.3113403320312,784.908447265625
1149,786.923095703125,794.1758422851562,788.937744140625,788.937744140625
1150,791.7582397460938,796.1904907226562,791.3552856445312,799.4139404296875
1151,788.1318969726562,796.1904907226562,792.967041015625,794.1758422851562
1152,790.952392578125,796.5933837890625,797.3992919921875,786.923095703125
1153,785.3113403320312,797.3992919921875,795.3846435546875,780.4761962890625
1154,776.0439453125,796.996337890625,792.967041015625,776.4468994140625
1155,782.893798828125,799.010986328125,794.5787353515625,782.893798828125
1156,794.1758422851562,801.4285888671875,796.1904907226562,790.1465454101562
1157,790.1465454101562,798.6080322265625,795.7875366210938,790.952392578125
1158,789.7435913085938,792.1611938476562,798.6080322265625,792.1611938476562
1159,796.1904907226562,794.1758422851562,799.8168334960938,793.7728881835938
1160,788.937744140625,798.6080322265625,792.5640869140625,790.1465454101562
1161,781.2820434570312,793.3699340820312,787.3259887695312,792.5640869140625
1162,784.5054931640625,788.937744140625,788.937744140625,794.1758422851562
1163,784.5054931640625,788.5347900390625,794.981689453125,789.3406372070312
1164,781.6849975585938,787.7289428710938,795.7875366210938,792.5640869140625
1165,782.087890625,788.1318969726562,795.7875366210938,796.1904907226562
1166,785.3113403320312,792.967041015625,800.6226806640625,799.010986328125
1167,788.1318969726562,792.5640869140625,796.996337890625,798.2051391601562
1168,790.952392578125,790.1465454101562,794.5787353515625,797.3992919921875
1169,789.7435913085938,788.937744140625,794.981689453125,792.5640869140625
1170,795.7875366210938,789.7435913085938,796.5933837890625,791.3552856445312
1171,797.3992919921875,790.1465454101562,800.6226806640625,790.952392578125
1172,792.5640869140625,787.3259887695312,801.025634765625,790.1465454101562
1173,791.7582397460938,786.5201416015625,799.010986328125,792.5640869140625
1174,787.3259887695312,788.1318969726562,801.8314819335938,789.7435913085938
1175,787.3259887695312,793.7728881835938,805.8607788085938,789.7435913085938
1176,792.967041015625,795.7875366210938,803.8461303710938,797.8021850585938
1177,794.5787353515625,792.967041015625,802.6373901367188,796.5933837890625
1178,788.1318969726562,789.7435913085938,797.8021850585938,789.7435913085938
1179,785.3113403320312,787.7289428710938,794.1758422851562,788.1318969726562
1180,781.6849975585938,788.5347900390625,796.1904907226562,790.952392578125
1181,778.05859375,788.5347900390625,798.2051391601562,794.1758422851562
1182,784.1025390625,790.952392578125,799.010986328125,793.3699340820312
1183,794.981689453125,792.1611938476562,800.2197875976562,794.1758422851562
1184,789.3406372070312,791.7582397460938,800.6226806640625,796.1904907226562
1185,780.0732421875,791.7582397460938,798.2051391601562,794.1758422851562
1186,791.7582397460938,795.3846435546875,797.3992919921875,797.8021850585938
1187,797.3992919921875,794.981689453125,796.5933837890625,799.8168334960938
1188,795.7875366210938,792.967041015625,800.6226806640625,799.010986328125
1189,794.981689453125,792.5640869140625,802.6373901367188,804.6520385742188
1190,798.2051391601562,791.3552856445312,803.4432373046875,805.4578857421875
1191,801.8314819335938,786.923095703125,802.2344360351562,800.2197875976562
1192,796.996337890625,782.893798828125,796.996337890625,797.3992919921875
1193,796.996337890625,786.5201416015625,799.010986328125,798.2051391601562
1194,797.3992919921875,788.937744140625,793.7728881835938,799.8168334960938
1195,797.8021850585938,789.3406372070312,789.7435913085938,793.7728881835938
1196,796.1904907226562,790.5494384765625,790.952392578125,791.7582397460938
1197,791.3552856445312,790.952392578125,792.967041015625,788.1318969726562
1198,795.3846435546875,789.3406372070312,794.5787353515625,787.7289428710938
1199,794.5787353515625,790.952392578125,794.5787353515625,789.3406372070312
1200,788.5347900390625,793.3699340820312,793.3699340820312,791.3552856445312
1201,788.937744140625,792.967041015625,796.1904907226562,792.967041015625
1202,795.3846435546875,795.7875366210938,802.6373901367188,792.1611938476562
1203,803.040283203125,799.010986328125,807.87548828125,797.3992919921875
1204,798.2051391601562,799.8168334960938,808.6813354492188,801.025634765625
1205,793.7728881835938,799.010986328125,807.87548828125,797.3992919921875
1206,788.937744140625,796.996337890625,805.4578857421875,792.5640869140625
1207,791.7582397460938,796.1904907226562,803.040283203125,796.996337890625
1208,795.3846435546875,794.1758422851562,801.8314819335938,801.025634765625
1209,787.3259887695312,794.981689453125,799.010986328125,795.7875366210938
1210,786.5201416015625,792.1611938476562,799.8168334960938,792.1611938476562
1211,792.5640869140625,790.952392578125,803.8461303710938,793.7728881835938
1212,793.3699340820312,794.1758422851562,808.2783813476562,797.3992919921875
1213,792.5640869140625,791.7582397460938,807.87548828125,802.2344360351562
1214,792.967041015625,791.3552856445312,803.4432373046875,804.2490844726562
1215,792.5640869140625,789.7435913085938,803.8461303710938,804.6520385742188
1216,796.5933837890625,781.6849975585938,803.8461303710938,801.8314819335938
1217,799.4139404296875,784.1025390625,801.025634765625,798.6080322265625
1218,797.8021850585938,794.981689453125,799.010986328125,792.967041015625
1219,790.952392578125,801.8314819335938,797.8021850585938,788.5347900390625
1220,787.3259887695312,805.8607788085938,795.3846435546875,783.6996459960938
1221,788.937744140625,799.010986328125,796.1904907226562,781.6849975585938
1222,794.5787353515625,799.4139404296875,798.6080322265625,788.1318969726562
1223,801.8314819335938,799.8168334960938,796.5933837890625,791.7582397460938
1224,798.6080322265625,792.967041015625,794.981689453125,786.1171875
1225,799.010986328125,794.981689453125,799.010986328125,780.0732421875
1226,801.025634765625,796.5933837890625,797.8021850585938,786.1171875
1227,801.025634765625,795.7875366210938,793.7728881835938,794.981689453125
1228,799.4139404296875,793.7728881835938,795.7875366210938,789.3406372070312
1229,798.6080322265625,794.5787353515625,794.981689453125,785.3113403320312
1230,794.5787353515625,794.981689453125,792.967041015625,788.1318969726562
1231,785.3113403320312,795.3846435546875,793.7728881835938,790.952392578125
1232,782.4908447265625,797.3992919921875,794.1758422851562,794.981689453125
1233,787.3259887695312,796.996337890625,794.1758422851562,793.3699340820312
1234,791.3552856445312,797.8021850585938,797.8021850585938,794.5787353515625
1235,787.3259887695312,795.3846435546875,796.996337890625,793.3699340820312
1236,786.5201416015625,793.3699340820312,794.5787353515625,781.6849975585938
1237,788.1318969726562,794.5787353515625,797.8021850585938,777.6557006835938
1238,794.5787353515625,788.1318969726562,797.8021850585938,779.2673950195312
1239,789.7435913085938,787.3259887695312,795.7875366210938,780.0732421875
1240,779.2673950195312,789.3406372070312,796.5933837890625,776.8497924804688
1241,786.923095703125,787.7289428710938,796.996337890625,776.0439453125
1242,784.908447265625,786.5201416015625,797.3992919921875,778.8644409179688
1243,775.2380981445312,786.1171875,792.967041015625,777.2527465820312
1244,776.0439453125,784.5054931640625,791.7582397460938,772.8204956054688
1245,782.087890625,783.6996459960938,793.3699340820312,775.2380981445312
1246,780.4761962890625,782.893798828125,791.7582397460938,784.5054931640625
1247,779.2673950195312,786.5201416015625,792.967041015625,784.1025390625
1248,790.1465454101562,792.967041015625,796.5933837890625,786.5201416015625
1249,798.2051391601562,797.8021850585938,796.1904907226562,794.981689453125
1250,796.5933837890625,799.010986328125,796.996337890625,795.7875366210938
1251,790.5494384765625,797.8021850585938,797.8021850585938,792.1611938476562
1252,791.3552856445312,798.6080322265625,800.2197875976562,790.5494384765625
1253,795.3846435546875,796.5933837890625,799.4139404296875,791.3552856445312
1254,794.5787353515625,796.996337890625,794.1758422851562,794.5787353515625
1255,794.1758422851562,801.4285888671875,799.8168334960938,800.2197875976562
1256,794.5787353515625,799.8168334960938,803.4432373046875,797.8021850585938
1257,801.8314819335938,798.6080322265625,803.8461303710938,803.4432373046875
1258,808.2783813476562,803.4432373046875,802.2344360351562,808.6813354492188
1259,803.8461303710938,803.4432373046875,799.010986328125,797.8021850585938
1260,797.8021850585938,800.2197875976562,797.8021850585938,797.3992919921875
1261,788.937744140625,799.8168334960938,798.6080322265625,799.8168334960938
1262,784.908447265625,796.996337890625,797.3992919921875,797.3992919921875
1263,783.2966918945312,796.5933837890625,797.3992919921875,796.5933837890625
1264,786.923095703125,796.1904907226562,797.3992919921875,797.3992919921875
1265,796.5933837890625,795.7875366210938,797.3992919921875,792.967041015625
1266,792.967041015625,798.6080322265625,800.2197875976562,784.1025390625
1267,788.1318969726562,799.8168334960938,800.2197875976562,783.2966918945312
1268,792.1611938476562,799.010986328125,796.5933837890625,784.908447265625
1269,786.1171875,797.3992919921875,794.5787353515625,787.7289428710938
1270,780.879150390625,799.8168334960938,800.6226806640625,787.7289428710938
1271,778.4615478515625,794.1758422851562,801.8314819335938,787.3259887695312
1272,776.0439453125,789.3406372070312,799.010986328125,789.3406372070312
1273,782.893798828125,792.1611938476562,799.4139404296875,788.5347900390625
1274,786.1171875,792.1611938476562,797.8021850585938,787.7289428710938
1275,791.3552856445312,790.1465454101562,796.1904907226562,787.3259887695312
1276,792.1611938476562,792.1611938476562,796.996337890625,786.5201416015625
1277,789.7435913085938,794.981689453125,797.3992919921875,786.5201416015625
1278,792.967041015625,796.5933837890625,796.1904907226562,791.3552856445312
1279,794.1758422851562,795.3846435546875,794.981689453125,788.937744140625
1280,799.4139404296875,796.996337890625,798.2051391601562,794.981689453125
1281,800.2197875976562,798.6080322265625,797.8021850585938,801.025634765625
1282,792.1611938476562,795.7875366210938,796.5933837890625,789.7435913085938
1283,793.3699340820312,792.5640869140625,795.7875366210938,788.5347900390625
1284,791.7582397460938,791.3552856445312,792.967041015625,785.3113403320312
1285,792.5640869140625,795.3846435546875,796.1904907226562,780.0732421875
1286,799.4139404296875,795.7875366210938,798.2051391601562,783.2966918945312
1287,804.6520385742188,792.5640869140625,801.4285888671875,786.923095703125
1288,814.7252807617188,795.3846435546875,806.6666870117188,787.3259887695312
1289,809.89013671875,798.2051391601562,804.2490844726562,794.1758422851562
1290,795.3846435546875,796.5933837890625,798.6080322265625,797.8021850585938
1291,792.1611938476562,794.5787353515625,801.025634765625,794.981689453125
1292,791.3552856445312,792.1611938476562,801.025634765625,797.3992919921875
1293,786.5201416015625,794.1758422851562,801.025634765625,800.2197875976562
1294,790.5494384765625,798.2051391601562,807.069580078125,801.025634765625
1295,792.5640869140625,792.967041015625,801.025634765625,796.5933837890625
1296,791.3552856445312,788.937744140625,796.996337890625,794.1758422851562
1297,792.967041015625,793.3699340820312,801.025634765625,793.7728881835938
1298,789.3406372070312,790.952392578125,803.4432373046875,792.967041015625
1299,783.6996459960938,790.5494384765625,798.2051391601562,790.952392578125
1300,784.908447265625,789.3406372070312,796.996337890625,796.5933837890625
1301,791.3552856445312,790.5494384765625,796.996337890625,793.7728881835938
1302,788.937744140625,799.4139404296875,795.3846435546875,783.2966918945312
1303,784.1025390625,798.2051391601562,795.7875366210938,784.5054931640625
1304,784.5054931640625,795.7875366210938,797.3992919921875,789.3406372070312
1305,783.2966918945312,796.5933837890625,799.010986328125,786.923095703125
1306,782.087890625,795.3846435546875,798.6080322265625,788.1318969726562
1307,780.4761962890625,796.1904907226562,799.010986328125,790.5494384765625
1308,781.2820434570312,795.3846435546875,799.8168334960938,790.952392578125
1309,783.6996459960938,789.3406372070312,796.996337890625,788.1318969726562
1310,787.3259887695312,789.3406372070312,792.5640869140625,785.7142944335938
1311,795.3846435546875,790.1465454101562,791.7582397460938,791.3552856445312
1312,792.1611938476562,786.923095703125,796.1904907226562,793.3699340820312
1313,789.7435913085938,788.1318969726562,801.025634765625,790.1465454101562
1314,802.6373901367188,787.3259887695312,808.2783813476562,792.967041015625
1315,806.2637329101562,787.7289428710938,811.90478515625,792.5640869140625
1316,803.4432373046875,793.3699340820312,806.2637329101562,794.1758422851562
1317,802.6373901367188,795.3846435546875,805.4578857421875,794.1758422851562
1318,794.5787353515625,795.7875366210938,806.6666870117188,794.1758422851562
1319,788.5347900390625,794.5787353515625,803.4432373046875,800.6226806640625
1320,794.981689453125,792.967041015625,799.010986328125,803.8461303710938
1321,792.1611938476562,789.7435913085938,799.8168334960938,805.054931640625
1322,780.4761962890625,789.7435913085938,800.6226806640625,803.4432373046875
1323,774.8351440429688,794.1758422851562,796.1904907226562,800.2197875976562
1324,779.6703491210938,794.981689453125,799.010986328125,792.967041015625
1325,790.952392578125,792.5640869140625,796.996337890625,792.5640869140625
1326,787.3259887695312,792.967041015625,796.5933837890625,791.3552856445312
1327,779.6703491210938,794.5787353515625,796.996337890625,789.7435913085938
1328,784.5054931640625,793.7728881835938,792.967041015625,792.5640869140625
1329,786.5201416015625,792.967041015625,796.996337890625,796.996337890625
1330,795.3846435546875,793.3699340820312,801.4285888671875,805.8607788085938
1331,798.6080322265625,793.3699340820312,802.2344360351562,799.8168334960938
1332,791.7582397460938,792.1611938476562,799.010986328125,790.1465454101562
1333,790.1465454101562,795.7875366210938,798.2051391601562,789.7435913085938
1334,790.952392578125,798.2051391601562,801.025634765625,790.5494384765625
1335,785.7142944335938,793.7728881835938,792.967041015625,787.7289428710938
1336,788.937744140625,794.981689453125,792.1611938476562,786.923095703125
1337,794.1758422851562,800.2197875976562,798.6080322265625,782.893798828125
1338,786.923095703125,799.4139404296875,799.4139404296875,775.6410522460938
1339,784.5054931640625,797.3992919921875,799.4139404296875,780.0732421875
1340,787.7289428710938,798.6080322265625,793.7728881835938,785.3113403320312
1341,787.7289428710938,797.8021850585938,793.3699340820312,789.7435913085938
1342,787.7289428710938,796.5933837890625,794.5787353515625,794.5787353515625
1343,786.5201416015625,797.3992919921875,789.3406372070312,788.5347900390625
1344,783.2966918945312,799.010986328125,787.3259887695312,784.5054931640625
1345,788.5347900390625,799.010986328125,790.952392578125,788.937744140625
1346,796.1904907226562,800.2197875976562,796.1904907226562,790.1465454101562
1347,804.6520385742188,801.8314819335938,801.025634765625,792.5640869140625
1348,802.2344360351562,800.2197875976562,804.6520385742188,798.2051391601562
1349,789.3406372070312,796.5933837890625,801.8314819335938,796.1904907226562
1350,789.7435913085938,791.7582397460938,800.6226806640625,793.7728881835938
1351,791.3552856445312,791.7582397460938,803.040283203125,800.6226806640625
1352,790.1465454101562,789.3406372070312,796.996337890625,795.7875366210938
1353,791.7582397460938,786.923095703125,793.3699340820312,784.1025390625
1354,790.5494384765625,788.937744140625,796.1904907226562,787.3259887695312
1355,795.7875366210938,789.3406372070312,800.2197875976562,791.7582397460938
1356,805.4578857421875,791.3552856445312,797.3992919921875,792.5640869140625
1357,802.2344360351562,797.3992919921875,793.7728881835938,793.3699340820312
1358,790.5494384765625,795.3846435546875,797.8021850585938,794.981689453125
1359,788.1318969726562,790.1465454101562,796.996337890625,790.952392578125
1360,791.3552856445312,786.923095703125,794.981689453125,783.6996459960938
1361,793.3699340820312,782.893798828125,796.5933837890625,786.1171875
1362,792.5640869140625,783.6996459960938,795.3846435546875,790.1465454101562
1363,791.3552856445312,790.1465454101562,797.8021850585938,787.7289428710938
1364,790.1465454101562,789.3406372070312,798.2051391601562,785.3113403320312
1365,792.5640869140625,785.3113403320312,792.5640869140625,792.5640869140625
1366,796.1904907226562,789.7435913085938,796.1904907226562,795.7875366210938
1367,790.1465454101562,788.937744140625,795.7875366210938,793.3699340820312
1368,779.2673950195312,783.2966918945312,792.967041015625,790.952392578125
1369,778.8644409179688,784.5054931640625,793.3699340820312,785.7142944335938
1370,781.2820434570312,787.3259887695312,790.952392578125,781.6849975585938
1371,782.893798828125,788.937744140625,787.7289428710938,778.8644409179688
1372,787.3259887695312,788.1318969726562,789.3406372070312,784.908447265625
1373,796.5933837890625,788.5347900390625,788.937744140625,791.7582397460938
1374,801.4285888671875,789.7435913085938,786.1171875,790.1465454101562
1375,795.7875366210938,789.7435913085938,790.1465454101562,786.923095703125
1376,796.1904907226562,795.3846435546875,792.1611938476562,793.7728881835938
1377,803.8461303710938,798.2051391601562,791.7582397460938,800.6226806640625
1378,803.8461303710938,796.5933837890625,792.967041015625,792.5640869140625
1379,791.3552856445312,791.7582397460938,789.7435913085938,784.908447265625
1380,786.1171875,789.3406372070312,786.5201416015625,786.923095703125
1381,790.1465454101562,790.5494384765625,784.1025390625,791.3552856445312
1382,789.7435913085938,792.1611938476562,785.3113403320312,788.1318969726562
1383,789.3406372070312,792.1611938476562,787.3259887695312,783.6996459960938
1384,787.3259887695312,791.7582397460938,786.923095703125,780.879150390625
1385,790.1465454101562,794.981689453125,791.7582397460938,787.7289428710938
1386,790.1465454101562,793.7728881835938,793.3699340820312,790.1465454101562
1387,790.952392578125,790.5494384765625,792.967041015625,790.952392578125
1388,800.2197875976562,793.3699340820312,794.1758422851562,803.4432373046875
1389,790.5494384765625,798.2051391601562,796.1904907226562,800.2197875976562
1390,784.5054931640625,797.3992919921875,795.3846435546875,790.1465454101562
1391,795.7875366210938,795.3846435546875,794.1758422851562,786.923095703125
1392,803.4432373046875,800.6226806640625,795.7875366210938,789.7435913085938
1393,801.4285888671875,802.6373901367188,799.8168334960938,793.7728881835938
1394,791.3552856445312,801.025634765625,804.2490844726562,791.3552856445312
1395,783.6996459960938,800.2197875976562,800.2197875976562,789.7435913085938
1396,780.879150390625,799.010986328125,800.2197875976562,787.3259887695312
1397,774.8351440429688,793.7728881835938,796.5933837890625,776.4468994140625
1398,769.1941528320312,787.3259887695312,789.3406372070312,765.5677490234375
1399,770.0,791.7582397460938,801.025634765625,773.2234497070312
1400,761.5384521484375,802.6373901367188,817.5457763671875,777.2527465820312
1401,740.989013671875,799.010986328125,808.2783813476562,760.3296508789062
1402,718.8278198242188,787.3259887695312,795.3846435546875,739.3773193359375
1403,703.5164794921875,788.5347900390625,801.025634765625,726.08056640625
1404,698.2783813476562,798.2051391601562,817.94873046875,715.6043701171875
1405,695.054931640625,800.2197875976562,826.4102783203125,703.113525390625
1406,686.996337890625,792.1611938476562,825.2014770507812,693.4432373046875
1407,675.7142944335938,790.1465454101562,827.2161254882812,682.5640869140625
1408,671.6849975585938,800.2197875976562,829.2307739257812,672.893798828125
1409,662.0146484375,803.8461303710938,836.08056640625,665.2380981445312
1410,651.5384521484375,796.996337890625,844.945068359375,668.4615478515625
1411,650.7326049804688,798.6080322265625,849.7802124023438,669.6703491210938
1412,655.5677490234375,799.8168334960938,846.959716796875,671.2820434570312
1413,660.0,798.6080322265625,848.5714111328125,677.3259887695312
1414,664.4322509765625,798.2051391601562,855.4212646484375,678.5347900390625
1415,674.5054931640625,791.3552856445312,850.989013671875,684.5787353515625
1416,690.2197875976562,786.5201416015625,843.3333129882812,693.8461303710938
1417,697.87548828125,795.7875366210938,839.7069702148438,703.113525390625
1418,701.90478515625,806.6666870117188,838.4981689453125,715.2014770507812
1419,711.1721801757812,802.2344360351562,836.4835205078125,724.06591796875
1420,715.6043701171875,801.025634765625,832.4542236328125,726.08056640625
1421,726.886474609375,800.6226806640625,823.5897216796875,728.4981689453125
1422,738.974365234375,800.2197875976562,818.7545776367188,736.1538696289062
1423,751.4652099609375,801.8314819335938,818.3516235351562,753.8828125
1424,759.120849609375,796.1904907226562,812.7106323242188,765.970703125
1425,765.970703125,792.1611938476562,803.8461303710938,776.8497924804688
1426,776.8497924804688,792.1611938476562,798.6080322265625,789.7435913085938
1427,788.5347900390625,789.7435913085938,798.2051391601562,795.3846435546875
1428,799.8168334960938,784.908447265625,792.5640869140625,805.4578857421875
1429,808.6813354492188,786.1171875,783.2966918945312,812.7106323242188
1430,812.3076782226562,788.1318969726562,782.893798828125,809.89013671875
1431,811.098876953125,791.7582397460938,781.6849975585938,806.6666870117188
1432,810.6959838867188,794.981689453125,772.4176025390625,803.040283203125
1433,819.1575317382812,797.8021850585938,773.2234497070312,812.7106323242188
1434,823.99267578125,798.6080322265625,772.8204956054688,821.1721801757812
1435,820.3662719726562,794.981689453125,766.7765502929688,810.2930297851562
1436,832.05126953125,796.1904907226562,767.9853515625,809.89013671875
1437,840.5128173828125,793.3699340820312,763.9560546875,820.7692260742188
1438,834.4688720703125,788.937744140625,759.5238037109375,830.8424682617188
1439,827.6190185546875,790.1465454101562,757.5091552734375,825.2014770507812
1440,821.97802734375,786.1171875,757.5091552734375,820.3662719726562
1441,821.5750732421875,782.4908447265625,766.3735961914062,825.6043701171875
1442,823.5897216796875,781.6849975585938,766.3735961914062,828.02197265625
1443,823.1868286132812,775.2380981445312,761.5384521484375,825.2014770507812
1444,824.3956298828125,771.6116943359375,760.3296508789062,821.97802734375
1445,825.6043701171875,774.4322509765625,761.94140625,821.5750732421875
1446,828.8278198242188,781.6849975585938,763.5531005859375,828.02197265625
1447,829.6337280273438,785.3113403320312,766.3735961914062,831.2454223632812
1448,826.4102783203125,783.6996459960938,766.3735961914062,828.02197265625
1449,827.6190185546875,784.1025390625,764.3589477539062,835.6776733398438
1450,823.99267578125,784.1025390625,766.7765502929688,832.05126953125
1451,821.97802734375,789.7435913085938,767.9853515625,826.8131713867188
1452,828.02197265625,788.1318969726562,768.3883056640625,830.4395751953125
1453,834.8717651367188,784.5054931640625,768.7911987304688,826.00732421875
1454,833.6630249023438,789.3406372070312,767.9853515625,822.3809814453125
1455,832.05126953125,788.1318969726562,767.1795043945312,817.94873046875
1456,831.6483764648438,784.5054931640625,769.5970458984375,819.1575317382812
1457,830.03662109375,786.923095703125,773.2234497070312,828.4249267578125
1458,837.6923217773438,787.7289428710938,776.8497924804688,836.08056640625
1459,840.5128173828125,786.1171875,780.0732421875,829.6337280273438
1460,831.2454223632812,785.3113403320312,777.2527465820312,823.1868286132812
1461,823.5897216796875,786.923095703125,777.6557006835938,826.00732421875
1462,822.3809814453125,790.1465454101562,778.4615478515625,819.5604248046875
1463,829.2307739257812,795.7875366210938,781.2820434570312,824.3956298828125
1464,834.4688720703125,796.996337890625,781.2820434570312,827.6190185546875
1465,830.03662109375,794.1758422851562,775.6410522460938,819.96337890625
1466,822.3809814453125,796.1904907226562,774.029296875,819.5604248046875
1467,822.3809814453125,794.981689453125,776.0439453125,816.7399291992188
1468,826.8131713867188,792.5640869140625,780.0732421875,818.3516235351562
1469,828.4249267578125,794.1758422851562,784.908447265625,822.3809814453125
1470,826.4102783203125,799.010986328125,789.7435913085938,813.91943359375
1471,816.7399291992188,796.5933837890625,788.1318969726562,802.2344360351562
1472,815.1282348632812,796.1904907226562,786.1171875,810.6959838867188
1473,813.91943359375,792.5640869140625,791.7582397460938,823.5897216796875
1474,805.4578857421875,786.5201416015625,792.5640869140625,807.069580078125
1475,813.113525390625,787.3259887695312,786.1171875,795.3846435546875
1476,815.5311279296875,791.3552856445312,788.5347900390625,796.5933837890625
1477,807.069580078125,794.5787353515625,792.1611938476562,797.3992919921875
1478,805.054931640625,794.1758422851562,788.1318969726562,797.3992919921875
1479,808.6813354492188,794.981689453125,784.5054931640625,799.010986328125
1480,810.6959838867188,795.3846435546875,786.5201416015625,794.1758422851562
1481,813.91943359375,798.2051391601562,788.937744140625,794.981689453125
1482,810.2930297851562,801.4285888671875,787.7289428710938,801.4285888671875
1483,803.4432373046875,797.8021850585938,787.7289428710938,806.6666870117188
1484,799.010986328125,792.967041015625,791.3552856445312,809.084228515625
1485,799.8168334960938,794.5787353515625,794.1758422851562,807.069580078125
1486,799.010986328125,792.5640869140625,792.967041015625,806.6666870117188
1487,792.967041015625,789.7435913085938,791.3552856445312,803.4432373046875
1488,796.996337890625,790.5494384765625,790.1465454101562,801.4285888671875
1489,801.4285888671875,790.5494384765625,787.3259887695312,800.6226806640625
1490,802.2344360351562,794.981689453125,788.937744140625,802.2344360351562
1491,800.2197875976562,794.981689453125,790.5494384765625,803.040283203125
1492,796.1904907226562,790.952392578125,786.1171875,795.7875366210938
1493,796.1904907226562,790.1465454101562,786.5201416015625,790.5494384765625
1494,799.010986328125,786.923095703125,792.967041015625,791.3552856445312
1495,798.2051391601562,782.4908447265625,792.1611938476562,793.7728881835938
1496,794.1758422851562,783.6996459960938,795.3846435546875,793.7728881835938
1497,789.3406372070312,788.1318969726562,799.4139404296875,788.937744140625
1498,794.5787353515625,794.5787353515625,799.4139404296875,790.5494384765625
1499,801.8314819335938,795.3846435546875,799.4139404296875,790.1465454101562
1500,797.3992919921875,792.967041015625,799.4139404296875,791.3552856445312
1501,792.5640869140625,794.981689453125,800.2197875976562,797.3992919921875
1502,791.3552856445312,796.996337890625,795.7875366210938,795.3846435546875
1503,789.3406372070312,794.5787353515625,791.7582397460938,792.1611938476562
1504,791.7582397460938,793.7728881835938,794.981689453125,796.1904907226562
1505,796.996337890625,795.3846435546875,797.8021850585938,796.1904907226562
1506,795.3846435546875,791.3552856445312,792.967041015625,788.5347900390625
1507,792.967041015625,789.7435913085938,792.967041015625,790.1465454101562
1508,792.967041015625,792.967041015625,794.981689453125,792.1611938476562
1509,798.2051391601562,790.952392578125,790.952392578125,795.7875366210938
1510,800.6226806640625,790.1465454101562,791.3552856445312,800.2197875976562
1511,794.5787353515625,792.5640869140625,794.981689453125,803.040283203125
1512,788.937744140625,790.952392578125,793.7728881835938,799.010986328125
1513,793.3699340820312,787.7289428710938,791.7582397460938,793.3699340820312
1514,797.3992919921875,790.1465454101562,790.5494384765625,793.3699340820312
1515,794.981689453125,788.937744140625,794.1758422851562,793.3699340820312
1516,793.7728881835938,787.3259887695312,793.7728881835938,793.3699340820312
1517,788.5347900390625,785.3113403320312,787.7289428710938,788.937744140625
1518,786.923095703125,785.3113403320312,786.1171875,790.1465454101562
1519,790.952392578125,787.3259887695312,786.923095703125,792.5640869140625
1520,785.3113403320312,788.937744140625,788.1318969726562,782.893798828125
1521,782.893798828125,788.1318969726562,780.879150390625,780.4761962890625
1522,785.7142944335938,786.5201416015625,781.2820434570312,780.879150390625
1523,789.7435913085938,787.3259887695312,788.1318969726562,786.923095703125
1524,796.5933837890625,789.7435913085938,791.3552856445312,792.1611938476562
1525,801.8314819335938,789.3406372070312,796.5933837890625,792.967041015625
1526,803.4432373046875,790.5494384765625,798.2051391601562,795.3846435546875
1527,802.6373901367188,794.1758422851562,798.6080322265625,792.1611938476562
1528,796.1904907226562,790.952392578125,796.996337890625,786.1171875
1529,789.3406372070312,788.5347900390625,791.7582397460938,785.3113403320312
1530,790.5494384765625,785.7142944335938,787.3259887695312,789.7435913085938
1531,793.7728881835938,790.5494384765625,790.952392578125,790.1465454101562
1532,793.7728881835938,797.8021850585938,788.5347900390625,785.7142944335938
1533,786.1171875,792.5640869140625,783.6996459960938,784.5054931640625
1534,785.3113403320312,794.981689453125,789.3406372070312,793.3699340820312
1535,799.010986328125,799.4139404296875,795.3846435546875,793.7728881835938
1536,802.6373901367188,796.996337890625,792.5640869140625,787.7289428710938
1537,796.996337890625,796.996337890625,788.937744140625,786.923095703125
1538,793.7728881835938,796.996337890625,790.952392578125,784.5054931640625
1539,801.4285888671875,795.7875366210938,792.967041015625,784.908447265625
1540,801.4285888671875,795.7875366210938,797.3992919921875,790.952392578125
1541,796.1904907226562,798.6080322265625,800.6226806640625,797.3992919921875
1542,795.7875366210938,798.6080322265625,796.5933837890625,796.996337890625
1543,791.7582397460938,794.981689453125,794.1758422851562,794.1758422851562
1544,790.5494384765625,792.1611938476562,798.6080322265625,792.5640869140625
1545,793.3699340820312,789.7435913085938,799.4139404296875,794.1758422851562
1546,798.6080322265625,790.5494384765625,798.2051391601562,798.6080322265625
1547,801.025634765625,793.3699340820312,801.8314819335938,798.6080322265625
1548,796.5933837890625,796.1904907226562,801.025634765625,798.2051391601562
1549,797.3992919921875,797.3992919921875,801.8314819335938,796.996337890625
1550,795.3846435546875,798.6080322265625,803.8461303710938,795.7875366210938
1551,788.937744140625,800.2197875976562,799.4139404296875,790.5494384765625
1552,790.5494384765625,799.010986328125,796.1904907226562,788.1318969726562
1553,794.5787353515625,799.010986328125,795.7875366210938,790.952392578125
1554,801.8314819335938,800.6226806640625,799.8168334960938,795.3846435546875
1555,805.054931640625,796.996337890625,800.6226806640625,798.6080322265625
1556,803.8461303710938,795.3846435546875,800.2197875976562,800.2197875976562
1557,803.8461303710938,797.3992919921875,799.4139404296875,800.6226806640625
1558,801.4285888671875,797.3992919921875,793.3699340820312,799.8168334960938
1559,803.4432373046875,799.4139404296875,794.981689453125,802.6373901367188
1560,806.2637329101562,803.040283203125,796.996337890625,811.5018310546875
1561,802.6373901367188,805.8607788085938,795.7875366210938,812.3076782226562
1562,797.3992919921875,803.040283203125,796.1904907226562,800.6226806640625
1563,793.7728881835938,799.010986328125,799.4139404296875,798.6080322265625
1564,795.3846435546875,802.2344360351562,802.6373901367188,805.4578857421875
1565,797.3992919921875,799.4139404296875,801.025634765625,804.6520385742188
1566,792.5640869140625,794.1758422851562,796.1904907226562,798.6080322265625
1567,788.937744140625,793.3699340820312,794.1758422851562,789.7435913085938
1568,788.937744140625,796.1904907226562,792.1611938476562,798.2051391601562
1569,792.967041015625,798.6080322265625,795.3846435546875,803.040283203125
1570,795.3846435546875,796.5933837890625,801.025634765625,795.7875366210938
1571,793.7728881835938,794.5787353515625,801.8314819335938,797.3992919921875
1572,791.7582397460938,794.5787353515625,801.8314819335938,796.5933837890625
1573,786.1171875,792.1611938476562,799.4139404296875,792.1611938476562
1574,783.6996459960938,789.3406372070312,797.8021850585938,786.5201416015625
1575,782.893798828125,788.937744140625,798.6080322265625,788.5347900390625
1576,780.879150390625,789.7435913085938,798.6080322265625,789.7435913085938
1577,784.1025390625,786.5201416015625,798.6080322265625,786.5201416015625
1578,783.6996459960938,785.7142944335938,800.2197875976562,784.908447265625
1579,780.4761962890625,786.923095703125,800.2197875976562,783.6996459960938
1580,782.087890625,788.1318969726562,797.8021850585938,788.5347900390625
1581,785.7142944335938,788.5347900390625,798.6080322265625,789.7435913085938
1582,790.1465454101562,791.7582397460938,801.8314819335938,792.967041015625
1583,788.937744140625,790.1465454101562,803.4432373046875,796.5933837890625
1584,787.3259887695312,784.908447265625,802.6373901367188,792.5640869140625
