timestamp,RAW_TP9,RAW_AF7,RAW_AF8,RAW_TP10
1,792.1611938476562,788.937744140625,795.7875366210938,792.967041015625
2,798.6080322265625,792.5640869140625,792.1611938476562,792.967041015625
3,792.967041015625,787.7289428710938,791.7582397460938,796.1904907226562
4,792.5640869140625,792.967041015625,794.5787353515625,799.4139404296875
5,797.3992919921875,798.2051391601562,797.8021850585938,800.6226806640625
6,797.8021850585938,792.5640869140625,799.4139404296875,799.8168334960938
7,796.5933837890625,784.5054931640625,791.7582397460938,797.3992919921875
8,794.981689453125,786.5201416015625,792.967041015625,800.6226806640625
9,792.1611938476562,792.967041015625,799.4139404296875,797.3992919921875
10,796.5933837890625,800.2197875976562,793.7728881835938,795.7875366210938
11,798.2051391601562,801.4285888671875,796.996337890625,798.6080322265625
12,792.5640869140625,791.3552856445312,797.3992919921875,797.3992919921875
13,790.952392578125,795.7875366210938,790.1465454101562,792.1611938476562
14,793.3699340820312,803.4432373046875,790.952392578125,790.1465454101562
15,791.7582397460938,797.8021850585938,791.7582397460938,796.996337890625
16,795.7875366210938,801.8314819335938,797.8021850585938,801.4285888671875
17,796.5933837890625,804.2490844726562,801.025634765625,798.2051391601562
18,790.952392578125,790.5494384765625,792.967041015625,796.1904907226562
19,792.5640869140625,788.1318969726562,789.7435913085938,801.8314819335938
20,791.3552856445312,799.010986328125,794.1758422851562,794.5787353515625
21,789.3406372070312,800.2197875976562,796.996337890625,788.1318969726562
22,791.7582397460938,796.996337890625,793.7728881835938,790.5494384765625
23,794.981689453125,794.981689453125,798.2051391601562,790.5494384765625
24,795.3846435546875,789.7435913085938,799.8168334960938,790.5494384765625
25,792.5640869140625,793.3699340820312,796.5933837890625,791.7582397460938
26,794.5787353515625,795.7875366210938,796.1904907226562,797.8021850585938
27,796.996337890625,788.937744140625,794.981689453125,801.4285888671875
28,794.981689453125,788.1318969726562,788.1318969726562,800.2197875976562
29,791.3552856445312,790.952392578125,786.923095703125,793.3699340820312
30,792.5640869140625,790.952392578125,789.3406372070312,793.3699340820312
31,792.5640869140625,790.5494384765625,792.1611938476562,799.8168334960938
32,789.3406372070312,789.7435913085938,795.3846435546875,792.967041015625
33,797.3992919921875,792.1611938476562,795.3846435546875,791.7582397460938
34,801.4285888671875,788.5347900390625,789.7435913085938,788.5347900390625
35,796.5933837890625,779.6703491210938,787.7289428710938,778.4615478515625
36,795.7875366210938,793.7728881835938,791.7582397460938,784.5054931640625
37,794.5787353515625,799.010986328125,795.3846435546875,798.6080322265625
38,792.1611938476562,790.1465454101562,795.7875366210938,800.6226806640625
39,791.7582397460938,790.952392578125,794.1758422851562,795.7875366210938
40,790.1465454101562,790.1465454101562,794.5787353515625,796.5933837890625
41,790.5494384765625,786.5201416015625,794.1758422851562,796.1904907226562
42,787.3259887695312,782.893798828125,790.1465454101562,798.6080322265625
43,782.893798828125,790.952392578125,790.5494384765625,790.952392578125
44,789.3406372070312,793.3699340820312,789.7435913085938,782.893798828125
45,790.952392578125,787.3259887695312,789.3406372070312,786.923095703125
46,783.2966918945312,793.3699340820312,788.937744140625,784.908447265625
47,784.5054931640625,796.1904907226562,792.5640869140625,780.0732421875
48,786.1171875,790.952392578125,792.5640869140625,780.4761962890625
49,782.4908447265625,785.7142944335938,791.3552856445312,783.2966918945312
50,783.2966918945312,787.7289428710938,795.3846435546875,786.1171875
51,788.1318969726562,798.2051391601562,791.3552856445312,789.3406372070312
52,787.3259887695312,796.5933837890625,785.3113403320312,789.7435913085938
53,786.923095703125,791.7582397460938,785.3113403320312,793.3699340820312
54,791.7582397460938,791.3552856445312,790.952392578125,798.2051391601562
55,794.5787353515625,793.3699340820312,797.3992919921875,795.7875366210938
56,793.7728881835938,796.1904907226562,797.8021850585938,795.7875366210938
57,792.5640869140625,792.967041015625,796.1904907226562,792.5640869140625
58,790.952392578125,789.3406372070312,789.7435913085938,787.3259887695312
59,790.952392578125,792.5640869140625,789.7435913085938,780.879150390625
60,794.1758422851562,797.3992919921875,791.7582397460938,782.893798828125
61,796.5933837890625,797.3992919921875,790.1465454101562,788.5347900390625
62,792.967041015625,792.967041015625,793.7728881835938,786.5201416015625
63,792.1611938476562,792.967041015625,794.981689453125,790.952392578125
64,797.8021850585938,801.4285888671875,792.967041015625,798.6080322265625
65,801.025634765625,799.4139404296875,796.1904907226562,806.6666870117188
66,799.8168334960938,792.967041015625,799.4139404296875,801.8314819335938
67,794.1758422851562,789.3406372070312,796.5933837890625,792.967041015625
68,793.3699340820312,794.981689453125,796.5933837890625,798.6080322265625
69,796.5933837890625,801.4285888671875,796.1904907226562,800.6226806640625
70,798.6080322265625,796.5933837890625,798.2051391601562,798.6080322265625
71,798.2051391601562,796.1904907226562,798.2051391601562,801.8314819335938
72,792.1611938476562,798.2051391601562,792.967041015625,799.010986328125
73,789.7435913085938,795.3846435546875,794.981689453125,793.3699340820312
74,795.7875366210938,796.1904907226562,792.967041015625,788.5347900390625
75,793.7728881835938,793.3699340820312,792.5640869140625,785.3113403320312
76,797.8021850585938,789.7435913085938,798.2051391601562,797.3992919921875
77,807.87548828125,790.952392578125,799.8168334960938,806.6666870117188
78,799.4139404296875,790.952392578125,802.2344360351562,794.5787353515625
79,796.5933837890625,795.7875366210938,799.010986328125,791.3552856445312
80,801.4285888671875,799.8168334960938,797.3992919921875,796.1904907226562
81,796.5933837890625,799.4139404296875,799.4139404296875,791.7582397460938
82,794.5787353515625,794.5787353515625,797.8021850585938,789.3406372070312
83,796.5933837890625,791.3552856445312,799.4139404296875,794.1758422851562
84,797.3992919921875,790.5494384765625,803.040283203125,795.3846435546875
85,803.8461303710938,792.967041015625,803.040283203125,802.6373901367188
86,803.4432373046875,786.1171875,800.6226806640625,803.4432373046875
87,799.010986328125,779.2673950195312,798.2051391601562,798.2051391601562
88,799.010986328125,791.3552856445312,792.1611938476562,804.2490844726562
89,799.8168334960938,801.8314819335938,793.3699340820312,801.4285888671875
90,796.5933837890625,796.1904907226562,791.7582397460938,791.3552856445312
91,798.6080322265625,794.981689453125,788.937744140625,792.1611938476562
92,801.025634765625,797.3992919921875,793.3699340820312,798.2051391601562
93,794.981689453125,790.5494384765625,797.3992919921875,795.3846435546875
94,796.996337890625,793.3699340820312,798.6080322265625,798.2051391601562
95,801.025634765625,792.967041015625,794.981689453125,797.8021850585938
96,803.040283203125,791.7582397460938,801.4285888671875,799.4139404296875
97,804.6520385742188,792.1611938476562,805.8607788085938,803.8461303710938
98,800.6226806640625,787.7289428710938,801.025634765625,801.8314819335938
99,800.2197875976562,792.1611938476562,795.7875366210938,797.3992919921875
100,801.025634765625,798.6080322265625,792.967041015625,787.3259887695312
101,799.8168334960938,793.3699340820312,790.5494384765625,781.2820434570312
102,801.4285888671875,788.5347900390625,788.937744140625,786.1171875
103,801.8314819335938,792.1611938476562,793.7728881835938,786.1171875
104,801.4285888671875,792.5640869140625,797.3992919921875,785.7142944335938
105,794.5787353515625,787.3259887695312,792.967041015625,787.7289428710938
106,792.967041015625,782.893798828125,790.1465454101562,788.5347900390625
107,796.996337890625,781.2820434570312,788.937744140625,787.3259887695312
108,789.3406372070312,780.0732421875,791.7582397460938,782.087890625
109,785.3113403320312,782.4908447265625,795.7875366210938,784.1025390625
110,789.3406372070312,785.7142944335938,797.3992919921875,786.1171875
111,792.5640869140625,784.908447265625,794.5787353515625,790.1465454101562
112,799.010986328125,788.937744140625,795.7875366210938,794.1758422851562
113,798.2051391601562,790.952392578125,794.981689453125,790.952392578125
114,788.1318969726562,790.1465454101562,788.937744140625,784.5054931640625
115,794.1758422851562,795.3846435546875,793.7728881835938,791.3552856445312
116,798.6080322265625,796.996337890625,802.2344360351562,799.4139404296875
117,793.3699340820312,795.7875366210938,798.2051391601562,796.5933837890625
118,791.3552856445312,796.5933837890625,791.7582397460938,792.5640869140625
119,791.3552856445312,795.3846435546875,798.6080322265625,791.3552856445312
120,792.5640869140625,793.7728881835938,800.6226806640625,785.3113403320312
121,794.5787353515625,791.7582397460938,795.7875366210938,783.2966918945312
122,795.3846435546875,787.7289428710938,795.3846435546875,789.7435913085938
123,793.3699340820312,788.1318969726562,795.7875366210938,781.6849975585938
124,796.5933837890625,795.3846435546875,796.996337890625,780.4761962890625
125,801.025634765625,796.1904907226562,798.2051391601562,786.1171875
126,801.4285888671875,792.5640869140625,798.2051391601562,784.908447265625
127,807.4725341796875,796.1904907226562,795.3846435546875,790.952392578125
128,807.4725341796875,797.3992919921875,798.6080322265625,793.3699340820312
129,800.6226806640625,796.996337890625,802.6373901367188,791.7582397460938
130,796.996337890625,793.7728881835938,798.2051391601562,795.3846435546875
131,799.010986328125,795.7875366210938,796.5933837890625,788.5347900390625
132,793.3699340820312,788.5347900390625,801.025634765625,784.908447265625
133,788.5347900390625,776.0439453125,799.4139404296875,791.3552856445312
134,790.5494384765625,786.1171875,797.8021850585938,801.025634765625
135,796.1904907226562,799.010986328125,800.2197875976562,806.6666870117188
136,797.8021850585938,795.3846435546875,798.2051391601562,800.2197875976562
137,798.2051391601562,792.1611938476562,795.3846435546875,797.8021850585938
138,800.2197875976562,791.3552856445312,792.5640869140625,799.8168334960938
139,792.5640869140625,794.981689453125,795.3846435546875,791.3552856445312
140,789.3406372070312,796.5933837890625,795.3846435546875,783.6996459960938
141,794.981689453125,790.5494384765625,791.7582397460938,785.3113403320312
142,797.3992919921875,789.3406372070312,791.7582397460938,786.1171875
143,796.1904907226562,789.7435913085938,794.5787353515625,789.7435913085938
144,795.7875366210938,786.5201416015625,799.8168334960938,796.1904907226562
145,794.1758422851562,791.7582397460938,794.5787353515625,796.1904907226562
146,790.5494384765625,792.5640869140625,792.967041015625,795.3846435546875
147,787.3259887695312,789.7435913085938,795.3846435546875,796.5933837890625
148,784.908447265625,792.967041015625,791.7582397460938,797.8021850585938
149,787.3259887695312,794.981689453125,790.5494384765625,799.4139404296875
150,791.3552856445312,793.3699340820312,790.952392578125,797.3992919921875
151,789.7435913085938,796.5933837890625,788.937744140625,791.7582397460938
152,790.952392578125,796.996337890625,791.3552856445312,785.3113403320312
153,791.3552856445312,789.3406372070312,794.1758422851562,780.879150390625
154,790.1465454101562,786.1171875,793.3699340820312,781.6849975585938
155,783.6996459960938,786.1171875,791.7582397460938,786.923095703125
156,782.4908447265625,793.3699340820312,792.1611938476562,789.7435913085938
157,784.908447265625,796.996337890625,794.1758422851562,790.1465454101562
158,784.1025390625,795.3846435546875,796.1904907226562,790.952392578125
159,786.5201416015625,803.4432373046875,796.1904907226562,784.5054931640625
160,786.923095703125,802.2344360351562,793.3699340820312,784.5054931640625
161,788.5347900390625,798.2051391601562,788.937744140625,796.996337890625
162,788.1318969726562,799.8168334960938,791.3552856445312,792.1611938476562
163,783.6996459960938,793.3699340820312,794.5787353515625,777.6557006835938
164,786.923095703125,784.908447265625,791.7582397460938,778.05859375
165,779.6703491210938,788.1318969726562,787.3259887695312,774.029296875
166,780.4761962890625,792.967041015625,789.3406372070312,773.6264038085938
167,786.5201416015625,792.1611938476562,787.7289428710938,772.8204956054688
168,782.4908447265625,793.7728881835938,791.3552856445312,775.2380981445312
169,782.893798828125,794.5787353515625,792.1611938476562,784.908447265625
170,785.7142944335938,785.3113403320312,790.952392578125,784.5054931640625
171,788.937744140625,791.3552856445312,792.967041015625,783.2966918945312
172,795.3846435546875,803.8461303710938,792.967041015625,788.937744140625
173,791.7582397460938,799.8168334960938,795.7875366210938,790.952392578125
174,784.5054931640625,800.6226806640625,798.6080322265625,790.952392578125
175,793.3699340820312,798.6080322265625,794.981689453125,792.5640869140625
176,800.2197875976562,790.5494384765625,788.937744140625,801.8314819335938
177,793.3699340820312,796.996337890625,790.5494384765625,806.6666870117188
178,786.1171875,799.010986328125,794.5787353515625,795.3846435546875
179,789.7435913085938,796.996337890625,794.981689453125,792.1611938476562
180,792.5640869140625,796.1904907226562,793.7728881835938,793.7728881835938
181,792.1611938476562,791.7582397460938,796.996337890625,792.5640869140625
182,788.937744140625,785.3113403320312,797.8021850585938,788.937744140625
183,793.7728881835938,787.3259887695312,794.981689453125,790.952392578125
184,800.2197875976562,793.7728881835938,795.7875366210938,792.967041015625
185,801.8314819335938,796.996337890625,794.981689453125,792.1611938476562
186,797.8021850585938,796.1904907226562,794.1758422851562,790.1465454101562
187,796.996337890625,796.1904907226562,801.025634765625,793.7728881835938
188,799.010986328125,793.7728881835938,800.2197875976562,801.8314819335938
189,796.1904907226562,794.5787353515625,794.981689453125,794.5787353515625
190,792.5640869140625,793.3699340820312,798.6080322265625,793.7728881835938
191,794.1758422851562,790.952392578125,798.2051391601562,796.1904907226562
192,797.3992919921875,795.3846435546875,798.6080322265625,793.3699340820312
193,793.3699340820312,790.952392578125,801.025634765625,792.967041015625
194,791.3552856445312,784.1025390625,799.8168334960938,789.7435913085938
195,790.952392578125,790.952392578125,797.3992919921875,790.1465454101562
196,794.5787353515625,801.4285888671875,798.6080322265625,794.1758422851562
197,795.3846435546875,798.2051391601562,799.8168334960938,795.3846435546875
198,792.5640869140625,791.3552856445312,799.010986328125,798.2051391601562
199,794.981689453125,795.3846435546875,796.996337890625,806.2637329101562
200,795.7875366210938,797.8021850585938,800.2197875976562,803.8461303710938
201,794.981689453125,793.7728881835938,803.040283203125,798.6080322265625
202,796.1904907226562,790.952392578125,795.7875366210938,796.5933837890625
203,798.2051391601562,790.952392578125,791.7582397460938,794.981689453125
204,800.2197875976562,785.7142944335938,793.3699340820312,790.952392578125
205,804.2490844726562,784.908447265625,789.3406372070312,792.1611938476562
206,807.87548828125,796.1904907226562,794.981689453125,798.6080322265625
207,809.89013671875,807.87548828125,800.2197875976562,799.010986328125
208,811.098876953125,800.2197875976562,796.1904907226562,793.3699340820312
209,803.040283203125,790.1465454101562,792.967041015625,790.5494384765625
210,798.6080322265625,790.5494384765625,790.5494384765625,792.967041015625
211,799.8168334960938,792.1611938476562,791.3552856445312,803.4432373046875
212,790.952392578125,790.952392578125,796.5933837890625,801.4285888671875
213,789.7435913085938,781.6849975585938,797.8021850585938,792.1611938476562
214,794.1758422851562,780.879150390625,792.967041015625,792.1611938476562
215,786.1171875,790.952392578125,793.3699340820312,792.967041015625
216,781.6849975585938,788.1318969726562,791.7582397460938,790.952392578125
217,784.5054931640625,779.6703491210938,788.937744140625,791.3552856445312
218,786.923095703125,783.6996459960938,788.937744140625,791.7582397460938
219,789.3406372070312,795.3846435546875,791.3552856445312,786.5201416015625
220,782.4908447265625,791.7582397460938,790.952392578125,786.923095703125
221,779.6703491210938,788.1318969726562,792.967041015625,785.3113403320312
222,786.5201416015625,790.1465454101562,794.981689453125,786.5201416015625
223,788.5347900390625,788.5347900390625,791.7582397460938,792.967041015625
224,788.1318969726562,790.1465454101562,795.7875366210938,788.5347900390625
225,788.1318969726562,790.952392578125,797.3992919921875,789.3406372070312
226,790.1465454101562,792.5640869140625,790.1465454101562,794.1758422851562
227,788.1318969726562,798.6080322265625,790.952392578125,791.7582397460938
228,786.923095703125,789.7435913085938,792.967041015625,785.7142944335938
229,785.3113403320312,789.7435913085938,791.7582397460938,780.4761962890625
230,787.3259887695312,796.5933837890625,793.3699340820312,786.5201416015625
231,789.7435913085938,799.010986328125,793.7728881835938,792.5640869140625
232,792.5640869140625,794.981689453125,789.7435913085938,792.967041015625
233,798.2051391601562,795.7875366210938,793.7728881835938,795.3846435546875
234,799.8168334960938,799.010986328125,799.4139404296875,802.6373901367188
235,795.7875366210938,797.8021850585938,802.2344360351562,800.2197875976562
236,792.1611938476562,796.996337890625,799.4139404296875,794.981689453125
237,793.3699340820312,795.3846435546875,798.6080322265625,792.1611938476562
238,794.981689453125,793.7728881835938,799.4139404296875,795.3846435546875
239,794.981689453125,794.1758422851562,801.8314819335938,797.3992919921875
240,791.7582397460938,796.996337890625,803.040283203125,790.952392578125
241,791.7582397460938,791.3552856445312,796.996337890625,788.1318969726562
242,796.1904907226562,784.5054931640625,792.1611938476562,791.3552856445312
243,798.6080322265625,792.5640869140625,788.5347900390625,792.1611938476562
244,801.4285888671875,801.8314819335938,791.3552856445312,795.3846435546875
245,801.4285888671875,808.2783813476562,792.1611938476562,807.069580078125
246,795.3846435546875,803.4432373046875,787.3259887695312,805.4578857421875
247,791.7582397460938,800.2197875976562,789.7435913085938,796.1904907226562
248,794.981689453125,797.3992919921875,794.5787353515625,796.1904907226562
249,792.967041015625,793.3699340820312,793.3699340820312,796.5933837890625
250,788.937744140625,794.981689453125,786.1171875,796.5933837890625
251,788.1318969726562,789.3406372070312,785.7142944335938,797.8021850585938
252,792.967041015625,784.1025390625,790.5494384765625,801.8314819335938
253,794.1758422851562,788.937744140625,790.952392578125,796.1904907226562
254,791.3552856445312,786.5201416015625,789.7435913085938,791.7582397460938
255,790.952392578125,788.937744140625,792.5640869140625,801.4285888671875
256,794.1758422851562,796.1904907226562,796.5933837890625,807.4725341796875
257,788.1318969726562,793.3699340820312,796.1904907226562,806.2637329101562
258,781.2820434570312,794.981689453125,794.981689453125,794.5787353515625
259,783.6996459960938,797.8021850585938,792.1611938476562,787.7289428710938
260,790.5494384765625,794.5787353515625,788.1318969726562,790.1465454101562
261,788.5347900390625,786.1171875,788.937744140625,794.1758422851562
262,786.1171875,784.5054931640625,790.5494384765625,789.7435913085938
263,792.1611938476562,783.2966918945312,790.1465454101562,786.5201416015625
264,793.7728881835938,775.6410522460938,790.5494384765625,791.7582397460938
265,787.3259887695312,782.893798828125,787.7289428710938,790.952392578125
266,784.1025390625,792.967041015625,786.5201416015625,787.7289428710938
267,787.7289428710938,799.8168334960938,792.5640869140625,792.1611938476562
268,793.7728881835938,793.3699340820312,794.5787353515625,791.3552856445312
269,801.4285888671875,786.923095703125,791.7582397460938,794.981689453125
270,807.87548828125,792.967041015625,794.5787353515625,802.6373901367188
271,805.054931640625,789.3406372070312,795.7875366210938,796.5933837890625
272,798.2051391601562,784.1025390625,789.7435913085938,796.5933837890625
273,795.3846435546875,787.3259887695312,786.5201416015625,802.2344360351562
274,798.2051391601562,791.3552856445312,791.7582397460938,797.8021850585938
275,798.6080322265625,787.7289428710938,790.5494384765625,792.5640869140625
276,787.3259887695312,783.2966918945312,782.4908447265625,794.1758422851562
277,777.6557006835938,790.1465454101562,786.5201416015625,793.7728881835938
278,778.8644409179688,794.981689453125,792.1611938476562,791.3552856445312
279,788.1318969726562,792.5640869140625,790.1465454101562,794.1758422851562
280,795.7875366210938,790.1465454101562,789.7435913085938,798.6080322265625
281,796.1904907226562,785.3113403320312,798.2051391601562,794.981689453125
282,791.3552856445312,783.6996459960938,798.6080322265625,790.952392578125
283,790.1465454101562,786.923095703125,793.3699340820312,789.3406372070312
284,792.1611938476562,786.5201416015625,792.967041015625,789.7435913085938
285,791.7582397460938,792.5640869140625,794.5787353515625,786.5201416015625
286,794.1758422851562,792.1611938476562,794.981689453125,789.3406372070312
287,797.3992919921875,789.7435913085938,792.1611938476562,790.5494384765625
288,796.1904907226562,787.7289428710938,794.981689453125,788.1318969726562
289,796.5933837890625,789.3406372070312,798.2051391601562,787.7289428710938
290,796.996337890625,794.981689453125,798.2051391601562,791.7582397460938
291,799.010986328125,795.3846435546875,799.8168334960938,799.010986328125
292,802.2344360351562,799.010986328125,801.025634765625,799.8168334960938
293,800.2197875976562,801.025634765625,796.996337890625,799.8168334960938
294,801.025634765625,797.8021850585938,800.2197875976562,802.6373901367188
295,799.8168334960938,792.5640869140625,803.4432373046875,803.8461303710938
296,796.996337890625,793.7728881835938,801.4285888671875,801.4285888671875
297,799.8168334960938,792.967041015625,804.2490844726562,796.5933837890625
298,806.2637329101562,791.3552856445312,805.8607788085938,799.010986328125
299,808.2783813476562,794.5787353515625,796.996337890625,799.010986328125
300,811.90478515625,793.3699340820312,794.1758422851562,806.6666870117188
301,809.084228515625,791.3552856445312,801.025634765625,805.054931640625
302,794.981689453125,794.1758422851562,803.4432373046875,791.7582397460938
303,792.5640869140625,799.010986328125,802.2344360351562,795.7875366210938
304,792.967041015625,796.996337890625,802.6373901367188,801.4285888671875
305,790.1465454101562,796.1904907226562,803.040283203125,796.1904907226562
306,798.2051391601562,799.010986328125,801.8314819335938,794.1758422851562
307,798.2051391601562,799.010986328125,802.2344360351562,800.6226806640625
308,792.967041015625,789.7435913085938,802.2344360351562,799.010986328125
309,794.1758422851562,789.3406372070312,796.5933837890625,792.5640869140625
310,799.8168334960938,795.3846435546875,792.5640869140625,790.952392578125
311,796.5933837890625,786.5201416015625,790.5494384765625,788.937744140625
312,793.3699340820312,785.3113403320312,792.1611938476562,789.7435913085938
313,796.1904907226562,792.5640869140625,791.7582397460938,792.1611938476562
314,796.996337890625,799.8168334960938,789.7435913085938,788.1318969726562
315,801.4285888671875,805.4578857421875,791.7582397460938,786.1171875
316,809.084228515625,806.6666870117188,793.7728881835938,787.7289428710938
317,809.084228515625,802.6373901367188,792.5640869140625,784.5054931640625
318,807.87548828125,796.5933837890625,791.3552856445312,788.937744140625
319,804.6520385742188,798.2051391601562,790.5494384765625,793.7728881835938
320,805.8607788085938,799.8168334960938,795.3846435546875,786.923095703125
321,808.6813354492188,791.7582397460938,797.8021850585938,790.5494384765625
322,800.2197875976562,791.3552856445312,793.7728881835938,797.8021850585938
323,790.1465454101562,794.1758422851562,796.996337890625,794.1758422851562
324,787.3259887695312,789.7435913085938,794.5787353515625,788.937744140625
325,787.3259887695312,787.3259887695312,792.5640869140625,795.7875366210938
326,782.4908447265625,793.3699340820312,799.4139404296875,795.7875366210938
327,783.6996459960938,795.7875366210938,798.6080322265625,787.7289428710938
328,791.3552856445312,794.981689453125,796.1904907226562,792.967041015625
329,791.3552856445312,792.5640869140625,794.5787353515625,796.996337890625
330,791.7582397460938,788.937744140625,786.923095703125,800.6226806640625
331,787.3259887695312,793.7728881835938,789.3406372070312,799.8168334960938
332,783.6996459960938,794.1758422851562,799.010986328125,792.1611938476562
333,787.3259887695312,785.7142944335938,800.6226806640625,790.5494384765625
334,786.5201416015625,787.7289428710938,795.3846435546875,789.7435913085938
335,783.6996459960938,794.981689453125,796.1904907226562,784.5054931640625
336,783.2966918945312,797.8021850585938,796.1904907226562,783.2966918945312
337,788.1318969726562,792.1611938476562,789.7435913085938,783.6996459960938
338,792.5640869140625,792.1611938476562,795.3846435546875,785.3113403320312
339,793.3699340820312,791.7582397460938,803.4432373046875,794.981689453125
340,794.5787353515625,783.2966918945312,802.6373901367188,796.996337890625
341,792.967041015625,786.1171875,797.8021850585938,796.5933837890625
342,792.5640869140625,793.3699340820312,793.3699340820312,799.8168334960938
343,793.3699340820312,792.5640869140625,794.981689453125,787.7289428710938
344,788.937744140625,792.1611938476562,791.3552856445312,776.0439453125
345,791.7582397460938,796.1904907226562,789.7435913085938,779.6703491210938
346,794.1758422851562,800.2197875976562,795.3846435546875,785.7142944335938
347,791.3552856445312,797.3992919921875,796.5933837890625,787.3259887695312
348,787.7289428710938,791.3552856445312,790.5494384765625,792.1611938476562
349,788.5347900390625,791.3552856445312,785.3113403320312,794.5787353515625
350,790.5494384765625,789.3406372070312,784.1025390625,799.010986328125
351,792.1611938476562,787.3259887695312,792.5640869140625,796.5933837890625
352,789.7435913085938,782.4908447265625,795.3846435546875,786.5201416015625
353,786.923095703125,785.3113403320312,793.7728881835938,790.5494384765625
354,789.3406372070312,790.952392578125,802.2344360351562,794.5787353515625
355,791.7582397460938,789.7435913085938,801.025634765625,786.1171875
356,797.8021850585938,788.5347900390625,797.8021850585938,787.7289428710938
357,795.3846435546875,790.952392578125,799.8168334960938,795.7875366210938
358,788.1318969726562,796.996337890625,800.2197875976562,795.3846435546875
359,786.5201416015625,798.6080322265625,796.996337890625,792.1611938476562
360,782.087890625,788.1318969726562,790.1465454101562,786.5201416015625
361,784.5054931640625,787.7289428710938,793.7728881835938,787.3259887695312
362,788.1318969726562,785.3113403320312,791.3552856445312,790.1465454101562
363,785.3113403320312,782.4908447265625,786.923095703125,786.5201416015625
364,786.1171875,788.937744140625,788.5347900390625,779.6703491210938
365,789.3406372070312,791.7582397460938,792.967041015625,780.0732421875
366,794.5787353515625,794.1758422851562,794.5787353515625,786.923095703125
367,793.3699340820312,788.937744140625,792.5640869140625,788.1318969726562
368,792.5640869140625,786.5201416015625,792.967041015625,793.7728881835938
369,800.2197875976562,801.025634765625,797.8021850585938,798.6080322265625
370,796.1904907226562,802.6373901367188,798.2051391601562,789.7435913085938
371,786.5201416015625,795.7875366210938,796.1904907226562,786.1171875
372,786.923095703125,798.2051391601562,798.6080322265625,796.5933837890625
373,793.7728881835938,794.981689453125,797.3992919921875,803.8461303710938
374,796.1904907226562,789.3406372070312,793.3699340820312,796.5933837890625
375,796.5933837890625,793.3699340820312,792.1611938476562,787.7289428710938
376,794.1758422851562,795.3846435546875,792.1611938476562,784.5054931640625
377,783.6996459960938,791.3552856445312,794.1758422851562,776.0439453125
378,781.6849975585938,792.1611938476562,793.3699340820312,770.4029541015625
379,791.3552856445312,794.5787353515625,786.5201416015625,780.879150390625
380,794.981689453125,786.923095703125,787.3259887695312,792.1611938476562
381,799.010986328125,785.3113403320312,787.7289428710938,781.2820434570312
382,802.2344360351562,795.3846435546875,781.6849975585938,773.2234497070312
383,802.6373901367188,801.4285888671875,781.6849975585938,778.05859375
384,801.025634765625,804.2490844726562,785.7142944335938,774.8351440429688
385,796.1904907226562,803.4432373046875,785.7142944335938,773.6264038085938
386,796.5933837890625,799.010986328125,787.7289428710938,776.8497924804688
387,794.981689453125,795.3846435546875,786.923095703125,780.4761962890625
388,791.7582397460938,794.5787353515625,790.952392578125,788.937744140625
389,790.1465454101562,791.3552856445312,794.1758422851562,788.937744140625
390,788.1318969726562,788.5347900390625,795.3846435546875,786.1171875
391,787.7289428710938,781.2820434570312,796.5933837890625,794.5787353515625
392,782.4908447265625,781.6849975585938,798.6080322265625,797.3992919921875
393,786.1171875,794.1758422851562,798.2051391601562,793.3699340820312
394,793.3699340820312,793.3699340820312,797.8021850585938,796.5933837890625
395,786.5201416015625,788.1318969726562,788.5347900390625,793.7728881835938
396,783.6996459960938,788.1318969726562,785.7142944335938,791.3552856445312
397,788.1318969726562,790.952392578125,793.7728881835938,795.3846435546875
398,791.3552856445312,790.5494384765625,791.7582397460938,796.996337890625
399,793.3699340820312,787.7289428710938,788.937744140625,801.025634765625
400,795.7875366210938,786.5201416015625,793.7728881835938,801.8314819335938
401,792.967041015625,782.893798828125,798.6080322265625,795.3846435546875
402,790.5494384765625,780.0732421875,800.2197875976562,799.4139404296875
403,792.5640869140625,777.6557006835938,798.6080322265625,809.4871826171875
404,788.1318969726562,786.1171875,798.6080322265625,798.2051391601562
405,785.7142944335938,796.996337890625,796.1904907226562,784.5054931640625
406,793.7728881835938,795.3846435546875,793.7728881835938,784.1025390625
407,794.981689453125,792.5640869140625,791.7582397460938,783.6996459960938
408,795.3846435546875,792.1611938476562,791.7582397460938,786.923095703125
409,796.1904907226562,790.1465454101562,794.1758422851562,792.5640869140625
410,793.3699340820312,786.1171875,795.7875366210938,793.7728881835938
411,790.5494384765625,788.5347900390625,799.010986328125,792.5640869140625
412,788.1318969726562,796.996337890625,794.5787353515625,791.3552856445312
413,787.7289428710938,793.7728881835938,786.1171875,786.5201416015625
414,787.3259887695312,786.923095703125,784.908447265625,785.7142944335938
415,783.2966918945312,786.5201416015625,788.937744140625,792.1611938476562
416,784.908447265625,790.1465454101562,791.3552856445312,792.1611938476562
417,786.5201416015625,796.5933837890625,789.7435913085938,788.937744140625
418,786.923095703125,794.5787353515625,788.5347900390625,792.967041015625
419,782.087890625,785.7142944335938,791.7582397460938,791.7582397460938
420,784.5054931640625,788.5347900390625,795.7875366210938,791.3552856445312
421,792.1611938476562,789.7435913085938,786.5201416015625,788.937744140625
422,791.7582397460938,788.1318969726562,783.6996459960938,782.893798828125
423,792.967041015625,789.7435913085938,788.5347900390625,785.7142944335938
424,795.3846435546875,792.967041015625,791.7582397460938,794.981689453125
425,793.7728881835938,798.6080322265625,796.5933837890625,796.5933837890625
426,803.040283203125,795.3846435546875,796.5933837890625,798.6080322265625
427,799.8168334960938,789.7435913085938,792.1611938476562,792.1611938476562
428,791.7582397460938,790.5494384765625,788.5347900390625,787.3259887695312
429,795.3846435546875,792.5640869140625,792.1611938476562,794.5787353515625
430,794.1758422851562,788.5347900390625,796.5933837890625,794.5787353515625
431,792.1611938476562,788.937744140625,799.4139404296875,791.7582397460938
432,790.5494384765625,791.3552856445312,797.3992919921875,790.952392578125
433,792.967041015625,786.1171875,793.7728881835938,791.3552856445312
434,798.6080322265625,784.5054931640625,792.1611938476562,792.5640869140625
435,796.5933837890625,783.6996459960938,788.5347900390625,790.5494384765625
436,791.3552856445312,788.937744140625,791.7582397460938,796.5933837890625
437,790.952392578125,788.1318969726562,793.7728881835938,807.069580078125
438,791.3552856445312,781.6849975585938,790.952392578125,800.6226806640625
439,790.5494384765625,788.5347900390625,794.5787353515625,786.923095703125
440,787.3259887695312,790.952392578125,795.7875366210938,787.7289428710938
441,788.1318969726562,786.1171875,792.1611938476562,789.7435913085938
442,792.967041015625,785.3113403320312,789.3406372070312,784.908447265625
443,796.996337890625,790.1465454101562,790.952392578125,786.923095703125
444,801.4285888671875,796.996337890625,792.1611938476562,791.7582397460938
445,796.5933837890625,794.981689453125,789.3406372070312,792.967041015625
446,787.3259887695312,790.5494384765625,790.1465454101562,789.7435913085938
447,790.5494384765625,788.937744140625,792.967041015625,782.4908447265625
448,794.1758422851562,785.3113403320312,793.3699340820312,784.908447265625
449,792.5640869140625,790.5494384765625,791.3552856445312,798.2051391601562
450,791.7582397460938,790.5494384765625,791.3552856445312,794.981689453125
451,792.967041015625,782.087890625,792.5640869140625,790.1465454101562
452,793.3699340820312,786.923095703125,787.7289428710938,792.5640869140625
453,796.996337890625,792.5640869140625,792.1611938476562,799.4139404296875
454,796.996337890625,786.1171875,797.3992919921875,802.6373901367188
455,797.3992919921875,789.3406372070312,796.5933837890625,803.040283203125
456,802.2344360351562,799.010986328125,797.8021850585938,806.2637329101562
457,796.996337890625,798.2051391601562,797.8021850585938,798.2051391601562
458,795.7875366210938,797.8021850585938,802.2344360351562,796.996337890625
459,800.6226806640625,797.8021850585938,805.054931640625,806.2637329101562
460,803.040283203125,795.3846435546875,799.4139404296875,811.5018310546875
461,801.025634765625,792.5640869140625,799.4139404296875,807.87548828125
462,799.8168334960938,791.3552856445312,799.8168334960938,799.4139404296875
463,799.8168334960938,790.5494384765625,796.5933837890625,798.6080322265625
464,803.040283203125,791.7582397460938,802.2344360351562,803.040283203125
465,798.2051391601562,792.967041015625,805.4578857421875,801.8314819335938
466,794.981689453125,790.1465454101562,798.6080322265625,796.5933837890625
467,789.3406372070312,794.5787353515625,795.3846435546875,792.1611938476562
468,786.1171875,803.040283203125,795.3846435546875,786.5201416015625
469,789.3406372070312,795.7875366210938,791.7582397460938,784.5054931640625
470,786.1171875,794.5787353515625,789.7435913085938,782.087890625
471,786.1171875,794.981689453125,789.7435913085938,786.1171875
472,791.3552856445312,785.7142944335938,793.3699340820312,800.6226806640625
473,789.7435913085938,788.5347900390625,795.7875366210938,794.1758422851562
474,787.7289428710938,797.3992919921875,794.1758422851562,791.7582397460938
475,791.7582397460938,799.8168334960938,792.5640869140625,794.1758422851562
476,795.7875366210938,799.8168334960938,794.981689453125,794.1758422851562
477,796.996337890625,803.040283203125,796.1904907226562,794.5787353515625
478,793.7728881835938,800.2197875976562,792.1611938476562,795.3846435546875
479,801.4285888671875,797.3992919921875,786.923095703125,806.2637329101562
480,804.2490844726562,792.1611938476562,788.937744140625,808.6813354492188
481,781.2820434570312,784.5054931640625,796.5933837890625,792.967041015625
482,775.6410522460938,779.2673950195312,801.8314819335938,787.3259887695312
483,782.893798828125,780.0732421875,794.1758422851562,783.2966918945312
484,783.6996459960938,792.1611938476562,792.5640869140625,784.5054931640625
485,783.6996459960938,793.3699340820312,796.996337890625,780.4761962890625
486,776.4468994140625,789.3406372070312,790.1465454101562,772.4176025390625
487,774.4322509765625,784.908447265625,788.937744140625,773.6264038085938
488,776.4468994140625,786.1171875,790.1465454101562,772.8204956054688
489,785.3113403320312,788.1318969726562,790.1465454101562,776.4468994140625
490,791.7582397460938,789.3406372070312,791.7582397460938,786.1171875
491,785.7142944335938,794.5787353515625,791.3552856445312,796.5933837890625
492,783.6996459960938,786.923095703125,788.937744140625,801.025634765625
493,783.2966918945312,778.05859375,792.967041015625,797.8021850585938
494,786.1171875,790.1465454101562,797.8021850585938,799.4139404296875
495,790.5494384765625,796.996337890625,793.3699340820312,804.2490844726562
496,790.1465454101562,794.5787353515625,792.1611938476562,805.8607788085938
497,790.952392578125,798.6080322265625,801.8314819335938,799.4139404296875
498,791.7582397460938,799.8168334960938,804.6520385742188,797.3992919921875
499,792.5640869140625,796.5933837890625,799.010986328125,801.8314819335938
500,796.996337890625,798.2051391601562,796.5933837890625,800.2197875976562
501,804.2490844726562,797.8021850585938,797.8021850585938,801.025634765625
502,808.2783813476562,790.952392578125,798.6080322265625,801.8314819335938
503,801.4285888671875,793.3699340820312,799.4139404296875,801.4285888671875
504,792.5640869140625,795.3846435546875,798.2051391601562,798.6080322265625
505,796.5933837890625,796.1904907226562,792.967041015625,793.3699340820312
506,798.2051391601562,799.8168334960938,791.3552856445312,792.1611938476562
507,793.3699340820312,801.025634765625,794.5787353515625,793.3699340820312
508,794.981689453125,796.1904907226562,793.3699340820312,792.5640869140625
509,795.7875366210938,792.1611938476562,793.3699340820312,790.1465454101562
510,792.967041015625,790.1465454101562,792.1611938476562,792.967041015625
511,788.937744140625,793.7728881835938,789.7435913085938,795.3846435546875
512,789.7435913085938,803.040283203125,792.967041015625,792.5640869140625
513,794.1758422851562,799.010986328125,794.981689453125,792.5640869140625
514,793.3699340820312,795.7875366210938,795.3846435546875,792.5640869140625
515,790.5494384765625,804.6520385742188,798.2051391601562,792.967041015625
516,790.952392578125,805.4578857421875,796.1904907226562,792.5640869140625
517,790.952392578125,798.2051391601562,786.1171875,792.5640869140625
518,794.5787353515625,796.1904907226562,787.7289428710938,790.952392578125
519,797.8021850585938,795.3846435546875,794.5787353515625,794.981689453125
520,795.3846435546875,795.3846435546875,792.1611938476562,802.2344360351562
521,796.5933837890625,799.4139404296875,790.1465454101562,797.8021850585938
522,799.8168334960938,801.025634765625,789.3406372070312,791.3552856445312
523,794.1758422851562,799.010986328125,788.1318969726562,782.4908447265625
524,794.5787353515625,802.6373901367188,790.1465454101562,781.2820434570312
525,794.5787353515625,803.040283203125,790.952392578125,788.937744140625
526,794.981689453125,803.8461303710938,790.5494384765625,789.3406372070312
527,800.2197875976562,805.8607788085938,791.7582397460938,784.908447265625
528,798.2051391601562,799.8168334960938,794.1758422851562,791.3552856445312
529,802.2344360351562,800.2197875976562,794.981689453125,797.3992919921875
530,801.8314819335938,795.3846435546875,796.996337890625,792.5640869140625
531,797.8021850585938,786.5201416015625,796.1904907226562,790.5494384765625
532,799.4139404296875,790.1465454101562,796.1904907226562,789.7435913085938
533,791.3552856445312,791.3552856445312,796.996337890625,795.3846435546875
534,787.7289428710938,788.5347900390625,794.5787353515625,798.6080322265625
535,789.7435913085938,794.5787353515625,794.5787353515625,792.967041015625
536,790.952392578125,798.6080322265625,795.7875366210938,794.1758422851562
537,790.952392578125,790.5494384765625,792.1611938476562,795.3846435546875
538,790.1465454101562,782.087890625,794.5787353515625,791.3552856445312
539,790.1465454101562,790.5494384765625,800.2197875976562,788.1318969726562
540,791.3552856445312,794.1758422851562,798.2051391601562,790.952392578125
541,799.4139404296875,790.1465454101562,799.4139404296875,805.4578857421875
542,802.6373901367188,794.1758422851562,801.4285888671875,807.87548828125
543,794.981689453125,796.1904907226562,796.5933837890625,795.7875366210938
544,796.1904907226562,788.5347900390625,790.952392578125,794.981689453125
545,798.2051391601562,782.087890625,791.7582397460938,803.4432373046875
546,794.1758422851562,790.1465454101562,794.1758422851562,796.5933837890625
547,791.3552856445312,799.4139404296875,790.1465454101562,787.3259887695312
548,796.5933837890625,799.010986328125,791.3552856445312,793.3699340820312
549,794.1758422851562,792.967041015625,798.6080322265625,796.996337890625
550,788.937744140625,796.5933837890625,797.3992919921875,789.3406372070312
551,792.1611938476562,791.7582397460938,790.5494384765625,788.1318969726562
552,790.5494384765625,787.7289428710938,790.1465454101562,789.3406372070312
553,788.5347900390625,794.981689453125,793.7728881835938,780.879150390625
554,792.1611938476562,796.996337890625,794.5787353515625,783.2966918945312
555,796.1904907226562,795.3846435546875,793.7728881835938,788.5347900390625
556,796.5933837890625,795.3846435546875,794.1758422851562,789.3406372070312
557,798.6080322265625,797.8021850585938,795.3846435546875,795.3846435546875
558,799.8168334960938,799.4139404296875,798.6080322265625,790.5494384765625
559,799.8168334960938,791.3552856445312,803.8461303710938,793.3699340820312
560,807.069580078125,796.996337890625,801.4285888671875,804.2490844726562
561,798.6080322265625,804.2490844726562,797.8021850585938,792.5640869140625
562,779.6703491210938,797.8021850585938,796.1904907226562,780.879150390625
563,785.7142944335938,797.8021850585938,794.1758422851562,787.7289428710938
564,787.7289428710938,800.2197875976562,790.952392578125,783.6996459960938
565,784.908447265625,796.5933837890625,791.7582397460938,782.893798828125
566,793.3699340820312,789.3406372070312,798.2051391601562,793.3699340820312
567,790.1465454101562,790.5494384765625,795.7875366210938,793.7728881835938
568,790.952392578125,795.7875366210938,790.952392578125,798.6080322265625
569,795.7875366210938,792.967041015625,794.981689453125,803.040283203125
570,801.8314819335938,790.952392578125,797.8021850585938,798.6080322265625
571,814.3223266601562,794.5787353515625,799.010986328125,799.010986328125
572,815.5311279296875,798.2051391601562,795.3846435546875,800.2197875976562
573,803.8461303710938,804.2490844726562,796.996337890625,791.3552856445312
574,795.3846435546875,800.2197875976562,797.3992919921875,788.1318969726562
575,797.3992919921875,799.8168334960938,798.2051391601562,799.010986328125
576,796.1904907226562,799.4139404296875,800.6226806640625,799.010986328125
577,790.1465454101562,791.7582397460938,802.2344360351562,795.7875366210938
578,786.5201416015625,791.3552856445312,803.4432373046875,799.010986328125
579,781.6849975585938,794.5787353515625,799.010986328125,796.996337890625
580,781.2820434570312,799.4139404296875,798.2051391601562,795.7875366210938
581,782.893798828125,796.1904907226562,801.8314819335938,794.981689453125
582,779.6703491210938,795.3846435546875,801.4285888671875,790.5494384765625
583,782.893798828125,794.5787353515625,793.3699340820312,794.1758422851562
584,782.893798828125,783.6996459960938,788.1318969726562,796.996337890625
585,782.087890625,790.5494384765625,796.1904907226562,791.7582397460938
586,786.1171875,799.4139404296875,799.4139404296875,787.3259887695312
587,788.5347900390625,790.952392578125,796.5933837890625,794.1758422851562
588,793.7728881835938,790.952392578125,796.5933837890625,797.3992919921875
589,797.8021850585938,800.6226806640625,796.1904907226562,795.7875366210938
590,797.3992919921875,803.4432373046875,795.7875366210938,799.010986328125
591,794.981689453125,800.2197875976562,791.7582397460938,794.981689453125
592,797.3992919921875,792.967041015625,794.981689453125,792.967041015625
593,795.7875366210938,784.908447265625,792.1611938476562,790.952392578125
594,792.5640869140625,786.923095703125,783.6996459960938,784.1025390625
595,794.1758422851562,793.3699340820312,783.2966918945312,788.1318969726562
596,794.5787353515625,792.1611938476562,786.1171875,787.7289428710938
597,793.3699340820312,792.5640869140625,790.5494384765625,787.3259887695312
598,789.7435913085938,794.981689453125,790.952392578125,790.5494384765625
599,790.1465454101562,796.5933837890625,792.1611938476562,792.1611938476562
600,796.1904907226562,798.6080322265625,798.6080322265625,791.7582397460938
601,796.5933837890625,794.1758422851562,802.6373901367188,794.1758422851562
602,792.5640869140625,794.981689453125,799.010986328125,796.1904907226562
603,793.3699340820312,801.025634765625,796.996337890625,802.2344360351562
604,794.1758422851562,798.6080322265625,799.010986328125,808.2783813476562
605,790.1465454101562,792.967041015625,799.4139404296875,803.4432373046875
606,787.7289428710938,782.087890625,794.5787353515625,803.4432373046875
607,790.952392578125,780.0732421875,796.996337890625,807.87548828125
608,790.952392578125,787.3259887695312,799.010986328125,802.2344360351562
609,793.7728881835938,792.5640869140625,797.3992919921875,803.4432373046875
610,798.2051391601562,794.5787353515625,801.8314819335938,798.2051391601562
611,796.5933837890625,797.8021850585938,800.2197875976562,797.3992919921875
612,801.025634765625,800.2197875976562,796.996337890625,797.8021850585938
613,803.4432373046875,792.1611938476562,793.3699340820312,792.967041015625
614,796.1904907226562,782.893798828125,788.5347900390625,795.7875366210938
615,788.937744140625,782.4908447265625,794.5787353515625,795.7875366210938
616,790.1465454101562,788.937744140625,795.7875366210938,790.952392578125
617,794.1758422851562,784.5054931640625,790.1465454101562,783.6996459960938
618,793.7728881835938,778.4615478515625,790.5494384765625,787.7289428710938
619,788.1318969726562,785.7142944335938,792.5640869140625,786.5201416015625
620,789.3406372070312,790.5494384765625,794.981689453125,784.908447265625
621,791.7582397460938,790.952392578125,798.2051391601562,788.1318969726562
622,791.3552856445312,791.7582397460938,793.3699340820312,784.5054931640625
623,797.8021850585938,794.981689453125,790.952392578125,787.3259887695312
624,794.5787353515625,792.967041015625,793.3699340820312,784.908447265625
625,788.937744140625,785.7142944335938,790.952392578125,780.4761962890625
626,790.1465454101562,787.3259887695312,789.3406372070312,787.3259887695312
627,790.1465454101562,790.952392578125,788.937744140625,789.7435913085938
628,790.1465454101562,791.3552856445312,789.7435913085938,792.967041015625
629,792.1611938476562,792.5640869140625,789.7435913085938,801.4285888671875
630,786.5201416015625,789.7435913085938,789.3406372070312,806.6666870117188
631,779.6703491210938,787.3259887695312,796.996337890625,799.4139404296875
632,784.1025390625,793.3699340820312,796.996337890625,798.2051391601562
633,796.1904907226562,791.7582397460938,789.7435913085938,800.6226806640625
634,793.3699340820312,788.937744140625,788.1318969726562,793.3699340820312
635,777.2527465820312,791.3552856445312,792.1611938476562,786.923095703125
636,776.4468994140625,786.1171875,794.981689453125,791.3552856445312
637,783.2966918945312,783.2966918945312,792.5640869140625,793.3699340820312
638,784.908447265625,797.8021850585938,789.3406372070312,792.5640869140625
639,782.4908447265625,803.040283203125,792.967041015625,792.1611938476562
640,779.6703491210938,800.2197875976562,795.3846435546875,786.1171875
641,781.6849975585938,791.3552856445312,792.5640869140625,782.4908447265625
642,789.7435913085938,784.5054931640625,795.3846435546875,780.0732421875
643,792.967041015625,788.1318969726562,797.8021850585938,777.2527465820312
644,790.1465454101562,791.7582397460938,798.2051391601562,771.2088012695312
645,788.937744140625,787.3259887695312,797.3992919921875,775.6410522460938
646,791.3552856445312,791.7582397460938,799.4139404296875,780.879150390625
647,790.1465454101562,799.010986328125,796.996337890625,776.8497924804688
648,792.5640869140625,794.5787353515625,796.1904907226562,774.029296875
649,796.1904907226562,786.5201416015625,796.1904907226562,775.6410522460938
650,792.1611938476562,792.5640869140625,797.8021850585938,780.879150390625
651,791.3552856445312,794.5787353515625,796.5933837890625,786.5201416015625
652,795.3846435546875,786.5201416015625,795.3846435546875,792.5640869140625
653,794.1758422851562,793.3699340820312,795.7875366210938,796.1904907226562
654,794.981689453125,795.3846435546875,794.1758422851562,796.996337890625
655,795.3846435546875,788.1318969726562,794.1758422851562,796.996337890625
656,792.967041015625,791.7582397460938,791.7582397460938,803.4432373046875
657,795.7875366210938,794.1758422851562,792.967041015625,812.7106323242188
658,789.7435913085938,791.7582397460938,793.7728881835938,807.87548828125
659,789.7435913085938,789.7435913085938,790.952392578125,808.2783813476562
660,797.3992919921875,794.5787353515625,794.1758422851562,809.89013671875
661,796.1904907226562,800.2197875976562,801.4285888671875,808.2783813476562
662,794.5787353515625,798.2051391601562,795.3846435546875,798.2051391601562
663,795.7875366210938,795.7875366210938,790.5494384765625,790.952392578125
664,796.996337890625,801.025634765625,791.3552856445312,791.3552856445312
665,799.4139404296875,798.6080322265625,792.5640869140625,789.3406372070312
666,802.6373901367188,791.3552856445312,796.5933837890625,792.1611938476562
667,802.2344360351562,788.1318969726562,791.7582397460938,790.1465454101562
668,801.4285888671875,788.1318969726562,785.7142944335938,791.7582397460938
669,798.6080322265625,795.3846435546875,790.952392578125,788.1318969726562
670,799.010986328125,797.8021850585938,799.010986328125,786.5201416015625
671,800.6226806640625,792.5640869140625,798.2051391601562,793.7728881835938
672,796.5933837890625,788.937744140625,794.5787353515625,794.5787353515625
673,798.2051391601562,790.952392578125,796.996337890625,791.3552856445312
674,791.7582397460938,789.7435913085938,796.5933837890625,790.952392578125
675,784.908447265625,788.1318969726562,792.1611938476562,789.7435913085938
676,790.952392578125,792.1611938476562,791.7582397460938,793.7728881835938
677,784.908447265625,786.1171875,792.1611938476562,796.1904907226562
678,784.1025390625,786.923095703125,793.7728881835938,790.5494384765625
679,790.952392578125,794.981689453125,793.3699340820312,792.5640869140625
680,795.3846435546875,797.3992919921875,794.1758422851562,801.8314819335938
681,793.7728881835938,799.4139404296875,797.3992919921875,801.4285888671875
682,789.7435913085938,794.5787353515625,794.981689453125,792.967041015625
683,796.5933837890625,791.3552856445312,793.7728881835938,795.3846435546875
684,805.054931640625,792.967041015625,794.981689453125,796.1904907226562
685,809.084228515625,788.1318969726562,798.6080322265625,791.3552856445312
686,799.010986328125,786.5201416015625,796.5933837890625,782.4908447265625
687,788.5347900390625,791.7582397460938,792.967041015625,782.893798828125
688,792.1611938476562,792.967041015625,791.7582397460938,784.908447265625
689,791.7582397460938,790.1465454101562,793.3699340820312,780.4761962890625
690,796.1904907226562,791.7582397460938,794.1758422851562,782.4908447265625
691,796.1904907226562,795.7875366210938,792.1611938476562,795.7875366210938
692,786.923095703125,798.6080322265625,792.967041015625,796.996337890625
693,790.952392578125,797.3992919921875,791.7582397460938,793.7728881835938
694,794.1758422851562,795.7875366210938,786.5201416015625,790.1465454101562
695,786.923095703125,796.1904907226562,790.5494384765625,778.4615478515625
696,785.7142944335938,792.1611938476562,793.7728881835938,782.893798828125
697,789.3406372070312,784.908447265625,793.3699340820312,789.3406372070312
698,789.7435913085938,787.3259887695312,796.996337890625,793.3699340820312
699,788.1318969726562,795.7875366210938,796.1904907226562,799.010986328125
700,784.5054931640625,798.2051391601562,794.5787353515625,796.1904907226562
701,780.879150390625,799.8168334960938,796.1904907226562,793.7728881835938
702,781.6849975585938,799.4139404296875,791.3552856445312,792.967041015625
703,779.2673950195312,795.7875366210938,790.952392578125,795.7875366210938
704,778.4615478515625,793.3699340820312,790.952392578125,791.3552856445312
705,786.1171875,794.5787353515625,789.3406372070312,792.1611938476562
706,788.5347900390625,792.5640869140625,789.3406372070312,796.1904907226562
707,786.5201416015625,787.7289428710938,790.5494384765625,795.7875366210938
708,789.7435913085938,784.1025390625,795.7875366210938,796.996337890625
709,789.3406372070312,789.3406372070312,798.2051391601562,797.3992919921875
710,787.7289428710938,800.6226806640625,794.981689453125,794.981689453125
711,790.952392578125,803.4432373046875,788.5347900390625,793.7728881835938
712,788.937744140625,794.5787353515625,786.1171875,788.937744140625
713,787.3259887695312,788.1318969726562,789.7435913085938,782.4908447265625
714,784.1025390625,790.1465454101562,790.1465454101562,789.7435913085938
715,781.2820434570312,795.7875366210938,796.5933837890625,792.1611938476562
716,787.7289428710938,790.952392578125,799.010986328125,792.1611938476562
717,789.3406372070312,790.952392578125,792.1611938476562,797.8021850585938
718,789.7435913085938,795.3846435546875,795.7875366210938,799.010986328125
719,789.7435913085938,792.1611938476562,796.996337890625,792.1611938476562
720,784.5054931640625,789.3406372070312,789.7435913085938,781.6849975585938
721,784.1025390625,794.1758422851562,790.1465454101562,782.4908447265625
722,786.923095703125,800.2197875976562,793.7728881835938,786.5201416015625
723,787.3259887695312,795.7875366210938,794.981689453125,785.3113403320312
724,788.1318969726562,788.937744140625,793.7728881835938,786.5201416015625
725,786.1171875,788.1318969726562,789.7435913085938,793.7728881835938
726,783.2966918945312,780.4761962890625,790.5494384765625,794.5787353515625
727,780.4761962890625,767.9853515625,788.5347900390625,784.1025390625
728,782.4908447265625,781.2820434570312,788.1318969726562,784.908447265625
729,782.087890625,793.7728881835938,787.7289428710938,794.981689453125
730,781.6849975585938,796.1904907226562,789.7435913085938,796.1904907226562
731,781.2820434570312,799.010986328125,793.7728881835938,789.7435913085938
732,781.2820434570312,790.5494384765625,788.1318969726562,788.937744140625
733,784.1025390625,784.5054931640625,784.908447265625,793.7728881835938
734,786.923095703125,790.1465454101562,785.7142944335938,794.981689453125
735,790.1465454101562,793.3699340820312,788.5347900390625,792.1611938476562
736,792.1611938476562,792.1611938476562,788.937744140625,792.967041015625
737,795.3846435546875,794.5787353515625,788.1318969726562,800.6226806640625
738,795.7875366210938,800.2197875976562,791.3552856445312,797.3992919921875
739,796.5933837890625,801.025634765625,795.3846435546875,792.967041015625
740,794.981689453125,790.952392578125,788.1318969726562,796.5933837890625
741,791.3552856445312,789.7435913085938,784.1025390625,796.1904907226562
742,792.1611938476562,796.996337890625,788.1318969726562,790.5494384765625
743,789.7435913085938,794.5787353515625,788.5347900390625,783.6996459960938
744,789.3406372070312,796.996337890625,789.3406372070312,783.6996459960938
745,790.1465454101562,799.4139404296875,790.1465454101562,785.7142944335938
746,786.1171875,793.7728881835938,787.3259887695312,783.2966918945312
747,781.2820434570312,794.981689453125,783.6996459960938,778.8644409179688
748,781.2820434570312,794.5787353515625,783.6996459960938,786.1171875
749,782.4908447265625,784.5054931640625,784.5054931640625,787.7289428710938
750,780.0732421875,786.923095703125,784.5054931640625,778.4615478515625
751,781.6849975585938,789.7435913085938,786.1171875,785.7142944335938
752,784.1025390625,786.923095703125,790.5494384765625,790.5494384765625
753,782.087890625,791.3552856445312,792.967041015625,784.1025390625
754,782.893798828125,794.1758422851562,793.3699340820312,782.4908447265625
755,791.3552856445312,791.7582397460938,790.952392578125,785.3113403320312
756,799.010986328125,792.5640869140625,792.1611938476562,795.7875366210938
757,802.6373901367188,796.1904907226562,794.981689453125,802.6373901367188
758,799.010986328125,800.2197875976562,789.7435913085938,799.4139404296875
759,798.6080322265625,799.010986328125,785.3113403320312,798.2051391601562
760,804.2490844726562,796.1904907226562,790.5494384765625,805.4578857421875
761,801.025634765625,794.981689453125,794.1758422851562,811.90478515625
762,793.3699340820312,793.7728881835938,789.7435913085938,806.6666870117188
763,792.1611938476562,794.5787353515625,792.5640869140625,799.8168334960938
764,799.4139404296875,797.3992919921875,794.5787353515625,809.084228515625
765,795.7875366210938,794.1758422851562,793.3699340820312,799.8168334960938
766,788.937744140625,788.5347900390625,793.3699340820312,782.087890625
767,793.7728881835938,794.1758422851562,793.3699340820312,783.6996459960938
768,796.996337890625,795.3846435546875,791.7582397460938,783.6996459960938
769,796.996337890625,799.010986328125,793.7728881835938,785.7142944335938
770,796.5933837890625,798.6080322265625,794.1758422851562,789.7435913085938
771,802.6373901367188,790.1465454101562,796.5933837890625,794.1758422851562
772,805.4578857421875,787.7289428710938,800.6226806640625,799.4139404296875
773,799.8168334960938,788.937744140625,797.3992919921875,798.6080322265625
774,795.7875366210938,795.3846435546875,799.010986328125,791.3552856445312
775,794.1758422851562,796.996337890625,801.4285888671875,792.5640869140625
776,795.3846435546875,794.5787353515625,797.8021850585938,799.8168334960938
777,794.1758422851562,792.5640869140625,792.967041015625,789.7435913085938
778,796.996337890625,798.6080322265625,795.3846435546875,788.1318969726562
779,796.996337890625,798.2051391601562,796.5933837890625,792.5640869140625
780,793.7728881835938,794.1758422851562,792.5640869140625,786.923095703125
781,790.952392578125,793.3699340820312,789.3406372070312,783.2966918945312
782,795.7875366210938,792.1611938476562,791.3552856445312,788.5347900390625
783,796.996337890625,792.5640869140625,793.7728881835938,796.996337890625
784,791.7582397460938,794.1758422851562,796.1904907226562,791.7582397460938
785,795.3846435546875,794.5787353515625,794.981689453125,788.5347900390625
786,792.1611938476562,789.3406372070312,790.952392578125,792.967041015625
787,792.967041015625,793.3699340820312,794.1758422851562,796.996337890625
788,791.7582397460938,796.5933837890625,797.3992919921875,790.1465454101562
789,786.5201416015625,796.996337890625,791.3552856445312,780.0732421875
790,786.1171875,793.7728881835938,785.7142944335938,774.029296875
791,786.1171875,784.1025390625,786.1171875,776.8497924804688
792,788.1318969726562,784.908447265625,786.5201416015625,783.6996459960938
793,786.5201416015625,784.1025390625,788.5347900390625,787.7289428710938
794,785.3113403320312,784.908447265625,787.7289428710938,787.3259887695312
795,790.1465454101562,789.7435913085938,786.5201416015625,793.7728881835938
796,789.3406372070312,789.7435913085938,788.1318969726562,801.025634765625
797,789.3406372070312,787.3259887695312,789.3406372070312,795.3846435546875
798,794.1758422851562,790.5494384765625,786.923095703125,789.7435913085938
799,788.937744140625,793.7728881835938,786.5201416015625,793.7728881835938
800,779.2673950195312,789.7435913085938,792.5640869140625,791.7582397460938
801,788.1318969726562,794.1758422851562,791.7582397460938,786.923095703125
802,796.1904907226562,794.1758422851562,793.7728881835938,786.5201416015625
803,794.1758422851562,787.7289428710938,800.2197875976562,794.5787353515625
804,798.2051391601562,798.2051391601562,797.3992919921875,801.4285888671875
805,805.4578857421875,801.4285888671875,794.981689453125,799.8168334960938
806,804.2490844726562,792.967041015625,796.996337890625,800.6226806640625
807,798.2051391601562,791.7582397460938,795.7875366210938,795.7875366210938
808,796.996337890625,788.1318969726562,799.010986328125,793.3699340820312
809,797.3992919921875,788.5347900390625,793.7728881835938,792.5640869140625
810,793.3699340820312,793.3699340820312,789.3406372070312,792.967041015625
811,793.7728881835938,791.3552856445312,795.3846435546875,790.952392578125
812,799.010986328125,791.7582397460938,801.4285888671875,788.937744140625
813,792.967041015625,790.1465454101562,799.8168334960938,789.7435913085938
814,790.1465454101562,787.3259887695312,791.3552856445312,792.967041015625
815,794.1758422851562,788.1318969726562,794.981689453125,794.5787353515625
816,791.7582397460938,787.7289428710938,798.6080322265625,796.1904907226562
817,798.6080322265625,788.5347900390625,792.5640869140625,808.2783813476562
818,801.4285888671875,790.952392578125,794.981689453125,811.90478515625
819,788.1318969726562,794.5787353515625,801.025634765625,797.3992919921875
820,778.8644409179688,792.5640869140625,801.4285888671875,790.5494384765625
821,783.6996459960938,786.923095703125,796.5933837890625,799.010986328125
822,790.952392578125,786.923095703125,789.7435913085938,802.2344360351562
823,790.1465454101562,787.3259887695312,792.967041015625,792.1611938476562
824,788.5347900390625,783.6996459960938,791.7582397460938,793.3699340820312
825,787.7289428710938,790.5494384765625,792.967041015625,803.4432373046875
826,790.5494384765625,796.5933837890625,802.2344360351562,799.4139404296875
827,798.2051391601562,797.8021850585938,806.6666870117188,796.5933837890625
828,801.025634765625,790.952392578125,807.069580078125,803.8461303710938
829,801.4285888671875,790.5494384765625,805.054931640625,801.8314819335938
830,798.6080322265625,801.025634765625,802.2344360351562,801.4285888671875
831,793.7728881835938,799.4139404296875,797.3992919921875,801.4285888671875
832,794.5787353515625,790.5494384765625,793.7728881835938,801.4285888671875
833,802.6373901367188,790.952392578125,795.7875366210938,800.6226806640625
834,799.4139404296875,796.1904907226562,801.4285888671875,794.1758422851562
835,791.7582397460938,792.967041015625,796.996337890625,787.7289428710938
836,794.5787353515625,791.3552856445312,797.3992919921875,791.3552856445312
837,800.2197875976562,790.5494384765625,802.6373901367188,792.967041015625
838,800.6226806640625,791.7582397460938,803.040283203125,793.7728881835938
839,794.1758422851562,794.5787353515625,800.6226806640625,794.1758422851562
840,797.3992919921875,788.937744140625,798.2051391601562,788.5347900390625
841,799.4139404296875,784.1025390625,796.1904907226562,792.5640869140625
842,794.981689453125,793.7728881835938,791.3552856445312,796.1904907226562
843,799.4139404296875,804.2490844726562,792.1611938476562,798.2051391601562
844,802.2344360351562,799.8168334960938,793.3699340820312,802.6373901367188
845,801.8314819335938,796.5933837890625,792.1611938476562,805.8607788085938
846,807.069580078125,799.010986328125,797.3992919921875,803.4432373046875
847,808.2783813476562,795.3846435546875,796.1904907226562,801.4285888671875
848,807.4725341796875,793.7728881835938,793.7728881835938,804.2490844726562
849,812.7106323242188,795.7875366210938,797.8021850585938,806.2637329101562
850,807.069580078125,794.1758422851562,797.3992919921875,797.3992919921875
851,795.7875366210938,791.7582397460938,796.996337890625,794.5787353515625
852,797.3992919921875,789.3406372070312,796.5933837890625,803.040283203125
853,798.2051391601562,793.3699340820312,802.2344360351562,805.054931640625
854,788.5347900390625,798.2051391601562,801.025634765625,796.996337890625
855,789.7435913085938,797.3992919921875,795.7875366210938,799.010986328125
856,795.7875366210938,795.7875366210938,797.8021850585938,803.040283203125
857,795.7875366210938,797.8021850585938,800.6226806640625,794.1758422851562
858,801.8314819335938,792.5640869140625,799.8168334960938,791.7582397460938
859,801.8314819335938,791.3552856445312,800.2197875976562,792.967041015625
860,796.996337890625,797.3992919921875,800.6226806640625,795.7875366210938
861,794.5787353515625,797.8021850585938,796.1904907226562,791.7582397460938
862,793.3699340820312,799.4139404296875,794.981689453125,787.7289428710938
863,796.5933837890625,792.1611938476562,798.6080322265625,790.5494384765625
864,799.8168334960938,786.923095703125,799.8168334960938,795.3846435546875
865,790.952392578125,783.2966918945312,796.996337890625,792.5640869140625
866,784.908447265625,780.879150390625,796.996337890625,789.3406372070312
867,789.7435913085938,789.7435913085938,796.5933837890625,790.1465454101562
868,790.952392578125,792.1611938476562,794.5787353515625,785.7142944335938
869,789.3406372070312,790.1465454101562,795.7875366210938,785.7142944335938
870,789.3406372070312,789.3406372070312,797.8021850585938,792.967041015625
871,790.1465454101562,787.3259887695312,792.1611938476562,798.2051391601562
872,791.7582397460938,790.1465454101562,793.3699340820312,802.2344360351562
873,791.7582397460938,796.996337890625,799.010986328125,798.6080322265625
874,794.981689453125,797.3992919921875,797.3992919921875,795.7875366210938
875,794.1758422851562,790.5494384765625,796.996337890625,795.3846435546875
876,788.937744140625,788.937744140625,799.010986328125,795.3846435546875
877,789.3406372070312,798.2051391601562,798.2051391601562,794.5787353515625
878,791.7582397460938,795.7875366210938,792.967041015625,786.1171875
879,791.3552856445312,790.1465454101562,793.3699340820312,787.3259887695312
880,786.923095703125,789.3406372070312,794.1758422851562,788.937744140625
881,788.5347900390625,790.5494384765625,789.3406372070312,786.5201416015625
882,798.2051391601562,790.952392578125,790.5494384765625,788.5347900390625
883,799.4139404296875,790.1465454101562,788.937744140625,793.3699340820312
884,795.7875366210938,797.3992919921875,793.3699340820312,791.7582397460938
885,792.967041015625,794.981689453125,796.1904907226562,783.2966918945312
886,794.5787353515625,792.5640869140625,792.1611938476562,787.3259887695312
887,794.5787353515625,793.3699340820312,795.7875366210938,788.937744140625
888,790.5494384765625,793.7728881835938,798.6080322265625,786.1171875
889,792.1611938476562,795.7875366210938,799.4139404296875,789.3406372070312
890,793.7728881835938,798.2051391601562,798.6080322265625,792.1611938476562
891,791.7582397460938,798.2051391601562,796.996337890625,788.1318969726562
892,792.1611938476562,796.996337890625,796.1904907226562,790.1465454101562
893,787.3259887695312,791.7582397460938,791.3552856445312,792.967041015625
894,788.5347900390625,789.7435913085938,789.7435913085938,790.952392578125
895,794.981689453125,792.5640869140625,794.5787353515625,792.5640869140625
896,791.7582397460938,789.3406372070312,793.7728881835938,788.1318969726562
897,789.7435913085938,791.7582397460938,788.1318969726562,786.1171875
898,791.3552856445312,792.967041015625,788.937744140625,786.1171875
899,790.952392578125,794.981689453125,794.5787353515625,785.7142944335938
900,790.5494384765625,789.7435913085938,796.996337890625,784.908447265625
901,792.5640869140625,794.1758422851562,797.3992919921875,794.5787353515625
902,790.952392578125,799.4139404296875,795.3846435546875,800.2197875976562
903,793.3699340820312,794.981689453125,789.7435913085938,797.3992919921875
904,799.4139404296875,794.5787353515625,788.937744140625,803.040283203125
905,799.010986328125,792.1611938476562,794.5787353515625,801.8314819335938
906,798.2051391601562,787.7289428710938,796.5933837890625,795.7875366210938
907,795.7875366210938,784.1025390625,794.981689453125,788.937744140625
908,792.967041015625,794.1758422851562,796.5933837890625,793.7728881835938
909,794.5787353515625,796.5933837890625,798.2051391601562,797.8021850585938
910,802.6373901367188,795.3846435546875,792.5640869140625,791.3552856445312
911,803.4432373046875,801.025634765625,786.923095703125,788.1318969726562
912,794.1758422851562,794.1758422851562,788.5347900390625,783.6996459960938
913,794.1758422851562,796.5933837890625,795.3846435546875,784.1025390625
914,797.8021850585938,803.040283203125,792.967041015625,783.2966918945312
915,799.8168334960938,796.996337890625,789.7435913085938,782.893798828125
916,796.1904907226562,792.5640869140625,792.1611938476562,785.7142944335938
917,793.7728881835938,798.6080322265625,790.5494384765625,787.7289428710938
918,794.981689453125,802.2344360351562,791.7582397460938,796.996337890625
919,796.1904907226562,802.2344360351562,797.3992919921875,795.3846435546875
920,794.1758422851562,808.6813354492188,794.981689453125,792.5640869140625
921,788.937744140625,809.084228515625,791.3552856445312,790.952392578125
922,789.7435913085938,799.8168334960938,799.8168334960938,796.5933837890625
923,787.7289428710938,789.7435913085938,804.6520385742188,800.2197875976562
924,788.937744140625,792.967041015625,800.6226806640625,794.1758422851562
925,793.3699340820312,799.8168334960938,797.8021850585938,792.1611938476562
926,791.3552856445312,798.6080322265625,795.7875366210938,788.5347900390625
927,788.1318969726562,796.996337890625,796.1904907226562,791.7582397460938
928,786.923095703125,794.5787353515625,799.010986328125,794.5787353515625
929,786.5201416015625,794.1758422851562,796.996337890625,794.1758422851562
930,787.7289428710938,794.5787353515625,801.4285888671875,792.967041015625
931,789.3406372070312,788.5347900390625,803.8461303710938,786.5201416015625
932,792.5640869140625,788.1318969726562,796.1904907226562,783.6996459960938
933,791.3552856445312,790.5494384765625,799.4139404296875,780.0732421875
934,790.1465454101562,793.3699340820312,800.2197875976562,780.0732421875
935,789.7435913085938,792.967041015625,798.6080322265625,790.952392578125
936,794.981689453125,793.3699340820312,798.2051391601562,801.8314819335938
937,799.010986328125,801.4285888671875,797.8021850585938,799.8168334960938
938,791.7582397460938,804.6520385742188,801.025634765625,792.5640869140625
939,790.952392578125,801.025634765625,796.996337890625,790.5494384765625
940,798.2051391601562,792.967041015625,790.952392578125,797.3992919921875
941,801.8314819335938,789.7435913085938,790.1465454101562,804.2490844726562
942,801.025634765625,793.3699340820312,792.1611938476562,795.3846435546875
943,799.010986328125,796.5933837890625,797.8021850585938,796.996337890625
944,799.010986328125,794.1758422851562,799.4139404296875,802.2344360351562
945,800.6226806640625,791.7582397460938,796.1904907226562,799.4139404296875
946,801.4285888671875,790.5494384765625,794.981689453125,800.2197875976562
947,800.6226806640625,793.7728881835938,793.7728881835938,794.981689453125
948,799.010986328125,794.1758422851562,796.996337890625,794.5787353515625
949,794.5787353515625,793.3699340820312,802.6373901367188,796.1904907226562
950,791.3552856445312,794.981689453125,800.6226806640625,793.3699340820312
951,791.3552856445312,792.1611938476562,796.996337890625,797.8021850585938
952,791.7582397460938,791.7582397460938,796.996337890625,805.4578857421875
953,790.952392578125,792.5640869140625,796.1904907226562,805.4578857421875
954,790.952392578125,791.7582397460938,791.3552856445312,796.1904907226562
955,794.1758422851562,787.3259887695312,792.967041015625,795.3846435546875
956,798.6080322265625,781.6849975585938,794.981689453125,805.4578857421875
957,791.7582397460938,783.6996459960938,788.937744140625,791.7582397460938
958,782.893798828125,784.5054931640625,784.1025390625,773.6264038085938
959,784.5054931640625,787.3259887695312,785.7142944335938,778.4615478515625
960,788.1318969726562,789.3406372070312,788.1318969726562,781.6849975585938
961,787.3259887695312,791.3552856445312,788.937744140625,784.1025390625
962,790.952392578125,796.996337890625,786.1171875,786.5201416015625
963,791.3552856445312,791.7582397460938,784.908447265625,786.5201416015625
964,788.937744140625,788.937744140625,784.908447265625,786.923095703125
965,794.1758422851562,792.1611938476562,784.1025390625,789.3406372070312
966,794.5787353515625,788.5347900390625,785.7142944335938,794.981689453125
967,795.3846435546875,787.7289428710938,786.5201416015625,801.025634765625
968,798.6080322265625,788.1318969726562,782.893798828125,797.8021850585938
969,792.5640869140625,795.7875366210938,787.7289428710938,785.7142944335938
970,792.5640869140625,796.1904907226562,789.3406372070312,782.087890625
971,796.1904907226562,793.3699340820312,784.5054931640625,785.3113403320312
972,796.996337890625,791.7582397460938,788.937744140625,791.7582397460938
973,799.4139404296875,796.1904907226562,795.3846435546875,795.3846435546875
974,799.010986328125,799.4139404296875,793.3699340820312,794.981689453125
975,795.7875366210938,795.3846435546875,788.937744140625,794.1758422851562
976,794.981689453125,795.7875366210938,792.967041015625,790.1465454101562
977,796.996337890625,793.3699340820312,794.5787353515625,788.937744140625
978,799.8168334960938,798.2051391601562,794.1758422851562,795.7875366210938
979,803.040283203125,804.2490844726562,792.5640869140625,801.4285888671875
980,800.2197875976562,803.4432373046875,793.3699340820312,793.7728881835938
981,800.6226806640625,802.2344360351562,795.3846435546875,792.1611938476562
982,799.8168334960938,793.3699340820312,796.1904907226562,792.1611938476562
983,794.981689453125,796.1904907226562,795.7875366210938,785.3113403320312
984,793.7728881835938,805.4578857421875,793.7728881835938,786.5201416015625
985,795.3846435546875,805.4578857421875,794.981689453125,793.7728881835938
986,794.981689453125,801.8314819335938,794.1758422851562,795.7875366210938
987,794.981689453125,798.6080322265625,789.7435913085938,796.1904907226562
988,790.952392578125,790.1465454101562,785.7142944335938,796.996337890625
989,784.908447265625,789.3406372070312,789.3406372070312,790.952392578125
990,790.952392578125,792.967041015625,789.3406372070312,794.5787353515625
991,786.1171875,789.7435913085938,785.3113403320312,798.2051391601562
992,774.4322509765625,783.2966918945312,788.5347900390625,787.3259887695312
993,774.4322509765625,790.1465454101562,786.5201416015625,784.5054931640625
994,778.8644409179688,799.4139404296875,783.6996459960938,786.5201416015625
995,783.6996459960938,799.8168334960938,791.3552856445312,780.879150390625
996,789.7435913085938,799.8168334960938,796.1904907226562,780.879150390625
997,792.1611938476562,792.5640869140625,790.5494384765625,786.1171875
998,799.8168334960938,791.3552856445312,788.5347900390625,798.6080322265625
999,805.8607788085938,797.8021850585938,794.5787353515625,797.8021850585938
1000,796.996337890625,795.7875366210938,796.1904907226562,784.1025390625
1001,790.952392578125,794.1758422851562,797.3992919921875,778.4615478515625
1002,793.7728881835938,797.8021850585938,796.1904907226562,781.6849975585938
1003,799.4139404296875,801.025634765625,795.7875366210938,787.3259887695312
1004,800.6226806640625,803.4432373046875,793.7728881835938,787.3259887695312
1005,797.8021850585938,798.6080322265625,792.967041015625,787.3259887695312
1006,794.5787353515625,795.7875366210938,796.996337890625,787.3259887695312
1007,792.967041015625,800.6226806640625,799.010986328125,790.5494384765625
1008,796.5933837890625,803.8461303710938,795.3846435546875,797.3992919921875
1009,798.2051391601562,792.967041015625,793.3699340820312,808.2783813476562
1010,794.981689453125,785.3113403320312,791.7582397460938,808.6813354492188
1011,792.1611938476562,790.1465454101562,789.7435913085938,796.5933837890625
1012,796.1904907226562,794.5787353515625,792.1611938476562,794.5787353515625
1013,798.6080322265625,793.7728881835938,792.5640869140625,797.3992919921875
1014,794.1758422851562,788.937744140625,789.7435913085938,799.010986328125
1015,787.3259887695312,788.1318969726562,792.1611938476562,792.5640869140625
1016,782.4908447265625,786.5201416015625,795.7875366210938,788.937744140625
1017,782.4908447265625,785.7142944335938,791.3552856445312,788.5347900390625
1018,786.1171875,789.7435913085938,788.937744140625,790.952392578125
1019,785.3113403320312,791.3552856445312,792.5640869140625,787.7289428710938
1020,787.7289428710938,790.1465454101562,786.923095703125,782.893798828125
1021,790.5494384765625,783.2966918945312,779.2673950195312,778.8644409179688
1022,792.967041015625,785.7142944335938,780.879150390625,779.6703491210938
1023,794.1758422851562,797.3992919921875,785.3113403320312,780.4761962890625
1024,794.5787353515625,801.4285888671875,785.3113403320312,780.879150390625
1025,802.2344360351562,795.7875366210938,786.923095703125,794.1758422851562
1026,801.4285888671875,793.3699340820312,794.1758422851562,799.010986328125
1027,791.7582397460938,786.923095703125,794.981689453125,793.3699340820312
1028,790.1465454101562,779.6703491210938,790.952392578125,799.010986328125
1029,792.1611938476562,784.5054931640625,791.7582397460938,802.6373901367188
1030,789.3406372070312,791.3552856445312,793.7728881835938,796.1904907226562
1031,788.1318969726562,797.8021850585938,795.7875366210938,792.967041015625
1032,792.967041015625,799.010986328125,793.7728881835938,795.7875366210938
1033,792.5640869140625,797.3992919921875,792.967041015625,792.1611938476562
1034,786.1171875,796.1904907226562,798.2051391601562,782.4908447265625
1035,785.3113403320312,794.5787353515625,794.1758422851562,781.6849975585938
1036,783.6996459960938,787.7289428710938,788.5347900390625,785.7142944335938
1037,784.5054931640625,782.893798828125,787.3259887695312,788.937744140625
1038,785.7142944335938,783.6996459960938,782.893798828125,788.5347900390625
1039,788.1318969726562,788.937744140625,786.5201416015625,786.5201416015625
1040,796.5933837890625,791.3552856445312,790.5494384765625,794.5787353515625
1041,800.6226806640625,790.1465454101562,794.981689453125,799.4139404296875
1042,794.981689453125,793.3699340820312,798.6080322265625,790.5494384765625
1043,791.7582397460938,790.952392578125,790.952392578125,792.5640869140625
1044,790.5494384765625,788.1318969726562,789.3406372070312,796.996337890625
1045,792.1611938476562,793.3699340820312,793.3699340820312,788.1318969726562
1046,799.8168334960938,795.7875366210938,794.981689453125,789.7435913085938
1047,807.069580078125,791.3552856445312,799.8168334960938,801.4285888671875
1048,809.4871826171875,786.5201416015625,799.8168334960938,804.6520385742188
1049,808.6813354492188,787.3259887695312,800.2197875976562,807.87548828125
1050,799.8168334960938,794.981689453125,799.8168334960938,804.2490844726562
1051,792.1611938476562,799.8168334960938,799.4139404296875,798.2051391601562
1052,793.7728881835938,795.3846435546875,797.8021850585938,807.069580078125
1053,792.5640869140625,792.5640869140625,797.3992919921875,805.054931640625
1054,788.5347900390625,797.8021850585938,794.1758422851562,801.4285888671875
1055,787.3259887695312,792.5640869140625,796.5933837890625,800.6226806640625
1056,790.952392578125,792.5640869140625,797.3992919921875,790.1465454101562
1057,795.7875366210938,798.6080322265625,791.7582397460938,789.7435913085938
1058,792.967041015625,794.1758422851562,792.5640869140625,798.6080322265625
1059,791.7582397460938,787.7289428710938,788.937744140625,801.4285888671875
1060,796.5933837890625,790.1465454101562,790.5494384765625,805.4578857421875
1061,792.967041015625,791.7582397460938,796.996337890625,805.4578857421875
1062,790.952392578125,793.7728881835938,795.3846435546875,801.4285888671875
1063,793.7728881835938,798.2051391601562,796.5933837890625,804.6520385742188
1064,791.3552856445312,797.3992919921875,791.7582397460938,802.2344360351562
1065,793.3699340820312,794.5787353515625,788.5347900390625,796.5933837890625
1066,790.952392578125,794.5787353515625,791.7582397460938,796.5933837890625
1067,789.3406372070312,797.8021850585938,791.7582397460938,795.7875366210938
1068,792.5640869140625,798.2051391601562,791.3552856445312,795.7875366210938
1069,794.5787353515625,794.1758422851562,792.1611938476562,794.981689453125
1070,794.981689453125,793.7728881835938,789.7435913085938,789.7435913085938
1071,799.010986328125,794.5787353515625,791.3552856445312,792.967041015625
1072,795.7875366210938,792.1611938476562,792.1611938476562,799.010986328125
1073,791.3552856445312,792.5640869140625,789.7435913085938,795.7875366210938
1074,795.7875366210938,794.981689453125,791.7582397460938,796.996337890625
1075,793.7728881835938,794.981689453125,790.952392578125,801.4285888671875
1076,789.7435913085938,796.1904907226562,790.1465454101562,796.996337890625
1077,794.981689453125,801.8314819335938,797.8021850585938,797.8021850585938
1078,790.5494384765625,796.5933837890625,797.8021850585938,794.5787353515625
1079,785.7142944335938,792.1611938476562,794.1758422851562,794.1758422851562
1080,788.5347900390625,793.7728881835938,794.1758422851562,794.981689453125
1081,787.7289428710938,792.1611938476562,795.3846435546875,793.3699340820312
1082,788.5347900390625,794.5787353515625,796.5933837890625,794.1758422851562
1083,791.3552856445312,793.3699340820312,796.996337890625,790.5494384765625
1084,794.981689453125,791.3552856445312,801.025634765625,791.7582397460938
1085,794.5787353515625,796.996337890625,802.2344360351562,798.6080322265625
1086,796.996337890625,790.952392578125,798.6080322265625,807.069580078125
1087,797.3992919921875,791.7582397460938,797.3992919921875,801.025634765625
1088,796.5933837890625,797.3992919921875,795.7875366210938,783.6996459960938
1089,800.2197875976562,795.7875366210938,794.981689453125,787.7289428710938
1090,800.6226806640625,797.8021850585938,796.5933837890625,796.5933837890625
1091,801.8314819335938,799.010986328125,797.8021850585938,795.3846435546875
1092,800.6226806640625,799.4139404296875,796.996337890625,789.7435913085938
1093,795.3846435546875,799.010986328125,796.996337890625,789.3406372070312
1094,796.996337890625,796.5933837890625,801.8314819335938,794.981689453125
1095,796.5933837890625,789.3406372070312,800.6226806640625,795.7875366210938
1096,792.967041015625,789.7435913085938,799.010986328125,797.8021850585938
1097,794.5787353515625,793.7728881835938,803.4432373046875,799.4139404296875
1098,796.996337890625,790.952392578125,801.4285888671875,798.6080322265625
1099,791.3552856445312,793.3699340820312,798.2051391601562,796.996337890625
1100,784.5054931640625,796.996337890625,797.8021850585938,792.967041015625
1101,784.5054931640625,796.5933837890625,794.5787353515625,789.7435913085938
1102,786.923095703125,799.4139404296875,790.5494384765625,790.1465454101562
1103,797.8021850585938,801.8314819335938,790.1465454101562,794.1758422851562
1104,808.6813354492188,799.4139404296875,791.3552856445312,799.010986328125
1105,794.5787353515625,796.996337890625,798.2051391601562,790.1465454101562
1106,777.6557006835938,793.7728881835938,798.6080322265625,777.2527465820312
1107,786.5201416015625,787.7289428710938,797.3992919921875,780.4761962890625
1108,792.1611938476562,787.7289428710938,798.6080322265625,782.087890625
1109,794.1758422851562,792.5640869140625,794.981689453125,782.087890625
1110,793.3699340820312,792.5640869140625,797.8021850585938,793.3699340820312
1111,785.7142944335938,794.5787353515625,796.1904907226562,780.4761962890625
1112,788.1318969726562,796.996337890625,793.7728881835938,779.2673950195312
1113,792.1611938476562,790.1465454101562,787.3259887695312,794.1758422851562
1114,793.3699340820312,781.6849975585938,784.1025390625,794.5787353515625
1115,790.5494384765625,787.7289428710938,791.3552856445312,790.952392578125
1116,794.1758422851562,796.1904907226562,794.981689453125,792.967041015625
1117,799.8168334960938,797.8021850585938,794.5787353515625,794.981689453125
1118,797.8021850585938,794.5787353515625,798.6080322265625,795.7875366210938
1119,794.1758422851562,790.1465454101562,801.8314819335938,794.1758422851562
1120,786.1171875,788.937744140625,800.2197875976562,788.5347900390625
1121,780.879150390625,783.2966918945312,793.3699340820312,794.5787353515625
1122,781.2820434570312,783.6996459960938,791.7582397460938,793.3699340820312
1123,787.3259887695312,790.952392578125,796.996337890625,788.5347900390625
1124,787.7289428710938,789.7435913085938,792.967041015625,789.7435913085938
1125,786.5201416015625,789.3406372070312,790.952392578125,791.3552856445312
1126,792.1611938476562,794.5787353515625,794.5787353515625,789.3406372070312
1127,791.3552856445312,795.3846435546875,790.1465454101562,781.2820434570312
1128,789.3406372070312,788.937744140625,786.923095703125,781.2820434570312
1129,792.967041015625,793.3699340820312,792.967041015625,793.3699340820312
1130,790.1465454101562,787.7289428710938,800.2197875976562,789.3406372070312
1131,781.2820434570312,780.4761962890625,793.3699340820312,784.908447265625
1132,783.2966918945312,792.5640869140625,788.5347900390625,792.967041015625
1133,787.3259887695312,795.3846435546875,790.952392578125,791.3552856445312
1134,786.5201416015625,792.1611938476562,791.7582397460938,788.937744140625
1135,788.5347900390625,795.3846435546875,791.3552856445312,793.7728881835938
1136,791.7582397460938,793.7728881835938,787.3259887695312,799.010986328125
1137,791.3552856445312,787.3259887695312,787.7289428710938,790.952392578125
1138,787.3259887695312,787.3259887695312,789.7435913085938,781.2820434570312
1139,791.3552856445312,788.937744140625,788.5347900390625,789.7435913085938
1140,795.7875366210938,791.7582397460938,795.3846435546875,797.3992919921875
1141,791.3552856445312,791.3552856445312,798.6080322265625,801.4285888671875
1142,788.1318969726562,793.7728881835938,792.5640869140625,793.3699340820312
1143,789.7435913085938,799.8168334960938,792.967041015625,786.5201416015625
1144,795.3846435546875,797.3992919921875,796.5933837890625,798.6080322265625
1145,801.025634765625,797.8021850585938,796.5933837890625,799.010986328125
1146,803.8461303710938,802.2344360351562,794.981689453125,786.923095703125
1147,797.8021850585938,795.7875366210938,789.7435913085938,786.5201416015625
1148,795.3846435546875,784.908447265625,786.5201416015625,795.3846435546875
1149,797.3992919921875,790.952392578125,789.7435913085938,788.937744140625
1150,800.6226806640625,790.5494384765625,787.3259887695312,783.2966918945312
1151,803.040283203125,790.952392578125,786.1171875,788.937744140625
1152,803.040283203125,792.1611938476562,793.3699340820312,791.7582397460938
1153,798.6080322265625,792.967041015625,793.7728881835938,788.5347900390625
1154,792.967041015625,797.8021850585938,792.5640869140625,790.952392578125
1155,792.1611938476562,793.7728881835938,794.1758422851562,790.952392578125
1156,793.3699340820312,794.1758422851562,790.952392578125,796.5933837890625
1157,791.3552856445312,794.5787353515625,791.7582397460938,800.6226806640625
1158,790.952392578125,792.5640869140625,791.3552856445312,787.3259887695312
1159,801.025634765625,792.5640869140625,790.1465454101562,788.937744140625
1160,805.4578857421875,797.3992919921875,794.5787353515625,797.8021850585938
1161,801.8314819335938,800.2197875976562,792.1611938476562,788.937744140625
1162,800.2197875976562,794.5787353515625,786.1171875,783.2966918945312
1163,798.2051391601562,788.5347900390625,786.923095703125,786.1171875
1164,798.2051391601562,788.1318969726562,793.3699340820312,785.7142944335938
1165,799.4139404296875,798.6080322265625,795.7875366210938,792.1611938476562
1166,797.8021850585938,799.010986328125,793.3699340820312,800.2197875976562
1167,794.5787353515625,792.967041015625,795.7875366210938,796.996337890625
1168,795.3846435546875,797.3992919921875,795.7875366210938,788.1318969726562
1169,794.5787353515625,803.040283203125,785.3113403320312,778.05859375
1170,794.1758422851562,800.6226806640625,786.923095703125,781.2820434570312
1171,796.996337890625,793.3699340820312,792.1611938476562,792.1611938476562
1172,795.7875366210938,786.923095703125,792.1611938476562,795.7875366210938
1173,795.3846435546875,791.3552856445312,796.996337890625,794.981689453125
1174,793.7728881835938,794.1758422851562,796.996337890625,794.981689453125
1175,794.5787353515625,790.952392578125,799.010986328125,801.4285888671875
1176,796.5933837890625,797.8021850585938,804.2490844726562,808.2783813476562
1177,793.3699340820312,805.054931640625,799.010986328125,799.010986328125
1178,794.1758422851562,803.8461303710938,799.8168334960938,794.1758422851562
1179,792.5640869140625,796.996337890625,796.5933837890625,792.1611938476562
1180,792.1611938476562,798.6080322265625,792.1611938476562,790.952392578125
1181,791.3552856445312,800.6226806640625,793.7728881835938,791.3552856445312
1182,792.1611938476562,796.996337890625,795.3846435546875,795.7875366210938
1183,794.5787353515625,792.1611938476562,796.5933837890625,800.6226806640625
1184,790.1465454101562,793.7728881835938,799.010986328125,788.937744140625
1185,787.3259887695312,794.5787353515625,797.3992919921875,784.1025390625
1186,794.981689453125,792.5640869140625,796.1904907226562,794.1758422851562
1187,799.4139404296875,788.937744140625,793.7728881835938,799.010986328125
1188,796.5933837890625,799.8168334960938,793.3699340820312,793.3699340820312
1189,791.7582397460938,803.040283203125,790.5494384765625,791.3552856445312
1190,795.3846435546875,798.6080322265625,796.1904907226562,798.6080322265625
1191,795.7875366210938,799.8168334960938,799.4139404296875,796.1904907226562
1192,793.7728881835938,799.4139404296875,793.3699340820312,793.3699340820312
1193,796.5933837890625,796.1904907226562,799.010986328125,797.3992919921875
1194,796.5933837890625,792.1611938476562,800.6226806640625,801.8314819335938
1195,797.8021850585938,797.8021850585938,800.6226806640625,802.6373901367188
1196,796.5933837890625,797.8021850585938,799.010986328125,796.5933837890625
1197,797.8021850585938,790.1465454101562,794.981689453125,793.7728881835938
1198,795.3846435546875,790.952392578125,796.1904907226562,796.5933837890625
1199,791.7582397460938,793.3699340820312,796.1904907226562,798.2051391601562
1200,799.8168334960938,796.996337890625,795.7875366210938,797.3992919921875
1201,806.2637329101562,796.1904907226562,799.8168334960938,799.8168334960938
1202,795.7875366210938,794.1758422851562,799.8168334960938,799.4139404296875
1203,790.952392578125,795.3846435546875,794.1758422851562,799.4139404296875
1204,787.3259887695312,788.1318969726562,789.7435913085938,793.3699340820312
1205,788.5347900390625,786.1171875,790.1465454101562,791.7582397460938
1206,801.4285888671875,792.967041015625,794.5787353515625,802.6373901367188
1207,803.040283203125,787.7289428710938,799.8168334960938,798.6080322265625
1208,800.6226806640625,785.7142944335938,798.6080322265625,790.952392578125
1209,801.8314819335938,796.1904907226562,793.3699340820312,795.3846435546875
1210,796.996337890625,796.5933837890625,791.7582397460938,794.981689453125
1211,799.4139404296875,793.7728881835938,791.3552856445312,792.967041015625
1212,801.8314819335938,792.1611938476562,792.1611938476562,792.5640869140625
1213,797.8021850585938,786.1171875,796.1904907226562,794.5787353515625
1214,792.5640869140625,789.7435913085938,799.010986328125,797.3992919921875
1215,784.908447265625,798.2051391601562,796.996337890625,799.4139404296875
1216,783.6996459960938,791.3552856445312,794.1758422851562,801.4285888671875
1217,791.3552856445312,787.7289428710938,792.967041015625,802.6373901367188
1218,786.923095703125,791.3552856445312,795.7875366210938,799.4139404296875
1219,785.7142944335938,792.5640869140625,796.5933837890625,799.8168334960938
1220,787.7289428710938,794.1758422851562,799.8168334960938,798.2051391601562
1221,796.996337890625,797.8021850585938,801.8314819335938,795.3846435546875
1222,804.2490844726562,801.8314819335938,802.2344360351562,795.7875366210938
1223,799.4139404296875,801.4285888671875,800.2197875976562,789.3406372070312
1224,802.6373901367188,792.1611938476562,795.7875366210938,792.1611938476562
1225,797.3992919921875,782.087890625,792.5640869140625,790.1465454101562
1226,788.1318969726562,784.5054931640625,797.8021850585938,783.6996459960938
1227,790.5494384765625,792.967041015625,796.1904907226562,783.2966918945312
1228,791.3552856445312,797.8021850585938,792.1611938476562,791.7582397460938
1229,787.3259887695312,799.4139404296875,795.3846435546875,801.8314819335938
1230,787.7289428710938,791.7582397460938,795.3846435546875,792.1611938476562
1231,787.3259887695312,786.923095703125,791.3552856445312,784.1025390625
1232,788.937744140625,790.1465454101562,791.7582397460938,791.7582397460938
1233,796.996337890625,792.5640869140625,796.1904907226562,786.1171875
1234,799.010986328125,794.981689453125,797.8021850585938,779.6703491210938
1235,798.6080322265625,787.3259887695312,797.3992919921875,786.5201416015625
1236,799.010986328125,786.5201416015625,797.8021850585938,789.7435913085938
1237,790.5494384765625,797.3992919921875,798.2051391601562,791.7582397460938
1238,788.1318969726562,795.7875366210938,799.010986328125,797.8021850585938
1239,792.5640869140625,795.3846435546875,796.5933837890625,804.2490844726562
1240,792.1611938476562,794.5787353515625,792.5640869140625,801.4285888671875
1241,785.7142944335938,786.5201416015625,790.952392578125,788.937744140625
1242,784.1025390625,784.1025390625,786.5201416015625,779.6703491210938
1243,791.3552856445312,787.3259887695312,786.1171875,782.4908447265625
1244,792.967041015625,788.1318969726562,789.7435913085938,788.937744140625
1245,791.3552856445312,792.1611938476562,794.981689453125,785.7142944335938
1246,794.981689453125,799.010986328125,799.4139404296875,787.3259887695312
1247,796.996337890625,799.8168334960938,796.1904907226562,794.1758422851562
1248,794.981689453125,792.5640869140625,790.952392578125,794.981689453125
1249,788.937744140625,793.7728881835938,790.1465454101562,792.967041015625
1250,782.893798828125,792.1611938476562,788.937744140625,790.5494384765625
1251,785.7142944335938,789.3406372070312,784.5054931640625,791.3552856445312
1252,789.3406372070312,790.952392578125,786.923095703125,792.1611938476562
1253,784.5054931640625,792.5640869140625,790.952392578125,789.7435913085938
1254,784.5054931640625,787.7289428710938,796.996337890625,782.893798828125
1255,792.5640869140625,785.3113403320312,799.010986328125,787.3259887695312
1256,791.3552856445312,792.1611938476562,799.010986328125,792.967041015625
1257,788.5347900390625,796.1904907226562,802.6373901367188,789.7435913085938
1258,792.1611938476562,792.5640869140625,798.2051391601562,786.5201416015625
1259,792.967041015625,794.5787353515625,794.981689453125,784.5054931640625
1260,790.952392578125,798.2051391601562,797.8021850585938,786.1171875
1261,789.7435913085938,792.5640869140625,803.8461303710938,792.967041015625
1262,788.937744140625,799.010986328125,801.8314819335938,794.1758422851562
1263,790.952392578125,800.6226806640625,799.8168334960938,795.3846435546875
1264,791.7582397460938,796.996337890625,802.6373901367188,793.3699340820312
1265,788.5347900390625,796.5933837890625,796.5933837890625,791.3552856445312
1266,790.952392578125,795.3846435546875,799.010986328125,794.981689453125
1267,789.3406372070312,796.996337890625,802.2344360351562,790.5494384765625
1268,786.5201416015625,792.1611938476562,802.2344360351562,784.5054931640625
1269,788.937744140625,792.5640869140625,802.2344360351562,790.952392578125
1270,794.981689453125,799.8168334960938,799.8168334960938,797.8021850585938
1271,796.996337890625,801.8314819335938,802.2344360351562,801.025634765625
1272,795.7875366210938,799.8168334960938,807.4725341796875,795.7875366210938
1273,797.8021850585938,790.952392578125,806.6666870117188,790.952392578125
1274,792.1611938476562,787.7289428710938,800.6226806640625,791.7582397460938
1275,784.5054931640625,795.3846435546875,797.8021850585938,790.1465454101562
1276,789.7435913085938,798.6080322265625,792.5640869140625,792.5640869140625
1277,801.4285888671875,797.3992919921875,792.1611938476562,796.5933837890625
1278,809.084228515625,796.996337890625,796.1904907226562,799.8168334960938
1279,797.3992919921875,793.3699340820312,796.996337890625,793.7728881835938
1280,784.908447265625,793.7728881835938,796.5933837890625,777.2527465820312
1281,793.7728881835938,794.5787353515625,792.1611938476562,776.4468994140625
1282,799.8168334960938,789.7435913085938,791.3552856445312,789.3406372070312
1283,792.967041015625,791.7582397460938,794.1758422851562,789.3406372070312
1284,795.3846435546875,794.5787353515625,799.010986328125,788.5347900390625
1285,792.5640869140625,787.7289428710938,796.996337890625,788.5347900390625
1286,786.1171875,788.5347900390625,789.7435913085938,784.908447265625
1287,790.1465454101562,794.981689453125,789.3406372070312,784.5054931640625
1288,794.5787353515625,789.7435913085938,788.937744140625,782.893798828125
1289,794.981689453125,788.5347900390625,791.3552856445312,791.3552856445312
1290,793.3699340820312,792.5640869140625,790.952392578125,804.6520385742188
1291,791.3552856445312,796.5933837890625,792.5640869140625,795.3846435546875
1292,793.3699340820312,794.5787353515625,793.3699340820312,783.6996459960938
1293,795.7875366210938,796.996337890625,794.981689453125,787.7289428710938
1294,796.1904907226562,796.5933837890625,796.1904907226562,788.1318969726562
1295,790.5494384765625,783.6996459960938,794.1758422851562,780.879150390625
1296,788.5347900390625,782.893798828125,794.1758422851562,780.4761962890625
1297,796.5933837890625,793.7728881835938,794.5787353515625,787.3259887695312
1298,798.6080322265625,789.3406372070312,792.967041015625,781.6849975585938
1299,797.8021850585938,786.5201416015625,789.7435913085938,779.6703491210938
1300,800.2197875976562,790.1465454101562,792.967041015625,789.7435913085938
1301,798.6080322265625,792.967041015625,792.967041015625,798.2051391601562
1302,791.7582397460938,788.5347900390625,789.3406372070312,800.6226806640625
1303,789.7435913085938,792.1611938476562,792.5640869140625,796.996337890625
1304,790.952392578125,796.996337890625,790.952392578125,794.1758422851562
1305,790.5494384765625,784.5054931640625,793.3699340820312,792.1611938476562
1306,792.5640869140625,786.5201416015625,796.5933837890625,794.1758422851562
1307,790.1465454101562,793.7728881835938,796.996337890625,791.7582397460938
1308,790.5494384765625,788.937744140625,793.3699340820312,794.1758422851562
1309,794.1758422851562,789.7435913085938,792.5640869140625,797.3992919921875
1310,792.967041015625,793.7728881835938,794.1758422851562,784.5054931640625
1311,794.1758422851562,799.4139404296875,792.1611938476562,788.5347900390625
1312,788.5347900390625,801.8314819335938,792.1611938476562,794.1758422851562
1313,787.3259887695312,794.981689453125,787.3259887695312,795.7875366210938
1314,789.7435913085938,791.3552856445312,790.1465454101562,795.7875366210938
1315,785.3113403320312,785.3113403320312,796.1904907226562,792.1611938476562
1316,782.087890625,777.2527465820312,790.5494384765625,787.7289428710938
1317,780.0732421875,786.5201416015625,790.5494384765625,782.893798828125
1318,782.893798828125,794.5787353515625,794.1758422851562,782.4908447265625
1319,789.3406372070312,790.1465454101562,792.967041015625,782.087890625
1320,786.5201416015625,788.937744140625,794.1758422851562,787.7289428710938
1321,784.908447265625,788.937744140625,792.5640869140625,792.967041015625
1322,793.7728881835938,788.937744140625,794.5787353515625,791.3552856445312
1323,790.952392578125,791.3552856445312,794.981689453125,787.7289428710938
1324,785.3113403320312,786.5201416015625,793.3699340820312,786.5201416015625
1325,790.1465454101562,784.908447265625,795.7875366210938,793.3699340820312
1326,796.1904907226562,792.967041015625,796.1904907226562,792.5640869140625
1327,799.8168334960938,786.5201416015625,795.7875366210938,788.5347900390625
1328,798.6080322265625,784.5054931640625,794.1758422851562,793.3699340820312
1329,799.010986328125,798.2051391601562,795.7875366210938,791.7582397460938
1330,795.7875366210938,799.4139404296875,797.3992919921875,780.0732421875
1331,792.1611938476562,792.1611938476562,790.1465454101562,776.8497924804688
1332,792.5640869140625,787.7289428710938,788.5347900390625,786.5201416015625
1333,797.3992919921875,791.3552856445312,792.5640869140625,796.1904907226562
1334,800.6226806640625,795.7875366210938,792.5640869140625,800.6226806640625
1335,796.996337890625,794.1758422851562,793.7728881835938,801.8314819335938
1336,792.967041015625,794.981689453125,792.1611938476562,802.2344360351562
1337,791.3552856445312,790.1465454101562,792.967041015625,794.1758422851562
1338,793.3699340820312,787.7289428710938,793.3699340820312,788.1318969726562
1339,798.6080322265625,793.3699340820312,789.3406372070312,790.1465454101562
1340,796.1904907226562,794.5787353515625,786.923095703125,793.7728881835938
1341,790.5494384765625,799.4139404296875,790.5494384765625,794.1758422851562
1342,794.1758422851562,795.7875366210938,793.7728881835938,797.3992919921875
1343,794.5787353515625,789.3406372070312,793.3699340820312,800.2197875976562
1344,790.952392578125,796.5933837890625,794.981689453125,792.967041015625
1345,790.952392578125,801.8314819335938,797.8021850585938,793.3699340820312
1346,791.3552856445312,800.2197875976562,796.996337890625,799.4139404296875
1347,793.3699340820312,797.8021850585938,793.3699340820312,799.010986328125
1348,799.4139404296875,790.5494384765625,790.1465454101562,804.6520385742188
1349,803.040283203125,782.893798828125,788.1318969726562,807.87548828125
1350,798.2051391601562,790.5494384765625,791.7582397460938,805.4578857421875
1351,797.8021850585938,798.6080322265625,795.3846435546875,801.4285888671875
1352,796.5933837890625,796.996337890625,790.5494384765625,801.025634765625
1353,795.3846435546875,795.3846435546875,787.7289428710938,798.2051391601562
1354,801.8314819335938,788.937744140625,790.5494384765625,800.2197875976562
1355,804.6520385742188,795.3846435546875,792.1611938476562,803.8461303710938
1356,799.8168334960938,799.010986328125,797.3992919921875,798.2051391601562
1357,794.5787353515625,794.5787353515625,796.1904907226562,790.952392578125
1358,788.1318969726562,792.1611938476562,789.7435913085938,787.7289428710938
1359,782.893798828125,789.3406372070312,788.5347900390625,776.8497924804688
1360,786.923095703125,788.1318969726562,786.1171875,779.2673950195312
1361,791.7582397460938,790.952392578125,789.7435913085938,787.3259887695312
1362,788.937744140625,795.7875366210938,793.3699340820312,786.923095703125
1363,795.7875366210938,797.3992919921875,796.5933837890625,800.2197875976562
1364,799.8168334960938,796.996337890625,799.4139404296875,806.2637329101562
1365,794.1758422851562,792.5640869140625,795.7875366210938,794.981689453125
1366,794.981689453125,790.5494384765625,796.996337890625,797.3992919921875
1367,797.3992919921875,796.996337890625,796.1904907226562,796.996337890625
1368,789.3406372070312,792.5640869140625,793.7728881835938,788.1318969726562
1369,792.1611938476562,790.1465454101562,796.5933837890625,788.5347900390625
1370,799.8168334960938,797.8021850585938,797.3992919921875,798.6080322265625
1371,798.2051391601562,795.7875366210938,795.3846435546875,804.2490844726562
1372,789.7435913085938,789.7435913085938,790.952392578125,802.6373901367188
1373,784.1025390625,794.1758422851562,796.1904907226562,803.4432373046875
1374,790.952392578125,795.7875366210938,802.6373901367188,806.2637329101562
1375,796.1904907226562,792.5640869140625,796.5933837890625,805.054931640625
1376,801.8314819335938,796.5933837890625,793.3699340820312,806.2637329101562
1377,802.2344360351562,793.7728881835938,790.952392578125,805.8607788085938
1378,790.952392578125,784.908447265625,794.1758422851562,792.967041015625
1379,782.893798828125,792.967041015625,799.010986328125,785.7142944335938
1380,786.1171875,793.7728881835938,797.8021850585938,785.7142944335938
1381,785.3113403320312,788.1318969726562,795.3846435546875,786.1171875
1382,779.6703491210938,792.5640869140625,795.7875366210938,784.5054931640625
1383,778.8644409179688,794.5787353515625,796.996337890625,777.2527465820312
1384,779.2673950195312,788.5347900390625,790.1465454101562,773.6264038085938
1385,781.6849975585938,777.6557006835938,788.1318969726562,779.2673950195312
1386,782.4908447265625,777.2527465820312,789.3406372070312,786.5201416015625
1387,782.893798828125,788.5347900390625,791.3552856445312,780.879150390625
1388,783.2966918945312,790.1465454101562,790.5494384765625,780.4761962890625
1389,783.6996459960938,787.3259887695312,788.937744140625,782.4908447265625
1390,792.1611938476562,790.952392578125,792.1611938476562,786.1171875
1391,791.7582397460938,799.4139404296875,790.1465454101562,788.5347900390625
1392,786.1171875,802.2344360351562,784.908447265625,783.6996459960938
1393,789.3406372070312,799.010986328125,792.5640869140625,788.5347900390625
1394,795.3846435546875,797.8021850585938,799.4139404296875,798.2051391601562
1395,799.8168334960938,795.7875366210938,797.3992919921875,804.6520385742188
1396,798.2051391601562,799.010986328125,791.7582397460938,803.4432373046875
1397,792.967041015625,801.4285888671875,794.1758422851562,798.2051391601562
1398,790.952392578125,798.6080322265625,799.010986328125,799.8168334960938
1399,788.937744140625,794.981689453125,794.5787353515625,790.5494384765625
1400,792.967041015625,796.1904907226562,790.952392578125,790.1465454101562
1401,798.2051391601562,801.025634765625,791.7582397460938,795.3846435546875
1402,793.3699340820312,794.1758422851562,789.3406372070312,791.3552856445312
1403,792.967041015625,797.8021850585938,791.7582397460938,791.7582397460938
1404,798.2051391601562,800.2197875976562,792.5640869140625,789.7435913085938
1405,797.8021850585938,791.7582397460938,791.3552856445312,789.3406372070312
1406,796.1904907226562,792.967041015625,794.5787353515625,789.7435913085938
1407,794.5787353515625,795.7875366210938,800.6226806640625,786.1171875
1408,790.1465454101562,794.981689453125,796.5933837890625,786.5201416015625
1409,792.1611938476562,801.025634765625,791.7582397460938,789.7435913085938
1410,797.3992919921875,807.069580078125,798.2051391601562,791.3552856445312
1411,796.996337890625,806.2637329101562,796.1904907226562,795.7875366210938
1412,796.1904907226562,801.4285888671875,793.7728881835938,799.010986328125
1413,791.7582397460938,793.3699340820312,794.1758422851562,799.8168334960938
1414,785.3113403320312,788.937744140625,785.3113403320312,795.7875366210938
1415,786.5201416015625,795.3846435546875,780.879150390625,789.7435913085938
1416,792.5640869140625,797.8021850585938,785.7142944335938,796.5933837890625
1417,796.996337890625,794.1758422851562,791.7582397460938,805.4578857421875
1418,794.981689453125,795.7875366210938,790.1465454101562,793.7728881835938
1419,794.981689453125,802.2344360351562,792.1611938476562,783.2966918945312
1420,796.5933837890625,794.5787353515625,792.967041015625,781.6849975585938
1421,797.8021850585938,788.1318969726562,791.3552856445312,782.893798828125
1422,797.8021850585938,784.1025390625,790.952392578125,785.7142944335938
1423,790.5494384765625,780.4761962890625,786.5201416015625,787.7289428710938
1424,790.952392578125,790.952392578125,788.1318969726562,797.8021850585938
1425,795.3846435546875,799.8168334960938,795.7875366210938,803.040283203125
1426,794.981689453125,801.025634765625,800.6226806640625,791.3552856445312
1427,792.967041015625,801.025634765625,796.996337890625,786.923095703125
1428,794.981689453125,798.6080322265625,791.3552856445312,787.7289428710938
1429,799.4139404296875,788.5347900390625,792.967041015625,786.1171875
1430,798.2051391601562,792.5640869140625,793.3699340820312,781.6849975585938
1431,799.010986328125,801.4285888671875,796.5933837890625,787.3259887695312
1432,797.8021850585938,802.2344360351562,797.3992919921875,794.1758422851562
1433,797.8021850585938,796.996337890625,796.996337890625,794.1758422851562
1434,799.010986328125,788.1318969726562,797.3992919921875,796.5933837890625
1435,795.7875366210938,783.6996459960938,794.5787353515625,794.981689453125
1436,792.5640869140625,788.937744140625,799.4139404296875,798.2051391601562
1437,794.981689453125,798.2051391601562,798.2051391601562,799.010986328125
1438,796.1904907226562,796.1904907226562,791.7582397460938,792.967041015625
1439,794.5787353515625,788.1318969726562,792.967041015625,790.5494384765625
1440,795.7875366210938,788.1318969726562,797.3992919921875,790.1465454101562
1441,792.967041015625,791.7582397460938,795.7875366210938,789.7435913085938
1442,791.3552856445312,792.5640869140625,788.1318969726562,790.5494384765625
1443,791.7582397460938,790.1465454101562,791.7582397460938,799.010986328125
1444,788.937744140625,789.3406372070312,798.2051391601562,803.8461303710938
1445,787.3259887695312,792.967041015625,796.1904907226562,797.8021850585938
1446,785.3113403320312,796.996337890625,792.967041015625,796.1904907226562
1447,790.952392578125,798.2051391601562,790.952392578125,799.4139404296875
1448,799.4139404296875,801.4285888671875,790.1465454101562,799.8168334960938
1449,794.5787353515625,800.6226806640625,794.981689453125,790.5494384765625
1450,791.7582397460938,794.1758422851562,799.8168334960938,792.5640869140625
1451,805.054931640625,791.7582397460938,794.1758422851562,807.87548828125
1452,807.4725341796875,794.1758422851562,795.3846435546875,811.90478515625
1453,793.7728881835938,800.2197875976562,801.8314819335938,798.6080322265625
1454,796.1904907226562,803.040283203125,799.8168334960938,793.3699340820312
1455,801.025634765625,801.025634765625,800.2197875976562,794.981689453125
1456,802.2344360351562,802.6373901367188,797.3992919921875,797.3992919921875
1457,801.4285888671875,801.025634765625,797.8021850585938,794.981689453125
1458,796.1904907226562,794.981689453125,797.8021850585938,791.7582397460938
1459,801.4285888671875,799.010986328125,792.5640869140625,802.6373901367188
1460,800.2197875976562,799.010986328125,794.5787353515625,799.4139404296875
1461,797.3992919921875,799.8168334960938,797.3992919921875,789.3406372070312
1462,802.6373901367188,795.7875366210938,790.5494384765625,793.3699340820312
1463,796.1904907226562,786.1171875,790.1465454101562,796.5933837890625
1464,785.3113403320312,792.1611938476562,793.3699340820312,792.967041015625
1465,789.3406372070312,797.3992919921875,795.7875366210938,794.1758422851562
1466,790.5494384765625,799.4139404296875,794.981689453125,790.5494384765625
1467,785.3113403320312,795.7875366210938,795.3846435546875,788.5347900390625
1468,783.6996459960938,782.4908447265625,794.981689453125,794.1758422851562
1469,784.908447265625,789.3406372070312,792.1611938476562,793.3699340820312
1470,786.923095703125,794.1758422851562,790.5494384765625,794.981689453125
1471,788.5347900390625,792.1611938476562,788.937744140625,800.6226806640625
1472,789.7435913085938,790.952392578125,789.3406372070312,792.967041015625
1473,790.1465454101562,784.5054931640625,790.5494384765625,786.923095703125
1474,788.5347900390625,784.5054931640625,790.952392578125,795.3846435546875
1475,781.2820434570312,787.3259887695312,790.1465454101562,793.7728881835938
1476,780.0732421875,788.937744140625,789.3406372070312,783.6996459960938
1477,783.6996459960938,787.3259887695312,790.5494384765625,778.8644409179688
1478,789.3406372070312,786.923095703125,792.1611938476562,788.1318969726562
1479,795.7875366210938,788.1318969726562,797.3992919921875,796.996337890625
1480,795.3846435546875,793.7728881835938,799.8168334960938,799.010986328125
1481,794.5787353515625,801.4285888671875,797.8021850585938,802.2344360351562
1482,795.3846435546875,797.8021850585938,796.1904907226562,806.2637329101562
1483,791.3552856445312,793.7728881835938,796.996337890625,799.4139404296875
1484,792.5640869140625,790.952392578125,796.996337890625,794.1758422851562
1485,796.5933837890625,786.1171875,797.8021850585938,794.5787353515625
1486,789.3406372070312,787.7289428710938,799.010986328125,794.981689453125
1487,788.5347900390625,791.7582397460938,799.8168334960938,795.3846435546875
1488,788.1318969726562,788.937744140625,793.7728881835938,786.5201416015625
1489,788.937744140625,792.967041015625,792.1611938476562,787.7289428710938
1490,793.3699340820312,795.3846435546875,800.2197875976562,799.8168334960938
1491,790.952392578125,788.5347900390625,797.8021850585938,800.2197875976562
1492,789.7435913085938,790.5494384765625,792.5640869140625,792.5640869140625
1493,794.1758422851562,796.1904907226562,792.5640869140625,798.2051391601562
1494,796.1904907226562,795.7875366210938,789.3406372070312,799.4139404296875
1495,795.3846435546875,796.1904907226562,798.6080322265625,790.1465454101562
1496,797.8021850585938,795.3846435546875,800.2197875976562,786.923095703125
1497,794.981689453125,794.981689453125,795.3846435546875,786.923095703125
1498,790.1465454101562,797.8021850585938,797.8021850585938,784.5054931640625
1499,796.5933837890625,801.025634765625,799.010986328125,791.3552856445312
1500,800.2197875976562,799.010986328125,801.025634765625,800.2197875976562
1501,796.996337890625,795.7875366210938,801.025634765625,801.025634765625
1502,793.7728881835938,782.4908447265625,794.981689453125,794.981689453125
1503,794.1758422851562,779.2673950195312,793.3699340820312,792.1611938476562
1504,796.1904907226562,790.952392578125,794.981689453125,792.1611938476562
1505,796.5933837890625,794.5787353515625,792.5640869140625,796.996337890625
1506,801.8314819335938,788.937744140625,792.1611938476562,793.3699340820312
1507,805.4578857421875,783.2966918945312,796.996337890625,786.5201416015625
1508,799.4139404296875,786.923095703125,794.981689453125,789.3406372070312
1509,799.4139404296875,794.981689453125,795.3846435546875,794.5787353515625
1510,801.025634765625,795.7875366210938,800.6226806640625,790.1465454101562
1511,797.3992919921875,792.967041015625,801.025634765625,791.7582397460938
1512,796.5933837890625,796.5933837890625,796.996337890625,796.1904907226562
1513,795.3846435546875,795.3846435546875,792.967041015625,793.7728881835938
1514,794.5787353515625,791.3552856445312,799.4139404296875,796.996337890625
1515,796.1904907226562,797.8021850585938,804.6520385742188,798.2051391601562
1516,801.4285888671875,796.5933837890625,796.1904907226562,796.5933837890625
1517,805.4578857421875,794.5787353515625,793.3699340820312,799.4139404296875
1518,799.8168334960938,794.1758422851562,799.4139404296875,796.1904907226562
1519,793.3699340820312,789.3406372070312,800.6226806640625,790.5494384765625
1520,799.4139404296875,788.1318969726562,796.996337890625,793.3699340820312
1521,795.7875366210938,788.937744140625,800.2197875976562,796.996337890625
1522,786.5201416015625,797.8021850585938,807.069580078125,790.1465454101562
1523,793.3699340820312,802.2344360351562,805.4578857421875,792.967041015625
1524,794.5787353515625,794.981689453125,800.6226806640625,794.981689453125
1525,788.937744140625,787.3259887695312,797.8021850585938,786.1171875
1526,788.1318969726562,786.923095703125,798.2051391601562,780.879150390625
1527,790.5494384765625,793.7728881835938,799.4139404296875,779.6703491210938
1528,791.7582397460938,793.3699340820312,794.5787353515625,780.4761962890625
1529,791.7582397460938,789.3406372070312,793.3699340820312,783.2966918945312
1530,790.952392578125,788.5347900390625,794.981689453125,787.7289428710938
1531,787.7289428710938,793.7728881835938,796.1904907226562,793.3699340820312
1532,784.5054931640625,794.981689453125,795.7875366210938,794.981689453125
1533,783.6996459960938,793.7728881835938,797.3992919921875,790.5494384765625
1534,783.6996459960938,799.010986328125,801.8314819335938,790.5494384765625
1535,786.1171875,796.1904907226562,795.3846435546875,795.3846435546875
1536,787.3259887695312,789.7435913085938,792.1611938476562,799.010986328125
1537,791.3552856445312,794.5787353515625,796.1904907226562,794.981689453125
1538,800.6226806640625,794.981689453125,797.3992919921875,787.7289428710938
1539,805.8607788085938,792.967041015625,792.5640869140625,783.2966918945312
1540,800.2197875976562,792.967041015625,792.967041015625,790.1465454101562
1541,790.5494384765625,788.5347900390625,790.952392578125,794.5787353515625
1542,788.5347900390625,792.1611938476562,788.937744140625,784.5054931640625
1543,791.7582397460938,796.996337890625,791.3552856445312,786.5201416015625
1544,796.1904907226562,796.5933837890625,789.7435913085938,793.7728881835938
1545,791.7582397460938,799.8168334960938,792.1611938476562,786.1171875
1546,784.908447265625,796.5933837890625,790.952392578125,782.087890625
1547,786.5201416015625,794.1758422851562,785.7142944335938,787.7289428710938
1548,792.1611938476562,799.8168334960938,786.5201416015625,793.7728881835938
1549,793.7728881835938,801.025634765625,791.7582397460938,799.010986328125
1550,793.7728881835938,792.5640869140625,792.967041015625,799.010986328125
1551,796.996337890625,790.5494384765625,791.3552856445312,801.025634765625
1552,794.5787353515625,791.7582397460938,792.5640869140625,796.1904907226562
1553,786.923095703125,790.5494384765625,793.3699340820312,792.967041015625
1554,790.1465454101562,790.5494384765625,791.3552856445312,804.2490844726562
1555,792.1611938476562,792.5640869140625,790.1465454101562,802.6373901367188
1556,785.3113403320312,798.6080322265625,792.5640869140625,796.996337890625
1557,790.952392578125,801.8314819335938,795.3846435546875,802.6373901367188
1558,797.8021850585938,799.4139404296875,794.981689453125,803.8461303710938
1559,798.2051391601562,796.5933837890625,794.981689453125,798.6080322265625
1560,796.5933837890625,793.3699340820312,797.3992919921875,796.996337890625
1561,796.5933837890625,785.3113403320312,796.5933837890625,801.8314819335938
1562,799.010986328125,788.5347900390625,790.5494384765625,792.967041015625
1563,796.1904907226562,799.010986328125,783.2966918945312,780.4761962890625
1564,796.1904907226562,795.7875366210938,790.1465454101562,786.923095703125
1565,794.1758422851562,794.1758422851562,794.1758422851562,788.5347900390625
1566,793.3699340820312,797.3992919921875,792.5640869140625,792.5640869140625
1567,794.5787353515625,797.3992919921875,796.996337890625,800.2197875976562
1568,792.967041015625,796.5933837890625,799.8168334960938,794.981689453125
1569,800.2197875976562,796.5933837890625,794.5787353515625,793.3699340820312
1570,803.040283203125,797.3992919921875,792.1611938476562,792.5640869140625
1571,806.2637329101562,798.6080322265625,793.3699340820312,790.1465454101562
1572,807.87548828125,790.1465454101562,796.996337890625,786.5201416015625
1573,799.8168334960938,792.1611938476562,794.981689453125,782.087890625
1574,800.2197875976562,796.5933837890625,789.3406372070312,786.5201416015625
1575,800.6226806640625,792.1611938476562,792.5640869140625,794.1758422851562
1576,792.1611938476562,794.5787353515625,794.1758422851562,796.996337890625
1577,787.7289428710938,796.1904907226562,795.3846435546875,800.6226806640625
1578,790.5494384765625,790.1465454101562,794.1758422851562,808.2783813476562
