timestamp,RAW_TP9,RAW_AF7,RAW_AF8,RAW_TP10
1,705.1282348632812,818.7545776367188,821.97802734375,713.5897216796875
2,724.8717651367188,822.7838745117188,810.2930297851562,728.901123046875
3,734.945068359375,819.1575317382812,806.6666870117188,738.974365234375
4,745.4212646484375,811.098876953125,804.6520385742188,755.4945068359375
5,758.7179565429688,803.8461303710938,798.2051391601562,766.7765502929688
6,768.3883056640625,796.1904907226562,799.4139404296875,777.2527465820312
7,775.2380981445312,794.981689453125,798.2051391601562,788.5347900390625
8,782.893798828125,801.025634765625,788.5347900390625,794.1758422851562
9,793.3699340820312,803.8461303710938,788.5347900390625,801.025634765625
10,800.2197875976562,801.4285888671875,799.8168334960938,805.054931640625
11,809.4871826171875,788.937744140625,793.7728881835938,803.4432373046875
12,817.5457763671875,776.4468994140625,785.3113403320312,807.4725341796875
13,818.7545776367188,783.6996459960938,788.937744140625,815.1282348632812
14,817.94873046875,790.1465454101562,786.1171875,821.1721801757812
15,817.5457763671875,785.7142944335938,784.1025390625,822.3809814453125
16,821.1721801757812,774.4322509765625,782.893798828125,819.5604248046875
17,827.2161254882812,766.3735961914062,786.5201416015625,829.6337280273438
18,835.2747192382812,780.0732421875,785.3113403320312,836.08056640625
19,838.4981689453125,788.5347900390625,781.6849975585938,834.06591796875
20,834.8717651367188,779.6703491210938,783.2966918945312,835.6776733398438
21,833.6630249023438,777.2527465820312,777.2527465820312,839.3040161132812
22,840.915771484375,780.0732421875,776.0439453125,839.3040161132812
23,846.959716796875,779.2673950195312,779.2673950195312,840.5128173828125
24,840.915771484375,776.4468994140625,777.2527465820312,845.3479614257812
25,834.8717651367188,773.6264038085938,777.6557006835938,850.1831665039062
26,833.6630249023438,771.6116943359375,777.6557006835938,842.5274658203125
27,838.901123046875,771.2088012695312,777.2527465820312,843.7362670898438
28,848.5714111328125,764.7619018554688,780.4761962890625,852.6007080078125
29,846.1538696289062,769.1941528320312,783.6996459960938,843.3333129882812
30,840.915771484375,784.908447265625,783.2966918945312,838.09521484375
31,840.10986328125,792.5640869140625,784.5054931640625,843.7362670898438
32,836.4835205078125,790.5494384765625,782.4908447265625,838.901123046875
33,832.4542236328125,784.5054931640625,778.4615478515625,836.08056640625
34,836.886474609375,767.1795043945312,780.879150390625,834.8717651367188
35,842.5274658203125,767.5823974609375,781.6849975585938,832.05126953125
36,838.09521484375,776.8497924804688,780.4761962890625,832.8571166992188
37,832.8571166992188,779.2673950195312,776.8497924804688,825.2014770507812
38,829.6337280273438,783.2966918945312,772.4176025390625,820.3662719726562
39,832.8571166992188,781.6849975585938,773.2234497070312,821.1721801757812
40,841.7216186523438,781.6849975585938,778.8644409179688,833.2600708007812
41,839.3040161132812,781.6849975585938,784.1025390625,834.4688720703125
42,831.6483764648438,782.4908447265625,788.1318969726562,827.6190185546875
43,828.4249267578125,782.893798828125,794.5787353515625,835.6776733398438
44,829.2307739257812,782.4908447265625,794.981689453125,838.901123046875
45,829.2307739257812,780.4761962890625,790.952392578125,832.4542236328125
46,824.7985229492188,784.5054931640625,786.1171875,829.2307739257812
47,825.2014770507812,785.3113403320312,788.1318969726562,827.6190185546875
48,827.2161254882812,784.908447265625,790.952392578125,822.3809814453125
49,827.2161254882812,787.7289428710938,790.952392578125,815.5311279296875
50,821.97802734375,781.6849975585938,789.3406372070312,812.7106323242188
51,817.5457763671875,775.2380981445312,788.1318969726562,815.93408203125
52,818.3516235351562,779.2673950195312,786.923095703125,815.1282348632812
53,817.94873046875,784.908447265625,785.7142944335938,810.2930297851562
54,821.97802734375,786.1171875,787.3259887695312,806.6666870117188
55,828.8278198242188,781.6849975585938,788.937744140625,816.3369750976562
56,820.7692260742188,784.1025390625,788.5347900390625,808.6813354492188
57,815.93408203125,789.7435913085938,790.5494384765625,801.4285888671875
58,815.93408203125,785.7142944335938,787.3259887695312,802.2344360351562
59,812.3076782226562,781.2820434570312,788.1318969726562,801.4285888671875
60,809.084228515625,786.923095703125,796.1904907226562,808.6813354492188
61,801.8314819335938,790.5494384765625,797.3992919921875,811.5018310546875
62,800.6226806640625,789.7435913085938,791.7582397460938,815.1282348632812
63,805.054931640625,788.1318969726562,786.923095703125,818.7545776367188
64,804.2490844726562,786.923095703125,788.1318969726562,809.89013671875
65,801.4285888671875,787.3259887695312,788.937744140625,805.054931640625
66,800.2197875976562,790.952392578125,788.5347900390625,805.4578857421875
67,799.010986328125,793.7728881835938,788.5347900390625,801.8314819335938
68,801.8314819335938,790.952392578125,790.952392578125,793.7728881835938
69,806.6666870117188,783.6996459960938,791.7582397460938,793.7728881835938
70,807.4725341796875,780.0732421875,791.7582397460938,799.8168334960938
71,801.4285888671875,788.937744140625,791.3552856445312,801.4285888671875
72,797.3992919921875,790.952392578125,790.1465454101562,806.6666870117188
73,798.2051391601562,785.3113403320312,788.937744140625,800.6226806640625
74,799.010986328125,782.087890625,784.1025390625,799.4139404296875
75,797.3992919921875,783.6996459960938,782.4908447265625,802.2344360351562
76,788.937744140625,784.5054931640625,783.2966918945312,791.7582397460938
77,791.3552856445312,783.6996459960938,784.908447265625,788.937744140625
78,796.996337890625,786.5201416015625,786.5201416015625,794.5787353515625
79,797.3992919921875,790.5494384765625,788.937744140625,801.8314819335938
80,804.6520385742188,791.3552856445312,794.1758422851562,803.4432373046875
81,812.3076782226562,792.1611938476562,795.7875366210938,803.4432373046875
82,805.054931640625,792.967041015625,793.7728881835938,800.6226806640625
83,788.937744140625,792.1611938476562,795.3846435546875,791.3552856445312
84,786.5201416015625,787.7289428710938,796.996337890625,787.3259887695312
85,789.7435913085938,785.7142944335938,792.1611938476562,792.5640869140625
86,799.4139404296875,792.5640869140625,796.1904907226562,806.2637329101562
87,804.2490844726562,799.010986328125,801.025634765625,800.6226806640625
88,803.4432373046875,801.025634765625,796.1904907226562,794.1758422851562
89,807.4725341796875,801.025634765625,796.5933837890625,805.054931640625
90,810.6959838867188,798.2051391601562,796.5933837890625,804.2490844726562
91,807.069580078125,790.952392578125,794.5787353515625,799.8168334960938
92,801.8314819335938,789.3406372070312,794.1758422851562,798.6080322265625
93,795.7875366210938,786.5201416015625,795.7875366210938,791.3552856445312
94,795.3846435546875,786.1171875,797.3992919921875,783.2966918945312
95,805.054931640625,796.996337890625,793.7728881835938,786.923095703125
96,802.2344360351562,797.3992919921875,791.3552856445312,786.1171875
97,797.8021850585938,793.3699340820312,791.3552856445312,790.952392578125
98,797.3992919921875,796.5933837890625,790.5494384765625,796.5933837890625
99,797.3992919921875,796.996337890625,793.3699340820312,789.3406372070312
100,799.010986328125,788.5347900390625,799.4139404296875,790.5494384765625
101,803.8461303710938,787.7289428710938,796.1904907226562,791.7582397460938
102,803.040283203125,788.5347900390625,792.5640869140625,794.1758422851562
103,798.6080322265625,790.5494384765625,794.981689453125,799.8168334960938
104,800.6226806640625,798.6080322265625,795.7875366210938,793.3699340820312
105,801.025634765625,792.5640869140625,794.1758422851562,787.7289428710938
106,800.2197875976562,790.952392578125,791.3552856445312,794.1758422851562
107,799.4139404296875,798.6080322265625,788.5347900390625,795.3846435546875
108,794.1758422851562,796.1904907226562,787.7289428710938,795.3846435546875
109,796.5933837890625,787.7289428710938,789.3406372070312,808.2783813476562
110,796.5933837890625,789.7435913085938,792.1611938476562,804.6520385742188
111,794.1758422851562,794.5787353515625,794.1758422851562,795.3846435546875
112,793.3699340820312,787.7289428710938,790.5494384765625,794.981689453125
113,795.7875366210938,788.5347900390625,788.5347900390625,794.1758422851562
114,797.8021850585938,794.5787353515625,790.952392578125,787.7289428710938
115,791.7582397460938,792.1611938476562,795.3846435546875,783.2966918945312
116,792.967041015625,789.3406372070312,794.5787353515625,792.1611938476562
117,792.5640869140625,791.3552856445312,796.1904907226562,795.7875366210938
118,785.3113403320312,784.1025390625,796.1904907226562,791.7582397460938
119,779.6703491210938,783.2966918945312,790.5494384765625,788.937744140625
120,784.1025390625,787.7289428710938,785.3113403320312,790.952392578125
121,788.1318969726562,787.7289428710938,789.3406372070312,786.1171875
122,784.1025390625,789.3406372070312,794.981689453125,778.05859375
123,784.5054931640625,783.2966918945312,793.7728881835938,788.1318969726562
124,785.7142944335938,778.4615478515625,793.7728881835938,790.1465454101562
125,781.2820434570312,788.5347900390625,790.1465454101562,786.1171875
126,779.6703491210938,787.7289428710938,791.3552856445312,787.3259887695312
127,779.2673950195312,780.4761962890625,796.1904907226562,788.937744140625
128,777.6557006835938,784.1025390625,794.5787353515625,791.3552856445312
129,772.8204956054688,790.5494384765625,792.1611938476562,793.7728881835938
130,780.0732421875,788.937744140625,795.3846435546875,797.8021850585938
131,793.3699340820312,782.087890625,796.996337890625,799.8168334960938
132,795.7875366210938,785.7142944335938,794.5787353515625,798.2051391601562
133,798.2051391601562,794.1758422851562,790.1465454101562,794.5787353515625
134,804.2490844726562,797.3992919921875,791.3552856445312,796.1904907226562
135,801.025634765625,791.7582397460938,796.1904907226562,795.3846435546875
136,796.1904907226562,786.1171875,792.967041015625,791.7582397460938
137,806.2637329101562,780.4761962890625,797.3992919921875,803.040283203125
138,813.91943359375,781.2820434570312,799.8168334960938,816.3369750976562
139,799.010986328125,793.7728881835938,794.5787353515625,800.2197875976562
140,790.5494384765625,801.4285888671875,793.3699340820312,783.2966918945312
141,790.5494384765625,798.2051391601562,793.3699340820312,784.5054931640625
142,785.7142944335938,791.7582397460938,791.7582397460938,784.908447265625
143,786.923095703125,788.5347900390625,785.3113403320312,783.2966918945312
144,790.1465454101562,791.7582397460938,784.1025390625,784.908447265625
145,784.1025390625,792.5640869140625,789.7435913085938,779.6703491210938
146,780.879150390625,790.1465454101562,794.981689453125,782.893798828125
147,781.6849975585938,794.1758422851562,790.1465454101562,793.3699340820312
148,782.893798828125,798.6080322265625,791.7582397460938,792.967041015625
149,786.1171875,792.967041015625,791.7582397460938,791.7582397460938
150,785.3113403320312,793.7728881835938,791.7582397460938,786.1171875
151,787.7289428710938,796.5933837890625,796.996337890625,780.0732421875
152,791.3552856445312,796.996337890625,794.981689453125,783.2966918945312
153,785.3113403320312,800.2197875976562,787.3259887695312,779.6703491210938
154,783.2966918945312,794.5787353515625,792.1611938476562,776.4468994140625
155,796.1904907226562,794.981689453125,799.4139404296875,791.3552856445312
156,794.981689453125,797.3992919921875,797.8021850585938,793.3699340820312
157,790.952392578125,796.1904907226562,794.5787353515625,786.923095703125
158,789.7435913085938,788.1318969726562,788.5347900390625,782.893798828125
159,786.1171875,786.1171875,788.5347900390625,790.1465454101562
160,782.087890625,792.5640869140625,789.3406372070312,790.1465454101562
161,780.879150390625,793.3699340820312,788.937744140625,780.0732421875
162,784.1025390625,794.1758422851562,792.967041015625,787.3259887695312
163,785.7142944335938,789.7435913085938,792.5640869140625,789.3406372070312
164,785.3113403320312,786.1171875,790.1465454101562,781.6849975585938
165,785.3113403320312,794.5787353515625,788.1318969726562,780.4761962890625
166,783.2966918945312,792.5640869140625,783.6996459960938,779.2673950195312
167,786.5201416015625,787.7289428710938,788.937744140625,782.4908447265625
168,786.1171875,788.1318969726562,794.5787353515625,788.937744140625
169,779.2673950195312,786.5201416015625,789.7435913085938,784.5054931640625
170,781.2820434570312,791.7582397460938,782.087890625,787.3259887695312
171,788.937744140625,792.967041015625,789.3406372070312,794.5787353515625
172,788.937744140625,788.937744140625,795.3846435546875,789.7435913085938
173,788.5347900390625,793.3699340820312,792.1611938476562,788.5347900390625
174,784.1025390625,798.6080322265625,794.5787353515625,790.1465454101562
175,781.6849975585938,798.6080322265625,792.1611938476562,786.923095703125
176,784.908447265625,792.5640869140625,789.7435913085938,787.7289428710938
177,789.3406372070312,790.5494384765625,792.967041015625,790.5494384765625
178,788.937744140625,795.3846435546875,797.8021850585938,791.7582397460938
179,782.087890625,801.4285888671875,794.981689453125,790.952392578125
180,783.6996459960938,797.8021850585938,795.7875366210938,790.5494384765625
181,790.1465454101562,786.1171875,797.8021850585938,789.7435913085938
182,782.893798828125,785.7142944335938,787.3259887695312,788.5347900390625
183,774.4322509765625,788.937744140625,789.7435913085938,785.3113403320312
184,774.029296875,788.937744140625,794.5787353515625,781.6849975585938
185,778.4615478515625,786.1171875,792.1611938476562,784.1025390625
186,778.05859375,783.6996459960938,791.3552856445312,781.6849975585938
187,776.0439453125,790.952392578125,796.5933837890625,782.893798828125
188,781.2820434570312,793.3699340820312,796.996337890625,789.7435913085938
189,781.6849975585938,788.1318969726562,794.5787353515625,792.1611938476562
190,782.087890625,787.7289428710938,799.010986328125,789.3406372070312
191,782.893798828125,788.937744140625,802.2344360351562,786.1171875
192,782.4908447265625,785.7142944335938,794.5787353515625,779.2673950195312
193,784.1025390625,789.3406372070312,796.996337890625,783.2966918945312
194,782.4908447265625,792.5640869140625,800.6226806640625,780.0732421875
195,778.05859375,793.7728881835938,793.7728881835938,771.2088012695312
196,782.087890625,798.6080322265625,792.1611938476562,774.4322509765625
197,785.3113403320312,797.3992919921875,792.5640869140625,783.6996459960938
198,778.05859375,792.5640869140625,791.7582397460938,781.6849975585938
199,777.6557006835938,792.967041015625,792.1611938476562,778.05859375
200,779.6703491210938,790.1465454101562,793.3699340820312,782.4908447265625
201,780.879150390625,791.7582397460938,794.1758422851562,787.7289428710938
202,784.1025390625,794.981689453125,795.3846435546875,791.7582397460938
203,784.908447265625,786.923095703125,795.7875366210938,789.3406372070312
204,792.5640869140625,781.6849975585938,798.2051391601562,790.1465454101562
205,796.996337890625,784.5054931640625,798.6080322265625,799.4139404296875
206,789.7435913085938,795.7875366210938,798.2051391601562,789.3406372070312
207,790.1465454101562,806.6666870117188,797.3992919921875,784.5054931640625
208,792.967041015625,804.2490844726562,795.3846435546875,794.981689453125
209,788.937744140625,797.3992919921875,799.8168334960938,798.2051391601562
210,789.3406372070312,796.1904907226562,799.8168334960938,796.1904907226562
211,788.937744140625,799.8168334960938,797.8021850585938,799.010986328125
212,787.3259887695312,796.996337890625,793.7728881835938,799.010986328125
213,792.5640869140625,794.981689453125,793.3699340820312,794.5787353515625
214,794.5787353515625,792.5640869140625,798.2051391601562,796.1904907226562
215,790.5494384765625,786.923095703125,797.3992919921875,796.5933837890625
216,794.5787353515625,790.952392578125,797.3992919921875,794.981689453125
217,797.8021850585938,787.7289428710938,797.3992919921875,799.4139404296875
218,790.5494384765625,786.5201416015625,797.8021850585938,792.5640869140625
219,786.923095703125,793.7728881835938,794.1758422851562,786.5201416015625
220,791.3552856445312,799.4139404296875,791.7582397460938,789.7435913085938
221,790.5494384765625,801.025634765625,792.967041015625,787.7289428710938
222,794.5787353515625,798.2051391601562,793.3699340820312,791.7582397460938
223,799.8168334960938,795.3846435546875,787.3259887695312,797.8021850585938
224,796.996337890625,793.7728881835938,787.7289428710938,792.5640869140625
225,796.1904907226562,792.967041015625,791.7582397460938,792.5640869140625
226,793.7728881835938,792.1611938476562,788.937744140625,801.8314819335938
227,796.1904907226562,796.996337890625,792.1611938476562,805.4578857421875
228,805.054931640625,795.3846435546875,790.5494384765625,805.4578857421875
229,805.4578857421875,792.5640869140625,786.923095703125,803.4432373046875
230,801.025634765625,792.967041015625,792.1611938476562,789.3406372070312
231,800.2197875976562,792.5640869140625,791.7582397460938,791.3552856445312
232,792.5640869140625,790.5494384765625,791.7582397460938,796.996337890625
233,789.7435913085938,790.952392578125,793.3699340820312,792.1611938476562
234,790.952392578125,789.7435913085938,790.1465454101562,791.7582397460938
235,786.1171875,788.5347900390625,787.7289428710938,792.967041015625
236,784.1025390625,788.1318969726562,791.7582397460938,792.5640869140625
237,791.3552856445312,786.923095703125,793.3699340820312,791.7582397460938
238,792.967041015625,790.952392578125,792.967041015625,793.7728881835938
239,791.7582397460938,792.5640869140625,792.5640869140625,796.996337890625
240,794.5787353515625,794.981689453125,792.5640869140625,802.2344360351562
241,791.7582397460938,801.4285888671875,791.3552856445312,794.1758422851562
242,790.1465454101562,801.025634765625,790.5494384765625,786.5201416015625
243,794.5787353515625,792.5640869140625,792.967041015625,794.5787353515625
244,798.2051391601562,783.6996459960938,787.7289428710938,790.1465454101562
245,801.8314819335938,791.7582397460938,782.4908447265625,787.3259887695312
246,803.8461303710938,792.967041015625,788.1318969726562,794.1758422851562
247,801.8314819335938,790.952392578125,793.3699340820312,799.4139404296875
248,801.025634765625,794.981689453125,790.952392578125,800.2197875976562
249,795.7875366210938,792.5640869140625,792.1611938476562,794.981689453125
250,792.5640869140625,786.5201416015625,794.1758422851562,793.3699340820312
251,796.1904907226562,786.5201416015625,794.5787353515625,794.981689453125
252,797.3992919921875,789.7435913085938,796.1904907226562,794.981689453125
253,801.025634765625,791.3552856445312,794.981689453125,797.3992919921875
254,799.010986328125,788.1318969726562,788.1318969726562,796.996337890625
255,794.981689453125,788.5347900390625,788.937744140625,801.025634765625
256,793.3699340820312,791.3552856445312,794.5787353515625,801.8314819335938
257,794.981689453125,790.1465454101562,793.3699340820312,797.8021850585938
258,794.981689453125,793.3699340820312,790.952392578125,794.981689453125
259,792.5640869140625,788.937744140625,789.7435913085938,795.7875366210938
260,788.937744140625,783.2966918945312,789.3406372070312,802.6373901367188
261,782.4908447265625,791.7582397460938,790.5494384765625,801.4285888671875
262,782.893798828125,796.5933837890625,788.937744140625,799.8168334960938
263,789.3406372070312,797.3992919921875,787.7289428710938,804.2490844726562
264,791.7582397460938,798.6080322265625,790.1465454101562,804.6520385742188
265,792.967041015625,794.981689453125,797.3992919921875,803.040283203125
266,798.6080322265625,790.5494384765625,797.3992919921875,807.87548828125
267,799.8168334960938,796.5933837890625,790.952392578125,810.2930297851562
268,791.7582397460938,796.996337890625,794.5787353515625,797.8021850585938
269,792.967041015625,791.7582397460938,795.7875366210938,794.1758422851562
270,801.4285888671875,796.996337890625,792.967041015625,788.937744140625
271,800.2197875976562,800.2197875976562,793.3699340820312,785.7142944335938
272,788.5347900390625,799.010986328125,794.5787353515625,790.952392578125
273,784.908447265625,799.4139404296875,795.3846435546875,790.1465454101562
274,787.7289428710938,794.5787353515625,797.3992919921875,788.5347900390625
275,794.981689453125,788.5347900390625,800.2197875976562,790.952392578125
276,791.3552856445312,792.5640869140625,801.4285888671875,792.967041015625
277,791.3552856445312,798.2051391601562,797.3992919921875,797.8021850585938
278,795.3846435546875,793.7728881835938,794.981689453125,807.069580078125
279,795.7875366210938,791.3552856445312,799.4139404296875,801.4285888671875
280,801.4285888671875,799.4139404296875,801.025634765625,796.996337890625
281,798.2051391601562,797.3992919921875,797.3992919921875,799.8168334960938
282,792.5640869140625,790.952392578125,798.2051391601562,797.3992919921875
283,794.5787353515625,791.3552856445312,801.8314819335938,790.5494384765625
284,791.7582397460938,785.7142944335938,798.2051391601562,788.1318969726562
285,792.967041015625,789.3406372070312,796.996337890625,796.5933837890625
286,794.1758422851562,799.8168334960938,799.4139404296875,797.8021850585938
287,794.981689453125,798.6080322265625,799.8168334960938,793.7728881835938
288,804.2490844726562,794.981689453125,801.8314819335938,796.1904907226562
289,807.4725341796875,788.937744140625,798.6080322265625,799.010986328125
290,802.2344360351562,788.5347900390625,794.5787353515625,788.937744140625
291,800.2197875976562,797.8021850585938,796.1904907226562,787.7289428710938
292,797.3992919921875,797.3992919921875,795.7875366210938,794.1758422851562
293,794.5787353515625,789.7435913085938,792.1611938476562,787.3259887695312
294,792.5640869140625,791.7582397460938,794.5787353515625,783.6996459960938
295,793.7728881835938,791.3552856445312,798.2051391601562,789.3406372070312
296,790.5494384765625,786.923095703125,793.7728881835938,792.967041015625
297,785.3113403320312,788.937744140625,790.1465454101562,792.5640869140625
298,788.1318969726562,788.1318969726562,793.3699340820312,794.981689453125
299,787.7289428710938,791.7582397460938,794.1758422851562,794.5787353515625
300,787.3259887695312,797.8021850585938,792.967041015625,792.967041015625
301,790.952392578125,785.3113403320312,790.5494384765625,797.8021850585938
302,792.1611938476562,790.5494384765625,793.7728881835938,791.3552856445312
303,791.3552856445312,796.5933837890625,794.981689453125,787.3259887695312
304,798.2051391601562,792.1611938476562,792.967041015625,793.7728881835938
305,799.4139404296875,793.7728881835938,795.3846435546875,789.3406372070312
306,790.5494384765625,790.1465454101562,795.7875366210938,793.3699340820312
307,784.1025390625,786.1171875,791.3552856445312,797.8021850585938
308,789.3406372070312,783.6996459960938,796.5933837890625,795.7875366210938
309,788.1318969726562,782.087890625,800.2197875976562,796.1904907226562
310,784.5054931640625,785.3113403320312,793.3699340820312,792.1611938476562
311,786.1171875,783.2966918945312,792.1611938476562,784.908447265625
312,792.1611938476562,782.087890625,794.981689453125,790.5494384765625
313,791.7582397460938,788.5347900390625,794.5787353515625,792.1611938476562
314,789.7435913085938,793.3699340820312,793.3699340820312,782.893798828125
315,796.996337890625,794.981689453125,793.7728881835938,784.908447265625
316,793.7728881835938,786.5201416015625,795.7875366210938,786.923095703125
317,788.937744140625,784.5054931640625,795.7875366210938,784.1025390625
318,794.5787353515625,792.5640869140625,795.7875366210938,789.3406372070312
319,788.1318969726562,795.3846435546875,796.5933837890625,791.3552856445312
320,784.908447265625,795.7875366210938,796.1904907226562,788.5347900390625
321,793.3699340820312,795.7875366210938,798.2051391601562,789.3406372070312
322,794.981689453125,792.1611938476562,796.996337890625,793.3699340820312
323,792.967041015625,789.3406372070312,792.967041015625,792.967041015625
324,793.3699340820312,792.967041015625,793.7728881835938,804.6520385742188
325,790.5494384765625,794.981689453125,796.996337890625,802.2344360351562
326,787.7289428710938,798.6080322265625,798.6080322265625,788.5347900390625
327,788.1318969726562,798.6080322265625,801.025634765625,792.1611938476562
328,783.6996459960938,796.5933837890625,797.8021850585938,790.952392578125
329,785.3113403320312,793.3699340820312,794.1758422851562,787.7289428710938
330,787.3259887695312,788.937744140625,794.1758422851562,793.7728881835938
331,786.1171875,788.5347900390625,787.3259887695312,789.3406372070312
332,786.5201416015625,788.1318969726562,787.3259887695312,785.3113403320312
333,792.5640869140625,788.1318969726562,792.5640869140625,790.5494384765625
334,790.1465454101562,786.923095703125,791.7582397460938,790.952392578125
335,787.3259887695312,792.967041015625,787.3259887695312,788.5347900390625
336,788.5347900390625,794.981689453125,790.1465454101562,792.5640869140625
337,789.3406372070312,796.1904907226562,795.3846435546875,793.7728881835938
338,788.5347900390625,797.3992919921875,794.5787353515625,790.5494384765625
339,786.1171875,792.967041015625,788.1318969726562,797.3992919921875
340,783.6996459960938,795.7875366210938,787.3259887695312,794.5787353515625
341,787.3259887695312,799.8168334960938,788.1318969726562,781.6849975585938
342,791.7582397460938,795.3846435546875,787.3259887695312,782.4908447265625
343,790.5494384765625,793.7728881835938,792.1611938476562,788.5347900390625
344,784.908447265625,794.981689453125,793.3699340820312,789.7435913085938
345,792.967041015625,796.1904907226562,793.3699340820312,801.025634765625
346,805.054931640625,794.981689453125,790.952392578125,811.098876953125
347,795.7875366210938,794.1758422851562,792.1611938476562,797.3992919921875
348,789.3406372070312,796.996337890625,796.5933837890625,785.3113403320312
349,791.3552856445312,792.5640869140625,793.7728881835938,784.5054931640625
350,785.3113403320312,784.908447265625,798.2051391601562,787.7289428710938
351,793.3699340820312,787.7289428710938,799.4139404296875,798.2051391601562
352,793.7728881835938,794.1758422851562,797.3992919921875,801.025634765625
353,795.7875366210938,794.5787353515625,799.8168334960938,797.3992919921875
354,799.4139404296875,793.7728881835938,796.996337890625,793.3699340820312
355,796.1904907226562,795.7875366210938,798.6080322265625,792.5640869140625
356,794.981689453125,795.7875366210938,803.8461303710938,789.3406372070312
357,794.5787353515625,790.952392578125,802.2344360351562,788.937744140625
358,797.3992919921875,793.3699340820312,798.2051391601562,793.7728881835938
359,792.5640869140625,794.1758422851562,793.7728881835938,793.3699340820312
360,790.952392578125,791.3552856445312,792.967041015625,792.967041015625
361,790.952392578125,787.7289428710938,794.1758422851562,793.3699340820312
362,788.1318969726562,788.937744140625,792.967041015625,799.010986328125
363,788.1318969726562,798.2051391601562,796.5933837890625,800.6226806640625
364,790.1465454101562,799.010986328125,800.6226806640625,786.923095703125
365,795.3846435546875,791.3552856445312,797.8021850585938,786.5201416015625
366,794.5787353515625,791.3552856445312,796.996337890625,795.3846435546875
367,790.952392578125,794.1758422851562,800.6226806640625,795.7875366210938
368,786.5201416015625,788.5347900390625,802.2344360351562,796.1904907226562
369,782.893798828125,784.1025390625,794.981689453125,792.5640869140625
370,788.937744140625,788.1318969726562,793.7728881835938,793.3699340820312
371,793.7728881835938,792.1611938476562,798.2051391601562,792.5640869140625
372,799.4139404296875,794.5787353515625,800.6226806640625,794.1758422851562
373,804.6520385742188,790.1465454101562,798.2051391601562,800.2197875976562
374,799.8168334960938,780.879150390625,792.967041015625,801.8314819335938
375,799.8168334960938,786.923095703125,793.7728881835938,795.7875366210938
376,804.6520385742188,797.3992919921875,793.7728881835938,794.981689453125
377,799.8168334960938,795.3846435546875,793.3699340820312,796.1904907226562
378,794.981689453125,793.7728881835938,797.3992919921875,793.7728881835938
379,796.5933837890625,794.1758422851562,796.5933837890625,796.1904907226562
380,795.7875366210938,786.923095703125,790.1465454101562,798.2051391601562
381,795.3846435546875,783.2966918945312,792.1611938476562,798.6080322265625
382,800.2197875976562,788.5347900390625,794.5787353515625,798.2051391601562
383,801.025634765625,790.1465454101562,788.1318969726562,795.7875366210938
384,796.5933837890625,787.7289428710938,787.3259887695312,794.5787353515625
385,792.967041015625,784.908447265625,790.5494384765625,794.5787353515625
386,786.923095703125,786.5201416015625,792.1611938476562,791.3552856445312
387,788.5347900390625,790.952392578125,791.3552856445312,786.923095703125
388,794.1758422851562,791.7582397460938,791.3552856445312,786.5201416015625
389,789.7435913085938,796.996337890625,795.3846435546875,792.1611938476562
390,788.937744140625,801.8314819335938,796.996337890625,798.6080322265625
391,792.1611938476562,797.3992919921875,798.6080322265625,799.8168334960938
392,791.7582397460938,792.5640869140625,798.6080322265625,796.1904907226562
393,795.3846435546875,790.1465454101562,797.3992919921875,792.5640869140625
394,796.996337890625,791.3552856445312,796.5933837890625,789.7435913085938
395,791.3552856445312,789.7435913085938,793.3699340820312,790.5494384765625
396,790.1465454101562,788.1318969726562,792.967041015625,792.5640869140625
397,795.3846435546875,789.3406372070312,793.7728881835938,794.1758422851562
398,792.967041015625,790.1465454101562,799.8168334960938,786.923095703125
399,794.5787353515625,799.010986328125,803.8461303710938,790.952392578125
400,797.3992919921875,794.1758422851562,800.2197875976562,798.6080322265625
401,796.5933837890625,784.5054931640625,797.3992919921875,791.3552856445312
402,790.5494384765625,794.1758422851562,798.6080322265625,792.1611938476562
403,788.1318969726562,796.1904907226562,799.4139404296875,793.7728881835938
404,792.967041015625,790.1465454101562,793.7728881835938,786.1171875
405,794.1758422851562,793.3699340820312,796.996337890625,783.2966918945312
406,790.5494384765625,796.5933837890625,796.1904907226562,786.923095703125
407,788.937744140625,789.3406372070312,796.996337890625,791.7582397460938
408,793.3699340820312,783.2966918945312,799.8168334960938,800.6226806640625
409,785.3113403320312,792.967041015625,798.2051391601562,796.996337890625
410,784.908447265625,798.6080322265625,796.996337890625,793.7728881835938
411,794.981689453125,801.025634765625,794.5787353515625,799.8168334960938
412,786.923095703125,800.6226806640625,795.7875366210938,795.3846435546875
413,787.3259887695312,798.2051391601562,797.3992919921875,790.952392578125
414,796.996337890625,798.6080322265625,799.010986328125,791.3552856445312
415,797.8021850585938,796.996337890625,798.2051391601562,789.7435913085938
416,799.010986328125,795.3846435546875,794.5787353515625,797.3992919921875
417,797.3992919921875,794.981689453125,793.3699340820312,793.7728881835938
418,797.8021850585938,796.1904907226562,796.1904907226562,793.7728881835938
419,801.8314819335938,791.7582397460938,797.3992919921875,802.2344360351562
420,804.6520385742188,796.996337890625,799.8168334960938,803.4432373046875
421,801.4285888671875,805.4578857421875,797.8021850585938,796.996337890625
422,799.4139404296875,804.2490844726562,796.996337890625,791.7582397460938
423,801.4285888671875,800.2197875976562,796.1904907226562,788.5347900390625
424,802.2344360351562,794.981689453125,794.1758422851562,793.3699340820312
425,797.8021850585938,794.981689453125,792.967041015625,790.5494384765625
426,796.996337890625,794.981689453125,794.5787353515625,784.5054931640625
427,794.1758422851562,799.010986328125,799.8168334960938,792.967041015625
428,795.7875366210938,798.2051391601562,803.8461303710938,801.025634765625
429,802.6373901367188,798.2051391601562,802.2344360351562,796.996337890625
430,796.996337890625,801.8314819335938,801.025634765625,794.1758422851562
431,796.996337890625,799.4139404296875,802.6373901367188,797.8021850585938
432,803.8461303710938,796.996337890625,800.6226806640625,798.2051391601562
433,794.981689453125,792.967041015625,798.2051391601562,790.5494384765625
434,786.923095703125,792.967041015625,797.8021850585938,788.1318969726562
435,792.5640869140625,792.967041015625,798.6080322265625,803.4432373046875
436,791.7582397460938,790.1465454101562,799.8168334960938,802.2344360351562
437,782.893798828125,791.7582397460938,801.4285888671875,792.5640869140625
438,784.908447265625,793.7728881835938,801.8314819335938,802.2344360351562
439,784.908447265625,796.996337890625,799.8168334960938,799.8168334960938
440,783.2966918945312,793.3699340820312,800.6226806640625,797.8021850585938
441,781.6849975585938,789.7435913085938,797.3992919921875,798.2051391601562
442,779.2673950195312,790.1465454101562,793.7728881835938,789.3406372070312
443,780.4761962890625,791.7582397460938,797.8021850585938,792.5640869140625
444,782.4908447265625,792.1611938476562,798.2051391601562,794.981689453125
445,780.4761962890625,786.5201416015625,802.2344360351562,792.5640869140625
446,778.05859375,786.923095703125,804.6520385742188,792.5640869140625
447,783.2966918945312,789.3406372070312,802.2344360351562,792.1611938476562
448,785.7142944335938,788.5347900390625,799.010986328125,782.4908447265625
449,784.908447265625,791.7582397460938,796.996337890625,780.879150390625
450,788.937744140625,792.5640869140625,795.7875366210938,790.1465454101562
451,794.1758422851562,788.5347900390625,796.996337890625,790.5494384765625
452,794.981689453125,789.3406372070312,795.3846435546875,792.5640869140625
453,790.5494384765625,788.937744140625,789.3406372070312,792.5640869140625
454,789.3406372070312,783.6996459960938,790.952392578125,792.967041015625
455,788.1318969726562,781.2820434570312,792.1611938476562,803.040283203125
456,787.7289428710938,782.893798828125,793.3699340820312,809.4871826171875
457,788.1318969726562,790.5494384765625,792.1611938476562,801.025634765625
458,792.1611938476562,792.1611938476562,788.5347900390625,807.4725341796875
459,796.1904907226562,792.5640869140625,793.3699340820312,815.5311279296875
460,793.3699340820312,796.1904907226562,797.3992919921875,800.2197875976562
461,791.7582397460938,797.3992919921875,788.1318969726562,791.7582397460938
462,799.010986328125,791.3552856445312,790.952392578125,791.7582397460938
463,803.040283203125,782.893798828125,794.1758422851562,791.3552856445312
464,803.8461303710938,782.4908447265625,792.1611938476562,791.3552856445312
465,799.010986328125,792.1611938476562,793.3699340820312,790.5494384765625
466,788.5347900390625,797.8021850585938,789.7435913085938,793.3699340820312
467,786.1171875,794.1758422851562,788.937744140625,790.1465454101562
468,787.7289428710938,793.3699340820312,790.1465454101562,784.1025390625
469,790.952392578125,790.1465454101562,786.5201416015625,792.1611938476562
470,793.7728881835938,784.908447265625,783.2966918945312,799.010986328125
471,787.7289428710938,789.3406372070312,788.5347900390625,792.5640869140625
472,785.7142944335938,790.1465454101562,785.7142944335938,785.7142944335938
473,791.3552856445312,788.937744140625,786.5201416015625,788.5347900390625
474,796.996337890625,794.5787353515625,792.967041015625,791.7582397460938
475,795.3846435546875,796.5933837890625,792.967041015625,789.3406372070312
476,797.8021850585938,792.1611938476562,795.7875366210938,788.1318969726562
477,802.6373901367188,791.3552856445312,799.010986328125,794.981689453125
478,794.1758422851562,794.5787353515625,794.981689453125,796.996337890625
479,784.908447265625,790.952392578125,790.5494384765625,790.1465454101562
480,784.908447265625,788.937744140625,794.5787353515625,790.952392578125
481,787.7289428710938,788.1318969726562,797.3992919921875,794.5787353515625
482,784.1025390625,789.7435913085938,796.5933837890625,796.5933837890625
483,783.6996459960938,794.981689453125,801.8314819335938,795.3846435546875
484,786.923095703125,792.5640869140625,799.4139404296875,792.967041015625
485,789.3406372070312,788.937744140625,796.1904907226562,792.967041015625
486,792.967041015625,786.923095703125,799.010986328125,796.1904907226562
487,792.5640869140625,790.952392578125,800.6226806640625,801.025634765625
488,786.923095703125,793.3699340820312,798.6080322265625,797.3992919921875
489,782.893798828125,794.1758422851562,796.5933837890625,789.7435913085938
490,786.923095703125,792.967041015625,794.981689453125,787.3259887695312
491,792.1611938476562,790.1465454101562,796.996337890625,787.7289428710938
492,793.3699340820312,788.1318969726562,796.996337890625,787.7289428710938
493,789.7435913085938,786.1171875,792.967041015625,793.3699340820312
494,788.937744140625,790.1465454101562,796.1904907226562,796.1904907226562
495,792.967041015625,792.1611938476562,797.3992919921875,791.3552856445312
496,790.5494384765625,787.3259887695312,796.5933837890625,789.7435913085938
497,785.7142944335938,788.1318969726562,793.3699340820312,782.893798828125
498,784.908447265625,791.7582397460938,790.5494384765625,780.0732421875
499,788.1318969726562,793.7728881835938,788.5347900390625,782.4908447265625
500,787.7289428710938,789.3406372070312,790.952392578125,784.5054931640625
501,788.1318969726562,789.7435913085938,792.5640869140625,786.5201416015625
502,790.5494384765625,798.6080322265625,790.1465454101562,788.1318969726562
503,792.5640869140625,795.3846435546875,794.5787353515625,792.1611938476562
504,799.010986328125,787.7289428710938,794.981689453125,803.4432373046875
505,789.3406372070312,790.952392578125,791.7582397460938,797.3992919921875
506,780.4761962890625,792.5640869140625,795.3846435546875,784.5054931640625
507,782.4908447265625,790.1465454101562,792.1611938476562,793.3699340820312
508,782.4908447265625,787.7289428710938,790.1465454101562,802.6373901367188
509,778.4615478515625,789.7435913085938,794.1758422851562,803.040283203125
510,780.0732421875,784.908447265625,789.7435913085938,805.4578857421875
511,788.5347900390625,782.893798828125,784.5054931640625,795.3846435546875
512,788.937744140625,785.3113403320312,786.1171875,786.5201416015625
513,788.5347900390625,781.2820434570312,792.1611938476562,790.5494384765625
514,794.1758422851562,780.4761962890625,786.1171875,788.5347900390625
515,797.3992919921875,787.3259887695312,782.087890625,789.7435913085938
516,790.952392578125,796.1904907226562,786.923095703125,790.1465454101562
517,788.5347900390625,792.967041015625,787.7289428710938,784.5054931640625
518,789.7435913085938,789.3406372070312,779.6703491210938,780.0732421875
519,786.1171875,787.7289428710938,783.6996459960938,777.6557006835938
520,785.3113403320312,784.5054931640625,790.952392578125,785.3113403320312
521,786.923095703125,788.937744140625,790.5494384765625,790.1465454101562
522,793.3699340820312,792.967041015625,790.5494384765625,796.1904907226562
523,799.8168334960938,786.5201416015625,788.5347900390625,798.2051391601562
524,796.1904907226562,792.5640869140625,788.1318969726562,792.5640869140625
525,794.5787353515625,803.040283203125,789.3406372070312,793.7728881835938
526,794.981689453125,797.3992919921875,785.7142944335938,796.5933837890625
527,794.981689453125,793.7728881835938,786.5201416015625,793.3699340820312
528,793.3699340820312,793.7728881835938,785.3113403320312,792.967041015625
529,793.3699340820312,799.8168334960938,783.2966918945312,797.8021850585938
530,796.1904907226562,799.4139404296875,792.5640869140625,799.010986328125
531,805.4578857421875,793.7728881835938,794.5787353515625,803.8461303710938
532,813.5164794921875,803.4432373046875,792.967041015625,805.8607788085938
533,811.098876953125,805.8607788085938,796.5933837890625,804.6520385742188
534,801.8314819335938,794.5787353515625,795.7875366210938,804.2490844726562
535,801.025634765625,796.1904907226562,794.5787353515625,797.3992919921875
536,797.8021850585938,798.6080322265625,791.3552856445312,789.7435913085938
537,792.1611938476562,790.5494384765625,787.7289428710938,790.5494384765625
538,792.1611938476562,785.3113403320312,787.3259887695312,790.952392578125
539,790.5494384765625,790.952392578125,790.5494384765625,788.937744140625
540,790.1465454101562,792.967041015625,794.1758422851562,788.5347900390625
541,787.3259887695312,788.5347900390625,794.981689453125,784.5054931640625
542,784.1025390625,786.5201416015625,792.1611938476562,786.5201416015625
543,783.2966918945312,780.4761962890625,790.5494384765625,795.7875366210938
544,787.7289428710938,782.087890625,794.981689453125,792.5640869140625
545,788.1318969726562,790.1465454101562,796.1904907226562,786.923095703125
546,786.923095703125,790.1465454101562,796.5933837890625,784.908447265625
547,786.5201416015625,782.893798828125,794.1758422851562,787.7289428710938
548,787.3259887695312,784.908447265625,790.5494384765625,796.1904907226562
549,790.1465454101562,795.3846435546875,793.3699340820312,799.8168334960938
550,793.7728881835938,794.1758422851562,794.981689453125,799.4139404296875
551,801.4285888671875,785.3113403320312,792.967041015625,798.2051391601562
552,807.87548828125,784.908447265625,794.5787353515625,798.6080322265625
553,806.2637329101562,788.5347900390625,793.3699340820312,801.8314819335938
554,804.6520385742188,787.3259887695312,794.5787353515625,811.098876953125
555,797.8021850585938,788.5347900390625,796.1904907226562,807.4725341796875
556,794.5787353515625,787.7289428710938,796.1904907226562,795.7875366210938
557,792.5640869140625,786.1171875,794.1758422851562,795.7875366210938
558,788.937744140625,792.5640869140625,793.3699340820312,800.2197875976562
559,788.5347900390625,796.1904907226562,793.3699340820312,797.8021850585938
560,788.1318969726562,795.3846435546875,793.7728881835938,797.8021850585938
561,786.923095703125,789.7435913085938,795.7875366210938,798.6080322265625
562,790.5494384765625,791.7582397460938,791.3552856445312,790.952392578125
563,795.3846435546875,796.5933837890625,791.3552856445312,791.3552856445312
564,795.3846435546875,799.010986328125,796.996337890625,795.7875366210938
565,794.981689453125,798.6080322265625,790.952392578125,797.8021850585938
566,798.6080322265625,796.996337890625,784.1025390625,798.6080322265625
567,792.967041015625,795.7875366210938,788.5347900390625,785.3113403320312
568,787.3259887695312,794.1758422851562,788.937744140625,771.6116943359375
569,787.7289428710938,790.5494384765625,788.1318969726562,775.6410522460938
570,787.7289428710938,791.7582397460938,788.5347900390625,784.908447265625
571,792.967041015625,793.7728881835938,789.7435913085938,795.7875366210938
572,798.2051391601562,788.5347900390625,792.1611938476562,800.2197875976562
573,796.1904907226562,784.5054931640625,792.5640869140625,799.4139404296875
574,795.3846435546875,792.5640869140625,792.5640869140625,799.4139404296875
575,799.8168334960938,793.3699340820312,789.7435913085938,797.8021850585938
576,797.8021850585938,791.7582397460938,789.3406372070312,796.996337890625
577,789.3406372070312,795.3846435546875,790.952392578125,803.4432373046875
578,784.5054931640625,791.7582397460938,793.7728881835938,799.8168334960938
579,780.879150390625,791.3552856445312,796.1904907226562,788.1318969726562
580,777.2527465820312,791.7582397460938,795.7875366210938,784.1025390625
581,784.1025390625,791.3552856445312,798.6080322265625,784.5054931640625
582,789.3406372070312,791.3552856445312,801.025634765625,786.923095703125
583,783.6996459960938,788.5347900390625,799.8168334960938,791.3552856445312
584,782.893798828125,789.3406372070312,801.4285888671875,792.1611938476562
585,788.1318969726562,784.5054931640625,801.4285888671875,792.5640869140625
586,788.5347900390625,778.8644409179688,800.6226806640625,792.5640869140625
587,790.5494384765625,784.1025390625,799.4139404296875,788.5347900390625
588,793.7728881835938,790.1465454101562,797.3992919921875,787.7289428710938
589,791.7582397460938,796.5933837890625,796.996337890625,790.1465454101562
590,788.1318969726562,798.6080322265625,797.3992919921875,787.3259887695312
591,788.5347900390625,796.5933837890625,796.996337890625,786.923095703125
592,790.1465454101562,797.8021850585938,794.981689453125,791.7582397460938
593,791.7582397460938,796.1904907226562,789.3406372070312,791.3552856445312
594,790.952392578125,792.967041015625,788.937744140625,789.3406372070312
595,792.967041015625,796.996337890625,797.3992919921875,794.981689453125
596,799.010986328125,798.6080322265625,799.010986328125,796.1904907226562
597,801.4285888671875,794.5787353515625,791.3552856445312,798.6080322265625
598,798.2051391601562,795.7875366210938,789.7435913085938,794.981689453125
599,803.4432373046875,797.3992919921875,792.967041015625,792.1611938476562
600,810.2930297851562,793.7728881835938,794.1758422851562,803.4432373046875
601,804.6520385742188,790.5494384765625,794.1758422851562,803.8461303710938
602,805.054931640625,788.5347900390625,796.5933837890625,801.4285888671875
603,805.4578857421875,791.7582397460938,803.040283203125,803.4432373046875
604,800.2197875976562,792.967041015625,802.2344360351562,797.3992919921875
605,798.2051391601562,792.967041015625,801.8314819335938,802.6373901367188
606,794.1758422851562,792.5640869140625,799.010986328125,803.040283203125
607,792.967041015625,789.7435913085938,795.3846435546875,798.2051391601562
608,794.5787353515625,792.5640869140625,794.5787353515625,804.2490844726562
609,794.1758422851562,787.7289428710938,791.7582397460938,800.2197875976562
610,792.1611938476562,784.5054931640625,789.7435913085938,790.5494384765625
611,787.7289428710938,786.923095703125,788.1318969726562,786.5201416015625
612,787.3259887695312,791.7582397460938,789.7435913085938,794.1758422851562
613,786.1171875,794.1758422851562,792.967041015625,789.3406372070312
614,786.5201416015625,791.7582397460938,788.937744140625,780.0732421875
615,792.5640869140625,799.010986328125,789.7435913085938,786.923095703125
616,794.5787353515625,802.6373901367188,792.5640869140625,788.5347900390625
617,794.1758422851562,791.7582397460938,791.3552856445312,785.3113403320312
618,800.2197875976562,790.1465454101562,791.3552856445312,790.5494384765625
619,797.8021850585938,792.5640869140625,794.981689453125,793.7728881835938
620,789.7435913085938,788.1318969726562,794.1758422851562,792.967041015625
621,788.5347900390625,790.5494384765625,792.967041015625,794.1758422851562
622,788.1318969726562,792.5640869140625,793.7728881835938,786.923095703125
623,788.5347900390625,785.3113403320312,784.5054931640625,788.5347900390625
624,786.923095703125,787.7289428710938,787.3259887695312,795.7875366210938
625,779.6703491210938,801.8314819335938,796.5933837890625,794.5787353515625
626,774.8351440429688,803.040283203125,795.3846435546875,799.8168334960938
627,778.05859375,791.3552856445312,792.967041015625,805.4578857421875
628,786.1171875,791.3552856445312,790.952392578125,793.7728881835938
629,789.7435913085938,798.2051391601562,794.981689453125,784.908447265625
630,792.5640869140625,796.996337890625,796.5933837890625,786.1171875
631,793.7728881835938,794.1758422851562,790.1465454101562,780.879150390625
632,792.1611938476562,792.5640869140625,791.7582397460938,776.8497924804688
633,794.5787353515625,790.1465454101562,800.2197875976562,782.087890625
634,794.1758422851562,790.5494384765625,800.2197875976562,788.937744140625
635,794.1758422851562,796.5933837890625,799.8168334960938,804.2490844726562
636,801.025634765625,795.7875366210938,801.4285888671875,811.5018310546875
637,800.2197875976562,787.7289428710938,798.2051391601562,802.6373901367188
638,796.996337890625,790.1465454101562,796.1904907226562,801.025634765625
639,794.981689453125,793.3699340820312,794.981689453125,805.8607788085938
640,787.3259887695312,794.981689453125,792.967041015625,799.8168334960938
641,785.7142944335938,790.5494384765625,795.3846435546875,795.7875366210938
642,795.3846435546875,791.7582397460938,796.5933837890625,796.996337890625
643,790.952392578125,790.5494384765625,790.952392578125,790.1465454101562
644,787.7289428710938,784.5054931640625,787.7289428710938,786.5201416015625
645,791.7582397460938,785.3113403320312,791.7582397460938,789.3406372070312
646,790.5494384765625,786.5201416015625,793.7728881835938,790.1465454101562
647,790.5494384765625,786.5201416015625,790.5494384765625,784.908447265625
648,790.5494384765625,786.1171875,795.7875366210938,783.6996459960938
649,784.908447265625,779.6703491210938,799.8168334960938,788.937744140625
650,784.5054931640625,780.4761962890625,793.7728881835938,801.8314819335938
651,784.1025390625,788.5347900390625,793.3699340820312,807.4725341796875
652,780.879150390625,793.3699340820312,797.3992919921875,794.5787353515625
653,784.1025390625,794.1758422851562,794.981689453125,792.1611938476562
654,784.908447265625,786.5201416015625,792.967041015625,794.1758422851562
655,782.4908447265625,783.2966918945312,796.1904907226562,789.7435913085938
656,785.3113403320312,786.1171875,795.7875366210938,790.5494384765625
657,790.952392578125,786.1171875,796.1904907226562,790.5494384765625
658,791.7582397460938,789.7435913085938,800.2197875976562,792.5640869140625
659,793.3699340820312,785.7142944335938,798.6080322265625,793.7728881835938
660,793.3699340820312,792.5640869140625,797.3992919921875,799.4139404296875
661,787.3259887695312,794.1758422851562,794.981689453125,801.4285888671875
662,788.937744140625,792.1611938476562,795.7875366210938,807.069580078125
663,785.7142944335938,796.1904907226562,793.7728881835938,799.4139404296875
664,788.937744140625,794.1758422851562,790.5494384765625,793.3699340820312
665,792.1611938476562,791.7582397460938,792.1611938476562,795.3846435546875
666,790.5494384765625,793.3699340820312,790.952392578125,793.3699340820312
667,794.5787353515625,794.1758422851562,790.5494384765625,791.7582397460938
668,794.981689453125,792.5640869140625,788.1318969726562,789.3406372070312
669,797.8021850585938,790.5494384765625,781.6849975585938,787.7289428710938
670,797.3992919921875,793.7728881835938,786.1171875,782.087890625
671,797.3992919921875,794.981689453125,791.7582397460938,784.908447265625
672,796.5933837890625,793.3699340820312,794.5787353515625,793.7728881835938
673,792.1611938476562,792.5640869140625,792.5640869140625,794.981689453125
674,789.7435913085938,791.7582397460938,796.1904907226562,799.8168334960938
675,794.5787353515625,799.8168334960938,803.8461303710938,805.054931640625
676,801.8314819335938,803.040283203125,799.8168334960938,807.4725341796875
677,800.6226806640625,796.1904907226562,796.996337890625,805.054931640625
678,796.5933837890625,794.1758422851562,798.6080322265625,802.6373901367188
679,788.5347900390625,791.7582397460938,793.7728881835938,795.7875366210938
680,787.7289428710938,783.6996459960938,790.952392578125,791.7582397460938
681,786.923095703125,781.6849975585938,790.5494384765625,789.7435913085938
682,780.0732421875,786.923095703125,793.7728881835938,787.3259887695312
683,789.3406372070312,789.7435913085938,801.025634765625,796.1904907226562
684,793.3699340820312,784.908447265625,800.2197875976562,804.6520385742188
685,788.937744140625,790.1465454101562,796.5933837890625,807.4725341796875
686,789.3406372070312,795.7875366210938,795.7875366210938,796.996337890625
687,788.937744140625,790.952392578125,794.5787353515625,788.937744140625
688,789.3406372070312,789.7435913085938,794.5787353515625,788.1318969726562
689,792.1611938476562,789.3406372070312,794.1758422851562,784.5054931640625
690,792.5640869140625,789.3406372070312,793.7728881835938,778.8644409179688
691,793.7728881835938,792.967041015625,794.981689453125,776.8497924804688
692,797.3992919921875,790.5494384765625,794.1758422851562,783.2966918945312
693,794.5787353515625,789.3406372070312,794.981689453125,786.5201416015625
694,786.923095703125,789.3406372070312,794.5787353515625,782.4908447265625
695,780.879150390625,782.087890625,798.6080322265625,782.087890625
696,783.2966918945312,784.5054931640625,799.4139404296875,789.3406372070312
697,785.7142944335938,787.7289428710938,798.6080322265625,786.923095703125
698,790.1465454101562,796.5933837890625,800.2197875976562,786.923095703125
699,793.7728881835938,795.7875366210938,799.8168334960938,794.5787353515625
700,796.1904907226562,789.7435913085938,799.010986328125,800.2197875976562
701,793.3699340820312,791.3552856445312,798.2051391601562,800.2197875976562
702,793.7728881835938,790.952392578125,799.8168334960938,796.996337890625
703,795.7875366210938,784.908447265625,797.8021850585938,794.5787353515625
704,791.7582397460938,784.908447265625,798.2051391601562,793.7728881835938
705,797.3992919921875,790.1465454101562,797.8021850585938,788.5347900390625
706,803.8461303710938,792.5640869140625,793.7728881835938,782.893798828125
707,800.6226806640625,792.967041015625,795.3846435546875,787.3259887695312
708,797.3992919921875,790.952392578125,794.5787353515625,797.8021850585938
709,794.981689453125,790.5494384765625,797.3992919921875,795.7875366210938
710,789.3406372070312,789.3406372070312,792.5640869140625,788.5347900390625
711,790.952392578125,791.3552856445312,786.923095703125,790.952392578125
712,792.5640869140625,796.5933837890625,790.952392578125,793.3699340820312
713,788.937744140625,795.3846435546875,796.996337890625,791.7582397460938
714,793.3699340820312,794.1758422851562,795.7875366210938,790.5494384765625
715,798.2051391601562,792.1611938476562,792.1611938476562,793.3699340820312
716,797.3992919921875,792.5640869140625,795.7875366210938,794.981689453125
717,794.981689453125,796.996337890625,798.2051391601562,795.3846435546875
718,795.7875366210938,796.996337890625,798.2051391601562,798.6080322265625
719,798.2051391601562,790.5494384765625,796.5933837890625,797.8021850585938
720,797.8021850585938,784.908447265625,794.981689453125,795.3846435546875
721,797.3992919921875,788.1318969726562,797.3992919921875,796.1904907226562
722,796.1904907226562,797.8021850585938,800.2197875976562,794.5787353515625
723,792.967041015625,791.3552856445312,794.981689453125,799.010986328125
724,782.087890625,785.7142944335938,796.1904907226562,802.6373901367188
725,778.05859375,787.3259887695312,799.010986328125,798.6080322265625
726,793.7728881835938,794.1758422851562,799.010986328125,797.8021850585938
727,792.1611938476562,795.7875366210938,795.7875366210938,792.1611938476562
728,784.908447265625,794.1758422851562,791.3552856445312,783.2966918945312
729,789.7435913085938,799.8168334960938,791.7582397460938,786.1171875
730,791.3552856445312,794.981689453125,788.937744140625,785.7142944335938
731,793.3699340820312,790.5494384765625,787.7289428710938,790.952392578125
732,794.5787353515625,794.1758422851562,796.1904907226562,794.981689453125
733,791.7582397460938,798.2051391601562,796.996337890625,790.5494384765625
734,794.1758422851562,790.952392578125,791.3552856445312,790.5494384765625
735,795.3846435546875,787.7289428710938,792.967041015625,794.5787353515625
736,791.3552856445312,800.2197875976562,792.1611938476562,784.5054931640625
737,788.5347900390625,805.054931640625,789.7435913085938,779.2673950195312
738,785.7142944335938,796.1904907226562,789.7435913085938,784.908447265625
739,789.7435913085938,796.1904907226562,792.967041015625,784.5054931640625
740,791.7582397460938,800.6226806640625,792.967041015625,784.1025390625
741,787.7289428710938,794.1758422851562,790.1465454101562,789.3406372070312
742,789.7435913085938,791.3552856445312,792.967041015625,799.8168334960938
743,789.3406372070312,793.7728881835938,796.5933837890625,801.025634765625
744,790.952392578125,791.3552856445312,794.981689453125,797.3992919921875
745,794.1758422851562,786.923095703125,797.3992919921875,802.6373901367188
746,788.1318969726562,783.6996459960938,796.1904907226562,804.6520385742188
747,786.5201416015625,791.3552856445312,794.5787353515625,800.2197875976562
748,791.3552856445312,798.6080322265625,796.996337890625,793.3699340820312
749,791.7582397460938,795.3846435546875,797.8021850585938,793.7728881835938
750,792.5640869140625,793.3699340820312,796.5933837890625,797.8021850585938
751,799.010986328125,795.7875366210938,802.2344360351562,798.6080322265625
752,794.981689453125,795.7875366210938,799.010986328125,796.996337890625
753,795.3846435546875,794.1758422851562,794.5787353515625,796.5933837890625
754,805.054931640625,787.7289428710938,794.5787353515625,802.2344360351562
755,806.2637329101562,783.2966918945312,790.5494384765625,806.2637329101562
756,791.7582397460938,790.952392578125,792.1611938476562,790.952392578125
757,789.7435913085938,793.7728881835938,793.7728881835938,785.3113403320312
758,797.3992919921875,793.7728881835938,788.937744140625,795.7875366210938
759,792.1611938476562,797.8021850585938,784.1025390625,786.923095703125
760,792.967041015625,799.4139404296875,790.1465454101562,785.3113403320312
761,795.3846435546875,796.5933837890625,796.1904907226562,792.1611938476562
762,790.1465454101562,789.7435913085938,795.3846435546875,789.7435913085938
763,785.3113403320312,792.1611938476562,788.937744140625,782.087890625
764,784.1025390625,790.5494384765625,788.937744140625,776.4468994140625
765,792.1611938476562,788.5347900390625,790.5494384765625,784.5054931640625
766,796.996337890625,793.7728881835938,792.967041015625,789.7435913085938
767,792.5640869140625,794.1758422851562,790.1465454101562,784.1025390625
768,792.967041015625,797.3992919921875,790.5494384765625,785.7142944335938
769,799.4139404296875,796.1904907226562,795.3846435546875,790.1465454101562
770,795.3846435546875,792.967041015625,791.7582397460938,789.7435913085938
771,785.7142944335938,794.1758422851562,793.7728881835938,783.6996459960938
772,789.7435913085938,792.967041015625,798.2051391601562,790.1465454101562
773,790.1465454101562,790.1465454101562,794.981689453125,793.7728881835938
774,790.1465454101562,795.3846435546875,793.3699340820312,790.5494384765625
775,791.7582397460938,796.5933837890625,795.7875366210938,793.3699340820312
776,793.7728881835938,790.1465454101562,796.1904907226562,793.3699340820312
777,790.5494384765625,789.3406372070312,792.967041015625,795.7875366210938
778,785.7142944335938,796.1904907226562,792.967041015625,794.981689453125
779,786.1171875,794.1758422851562,792.5640869140625,790.1465454101562
780,786.1171875,791.7582397460938,794.5787353515625,796.996337890625
781,787.7289428710938,796.1904907226562,795.3846435546875,807.87548828125
782,793.3699340820312,802.6373901367188,801.025634765625,809.084228515625
783,797.8021850585938,801.4285888671875,807.069580078125,810.6959838867188
784,799.4139404296875,793.3699340820312,807.069580078125,805.054931640625
785,794.981689453125,792.5640869140625,801.4285888671875,796.996337890625
786,794.981689453125,792.1611938476562,801.025634765625,798.6080322265625
787,796.5933837890625,786.923095703125,802.2344360351562,798.6080322265625
788,793.7728881835938,786.1171875,793.7728881835938,795.7875366210938
789,789.7435913085938,785.7142944335938,793.7728881835938,793.7728881835938
790,787.7289428710938,785.3113403320312,794.981689453125,788.1318969726562
791,795.7875366210938,790.1465454101562,794.1758422851562,792.1611938476562
792,802.6373901367188,793.7728881835938,798.6080322265625,799.4139404296875
793,799.4139404296875,794.5787353515625,804.6520385742188,798.6080322265625
794,794.981689453125,789.7435913085938,806.2637329101562,793.7728881835938
795,796.996337890625,788.937744140625,803.040283203125,794.1758422851562
796,797.3992919921875,791.7582397460938,804.2490844726562,796.5933837890625
797,794.981689453125,790.5494384765625,801.8314819335938,793.3699340820312
798,789.3406372070312,788.5347900390625,798.6080322265625,792.5640869140625
799,790.5494384765625,787.7289428710938,798.2051391601562,795.3846435546875
800,801.025634765625,787.3259887695312,795.3846435546875,802.2344360351562
801,806.2637329101562,788.937744140625,796.5933837890625,807.4725341796875
802,802.6373901367188,792.5640869140625,796.1904907226562,797.8021850585938
803,805.8607788085938,797.8021850585938,796.1904907226562,796.996337890625
804,813.113525390625,803.040283203125,798.6080322265625,805.8607788085938
805,808.2783813476562,803.4432373046875,795.3846435546875,801.4285888671875
806,801.025634765625,804.2490844726562,792.967041015625,796.996337890625
807,794.5787353515625,800.6226806640625,787.7289428710938,795.7875366210938
808,789.7435913085938,794.5787353515625,786.5201416015625,799.010986328125
809,785.7142944335938,797.8021850585938,785.7142944335938,795.7875366210938
810,785.7142944335938,792.967041015625,789.3406372070312,797.8021850585938
811,790.1465454101562,788.937744140625,796.1904907226562,803.4432373046875
812,792.5640869140625,795.7875366210938,794.1758422851562,795.7875366210938
813,796.5933837890625,796.1904907226562,794.981689453125,789.3406372070312
814,797.8021850585938,790.1465454101562,796.5933837890625,793.7728881835938
815,790.1465454101562,786.5201416015625,797.3992919921875,802.2344360351562
816,782.087890625,793.3699340820312,796.5933837890625,797.8021850585938
817,782.087890625,796.5933837890625,795.3846435546875,792.967041015625
818,782.4908447265625,793.3699340820312,789.3406372070312,793.3699340820312
819,784.908447265625,796.1904907226562,790.1465454101562,797.3992919921875
820,784.1025390625,796.1904907226562,796.996337890625,796.996337890625
821,782.4908447265625,794.1758422851562,798.2051391601562,794.5787353515625
822,782.087890625,790.1465454101562,794.1758422851562,792.5640869140625
823,782.4908447265625,784.1025390625,786.923095703125,792.1611938476562
824,788.5347900390625,790.5494384765625,792.967041015625,792.1611938476562
825,790.1465454101562,788.5347900390625,796.1904907226562,790.1465454101562
826,793.7728881835938,784.908447265625,790.5494384765625,794.1758422851562
827,796.996337890625,788.937744140625,791.3552856445312,792.5640869140625
828,795.7875366210938,790.5494384765625,792.967041015625,789.3406372070312
829,804.6520385742188,795.3846435546875,792.1611938476562,795.7875366210938
830,806.6666870117188,796.5933837890625,790.1465454101562,801.025634765625
831,801.4285888671875,792.1611938476562,788.937744140625,800.6226806640625
832,801.025634765625,792.5640869140625,787.3259887695312,793.3699340820312
833,800.6226806640625,793.7728881835938,784.5054931640625,788.1318969726562
834,794.981689453125,795.7875366210938,785.7142944335938,787.3259887695312
835,789.3406372070312,793.7728881835938,792.967041015625,787.7289428710938
836,786.5201416015625,793.3699340820312,793.7728881835938,785.7142944335938
837,788.1318969726562,794.981689453125,792.967041015625,788.937744140625
838,791.7582397460938,791.7582397460938,794.5787353515625,795.7875366210938
839,790.952392578125,792.967041015625,791.7582397460938,794.5787353515625
840,785.3113403320312,792.967041015625,789.3406372070312,787.7289428710938
841,785.3113403320312,794.981689453125,789.3406372070312,784.1025390625
842,788.937744140625,794.1758422851562,788.5347900390625,790.952392578125
843,789.3406372070312,788.937744140625,789.3406372070312,792.967041015625
844,795.3846435546875,790.952392578125,791.7582397460938,794.1758422851562
845,797.8021850585938,795.7875366210938,797.3992919921875,807.4725341796875
846,785.3113403320312,797.3992919921875,803.040283203125,803.040283203125
847,769.1941528320312,793.7728881835938,806.2637329101562,791.7582397460938
848,769.1941528320312,792.967041015625,805.8607788085938,791.3552856445312
849,780.879150390625,793.7728881835938,799.8168334960938,799.4139404296875
850,789.7435913085938,793.3699340820312,799.8168334960938,812.7106323242188
851,794.1758422851562,788.5347900390625,800.6226806640625,811.90478515625
852,792.5640869140625,793.3699340820312,796.5933837890625,805.054931640625
853,788.5347900390625,796.1904907226562,795.3846435546875,803.4432373046875
854,790.5494384765625,789.7435913085938,796.1904907226562,805.054931640625
855,793.7728881835938,795.3846435546875,789.7435913085938,800.2197875976562
856,790.5494384765625,799.010986328125,788.937744140625,794.981689453125
857,792.967041015625,799.4139404296875,792.5640869140625,792.967041015625
858,797.8021850585938,800.6226806640625,792.5640869140625,792.967041015625
859,792.1611938476562,799.4139404296875,795.3846435546875,792.967041015625
860,792.1611938476562,797.3992919921875,793.7728881835938,791.3552856445312
861,799.4139404296875,793.3699340820312,791.3552856445312,797.8021850585938
862,801.4285888671875,792.967041015625,789.3406372070312,799.010986328125
863,796.5933837890625,797.3992919921875,786.1171875,791.7582397460938
864,792.5640869140625,794.981689453125,788.937744140625,790.1465454101562
865,795.7875366210938,791.3552856445312,791.7582397460938,799.8168334960938
866,796.5933837890625,790.5494384765625,794.1758422851562,803.040283203125
867,789.3406372070312,792.5640869140625,799.010986328125,796.5933837890625
868,788.1318969726562,794.1758422851562,796.5933837890625,791.3552856445312
869,791.3552856445312,792.5640869140625,793.7728881835938,784.1025390625
870,792.5640869140625,794.5787353515625,792.5640869140625,785.7142944335938
871,789.7435913085938,793.3699340820312,791.3552856445312,796.1904907226562
872,791.3552856445312,788.1318969726562,790.1465454101562,795.3846435546875
873,793.7728881835938,789.3406372070312,790.1465454101562,788.1318969726562
874,786.5201416015625,792.5640869140625,790.952392578125,788.937744140625
875,788.937744140625,786.5201416015625,788.5347900390625,790.5494384765625
876,796.5933837890625,780.879150390625,794.1758422851562,793.3699340820312
877,801.4285888671875,781.6849975585938,795.7875366210938,806.2637329101562
878,800.6226806640625,791.7582397460938,800.2197875976562,802.2344360351562
879,802.2344360351562,792.967041015625,799.4139404296875,794.981689453125
880,801.025634765625,788.1318969726562,793.7728881835938,799.8168334960938
881,799.4139404296875,792.5640869140625,792.967041015625,801.4285888671875
882,797.8021850585938,796.1904907226562,794.5787353515625,799.4139404296875
883,797.3992919921875,796.1904907226562,797.8021850585938,801.8314819335938
884,800.6226806640625,795.7875366210938,797.8021850585938,805.4578857421875
885,796.996337890625,790.5494384765625,793.3699340820312,798.2051391601562
886,800.6226806640625,792.1611938476562,792.967041015625,794.981689453125
887,798.2051391601562,791.7582397460938,795.7875366210938,790.1465454101562
888,796.996337890625,787.3259887695312,793.7728881835938,790.952392578125
889,801.025634765625,789.7435913085938,791.7582397460938,797.8021850585938
890,795.7875366210938,786.1171875,790.5494384765625,784.1025390625
891,788.937744140625,786.1171875,787.7289428710938,777.2527465820312
892,786.5201416015625,789.3406372070312,790.5494384765625,789.7435913085938
893,786.923095703125,784.1025390625,791.7582397460938,787.7289428710938
894,787.7289428710938,789.7435913085938,790.952392578125,782.4908447265625
895,785.7142944335938,798.2051391601562,795.3846435546875,788.5347900390625
896,780.879150390625,791.7582397460938,794.981689453125,787.3259887695312
897,781.6849975585938,786.5201416015625,787.7289428710938,778.4615478515625
898,779.6703491210938,789.3406372070312,785.3113403320312,779.2673950195312
899,781.6849975585938,788.937744140625,787.3259887695312,783.6996459960938
900,789.7435913085938,784.1025390625,790.5494384765625,791.7582397460938
901,792.5640869140625,788.937744140625,796.996337890625,789.7435913085938
902,793.3699340820312,794.5787353515625,793.3699340820312,784.908447265625
903,796.5933837890625,792.1611938476562,790.952392578125,791.7582397460938
904,797.3992919921875,794.981689453125,795.7875366210938,794.981689453125
905,796.996337890625,794.1758422851562,796.996337890625,790.952392578125
906,800.6226806640625,788.937744140625,792.1611938476562,792.1611938476562
907,801.025634765625,786.5201416015625,791.7582397460938,792.967041015625
908,802.6373901367188,790.1465454101562,798.2051391601562,791.3552856445312
909,801.025634765625,790.5494384765625,795.7875366210938,785.7142944335938
910,800.2197875976562,787.7289428710938,792.1611938476562,786.923095703125
911,805.8607788085938,786.1171875,796.5933837890625,795.7875366210938
912,805.054931640625,786.923095703125,795.7875366210938,794.981689453125
913,798.6080322265625,789.3406372070312,794.5787353515625,793.7728881835938
914,801.025634765625,788.937744140625,795.3846435546875,796.5933837890625
915,799.4139404296875,787.7289428710938,796.5933837890625,803.040283203125
916,792.5640869140625,791.3552856445312,796.5933837890625,804.6520385742188
917,792.1611938476562,794.1758422851562,793.7728881835938,798.2051391601562
918,794.5787353515625,792.5640869140625,792.1611938476562,791.3552856445312
919,797.8021850585938,791.3552856445312,792.5640869140625,800.6226806640625
920,793.7728881835938,785.7142944335938,791.3552856445312,798.2051391601562
921,788.5347900390625,787.3259887695312,794.1758422851562,789.3406372070312
922,794.1758422851562,796.5933837890625,795.3846435546875,790.1465454101562
923,793.3699340820312,799.8168334960938,793.3699340820312,788.5347900390625
924,789.7435913085938,800.6226806640625,796.5933837890625,788.5347900390625
925,791.7582397460938,792.5640869140625,796.996337890625,789.3406372070312
926,790.5494384765625,790.952392578125,799.8168334960938,799.010986328125
927,793.7728881835938,801.4285888671875,797.8021850585938,808.2783813476562
928,792.967041015625,803.8461303710938,796.5933837890625,799.8168334960938
929,790.1465454101562,802.6373901367188,799.010986328125,797.8021850585938
930,796.1904907226562,803.8461303710938,801.025634765625,805.4578857421875
931,803.040283203125,801.4285888671875,798.6080322265625,807.4725341796875
932,797.3992919921875,792.1611938476562,795.3846435546875,797.8021850585938
933,792.967041015625,795.3846435546875,794.5787353515625,793.7728881835938
934,797.3992919921875,797.3992919921875,790.5494384765625,795.3846435546875
935,799.010986328125,792.967041015625,791.3552856445312,788.5347900390625
936,799.4139404296875,796.1904907226562,794.5787353515625,788.937744140625
937,803.040283203125,799.8168334960938,793.7728881835938,790.1465454101562
938,808.6813354492188,798.2051391601562,792.967041015625,791.7582397460938
939,803.8461303710938,800.6226806640625,790.952392578125,791.3552856445312
940,796.996337890625,799.010986328125,790.952392578125,784.908447265625
941,797.8021850585938,793.7728881835938,796.1904907226562,788.1318969726562
942,797.8021850585938,792.967041015625,795.3846435546875,794.981689453125
943,801.025634765625,796.996337890625,797.3992919921875,799.8168334960938
944,794.5787353515625,794.1758422851562,795.3846435546875,797.3992919921875
945,784.5054931640625,790.952392578125,788.937744140625,796.5933837890625
946,784.1025390625,793.3699340820312,788.1318969726562,796.996337890625
947,786.1171875,788.1318969726562,789.7435913085938,790.1465454101562
948,784.908447265625,786.923095703125,792.5640869140625,785.3113403320312
949,784.908447265625,789.3406372070312,793.7728881835938,788.5347900390625
950,790.952392578125,792.5640869140625,798.2051391601562,798.6080322265625
951,791.3552856445312,795.7875366210938,799.010986328125,795.3846435546875
952,799.4139404296875,791.7582397460938,798.2051391601562,795.7875366210938
953,803.4432373046875,789.7435913085938,796.996337890625,795.3846435546875
954,793.3699340820312,790.5494384765625,792.5640869140625,794.5787353515625
955,788.5347900390625,790.5494384765625,794.1758422851562,792.5640869140625
956,788.1318969726562,793.3699340820312,794.981689453125,788.937744140625
957,794.5787353515625,796.5933837890625,796.996337890625,794.981689453125
958,795.3846435546875,794.5787353515625,803.040283203125,797.3992919921875
959,790.5494384765625,796.1904907226562,803.4432373046875,800.6226806640625
960,791.3552856445312,796.5933837890625,798.2051391601562,798.6080322265625
961,796.1904907226562,787.7289428710938,794.1758422851562,792.967041015625
962,796.996337890625,788.5347900390625,799.010986328125,794.5787353515625
963,792.967041015625,799.010986328125,799.8168334960938,792.1611938476562
964,791.7582397460938,794.5787353515625,796.1904907226562,792.5640869140625
965,791.7582397460938,790.1465454101562,795.7875366210938,790.952392578125
966,786.1171875,793.7728881835938,793.7728881835938,788.937744140625
967,780.0732421875,796.5933837890625,794.5787353515625,791.3552856445312
968,778.8644409179688,797.3992919921875,796.996337890625,794.5787353515625
969,781.6849975585938,791.3552856445312,792.967041015625,794.5787353515625
970,784.1025390625,790.952392578125,793.3699340820312,784.1025390625
971,786.923095703125,798.2051391601562,796.5933837890625,778.8644409179688
972,787.7289428710938,796.996337890625,793.7728881835938,782.893798828125
973,785.7142944335938,790.1465454101562,791.3552856445312,794.981689453125
974,788.1318969726562,787.3259887695312,794.5787353515625,795.3846435546875
975,790.952392578125,799.010986328125,794.5787353515625,786.923095703125
976,788.5347900390625,803.4432373046875,791.3552856445312,789.7435913085938
977,790.952392578125,796.5933837890625,791.7582397460938,792.5640869140625
978,796.996337890625,798.6080322265625,796.1904907226562,791.7582397460938
979,794.1758422851562,801.4285888671875,795.7875366210938,794.981689453125
980,792.967041015625,797.8021850585938,790.952392578125,802.2344360351562
981,796.1904907226562,798.6080322265625,788.1318969726562,799.4139404296875
982,800.6226806640625,800.2197875976562,789.7435913085938,799.4139404296875
983,803.4432373046875,798.6080322265625,795.3846435546875,806.2637329101562
984,798.6080322265625,796.1904907226562,794.5787353515625,806.2637329101562
985,790.952392578125,787.7289428710938,791.3552856445312,803.8461303710938
986,792.1611938476562,791.3552856445312,794.5787353515625,794.981689453125
987,794.5787353515625,795.7875366210938,793.3699340820312,791.3552856445312
988,792.1611938476562,788.5347900390625,788.5347900390625,790.1465454101562
989,793.3699340820312,788.1318969726562,792.967041015625,789.3406372070312
990,791.3552856445312,790.5494384765625,791.3552856445312,782.893798828125
991,786.5201416015625,787.3259887695312,790.952392578125,782.087890625
992,787.7289428710938,786.1171875,799.4139404296875,792.1611938476562
993,790.5494384765625,789.3406372070312,800.2197875976562,787.3259887695312
994,790.1465454101562,788.937744140625,798.6080322265625,782.4908447265625
995,784.908447265625,790.5494384765625,797.8021850585938,789.3406372070312
996,780.879150390625,786.923095703125,796.1904907226562,793.3699340820312
997,780.879150390625,780.879150390625,799.4139404296875,790.952392578125
998,777.2527465820312,784.1025390625,797.3992919921875,790.1465454101562
999,781.2820434570312,788.5347900390625,797.8021850585938,791.7582397460938
1000,786.5201416015625,793.3699340820312,801.4285888671875,792.967041015625
1001,785.7142944335938,794.981689453125,802.6373901367188,795.7875366210938
1002,788.5347900390625,791.7582397460938,802.2344360351562,800.2197875976562
1003,793.3699340820312,790.5494384765625,798.6080322265625,801.025634765625
1004,796.1904907226562,788.5347900390625,796.5933837890625,797.3992919921875
1005,793.7728881835938,793.3699340820312,803.4432373046875,787.7289428710938
1006,790.5494384765625,794.5787353515625,804.6520385742188,786.1171875
1007,796.996337890625,790.5494384765625,797.8021850585938,791.3552856445312
1008,797.3992919921875,788.937744140625,796.1904907226562,788.937744140625
1009,796.5933837890625,786.923095703125,799.010986328125,786.1171875
1010,796.1904907226562,788.937744140625,797.3992919921875,786.1171875
1011,792.5640869140625,786.1171875,793.7728881835938,789.7435913085938
1012,788.5347900390625,788.937744140625,796.1904907226562,788.937744140625
1013,786.1171875,793.7728881835938,799.4139404296875,782.893798828125
1014,785.3113403320312,789.3406372070312,796.1904907226562,784.5054931640625
1015,789.7435913085938,788.1318969726562,794.1758422851562,793.7728881835938
1016,792.5640869140625,790.952392578125,792.1611938476562,796.996337890625
1017,786.5201416015625,792.5640869140625,794.981689453125,790.5494384765625
1018,782.893798828125,791.3552856445312,794.5787353515625,786.5201416015625
1019,789.7435913085938,792.5640869140625,791.3552856445312,792.967041015625
1020,791.7582397460938,791.7582397460938,796.996337890625,797.3992919921875
1021,783.6996459960938,787.7289428710938,798.2051391601562,791.3552856445312
1022,781.2820434570312,790.5494384765625,794.981689453125,790.5494384765625
1023,795.3846435546875,791.3552856445312,795.7875366210938,799.010986328125
1024,801.8314819335938,793.7728881835938,795.3846435546875,790.5494384765625
1025,792.967041015625,796.5933837890625,792.1611938476562,784.908447265625
1026,788.1318969726562,794.981689453125,796.996337890625,794.981689453125
1027,789.7435913085938,797.3992919921875,798.6080322265625,799.8168334960938
1028,788.1318969726562,796.996337890625,793.7728881835938,790.952392578125
1029,790.952392578125,795.7875366210938,792.5640869140625,786.923095703125
1030,792.5640869140625,794.981689453125,792.1611938476562,794.5787353515625
1031,792.1611938476562,794.1758422851562,791.7582397460938,794.5787353515625
1032,792.967041015625,789.3406372070312,795.3846435546875,784.908447265625
1033,794.1758422851562,792.1611938476562,799.010986328125,790.5494384765625
1034,791.7582397460938,796.5933837890625,799.8168334960938,805.054931640625
1035,788.937744140625,788.937744140625,800.2197875976562,804.6520385742188
1036,784.5054931640625,787.3259887695312,795.7875366210938,793.3699340820312
1037,789.7435913085938,796.1904907226562,791.3552856445312,791.7582397460938
1038,794.5787353515625,801.025634765625,793.7728881835938,795.7875366210938
1039,789.7435913085938,798.2051391601562,791.7582397460938,786.923095703125
1040,790.1465454101562,797.3992919921875,785.7142944335938,781.2820434570312
1041,794.5787353515625,798.2051391601562,788.937744140625,786.1171875
1042,798.6080322265625,795.7875366210938,793.3699340820312,794.5787353515625
1043,801.4285888671875,790.952392578125,796.5933837890625,804.6520385742188
1044,805.8607788085938,794.1758422851562,799.010986328125,806.2637329101562
1045,803.8461303710938,794.1758422851562,794.981689453125,806.2637329101562
1046,802.6373901367188,791.3552856445312,792.1611938476562,815.1282348632812
1047,795.7875366210938,787.3259887695312,790.1465454101562,806.2637329101562
1048,795.7875366210938,787.7289428710938,792.5640869140625,799.8168334960938
1049,797.3992919921875,795.7875366210938,792.967041015625,803.040283203125
1050,792.1611938476562,791.3552856445312,788.937744140625,794.1758422851562
1051,791.3552856445312,791.3552856445312,790.1465454101562,787.3259887695312
1052,785.3113403320312,795.3846435546875,791.3552856445312,783.2966918945312
1053,785.3113403320312,792.1611938476562,788.5347900390625,780.4761962890625
1054,788.937744140625,791.7582397460938,790.952392578125,780.0732421875
1055,793.3699340820312,792.1611938476562,795.3846435546875,783.2966918945312
1056,796.996337890625,794.5787353515625,794.981689453125,790.952392578125
1057,796.5933837890625,794.5787353515625,794.981689453125,788.5347900390625
1058,795.7875366210938,796.1904907226562,795.3846435546875,780.879150390625
1059,794.1758422851562,801.4285888671875,795.3846435546875,783.2966918945312
1060,795.7875366210938,801.4285888671875,796.996337890625,788.1318969726562
1061,796.5933837890625,793.7728881835938,793.3699340820312,785.3113403320312
1062,798.2051391601562,798.6080322265625,790.5494384765625,783.2966918945312
1063,794.981689453125,803.8461303710938,792.5640869140625,783.6996459960938
1064,795.3846435546875,798.6080322265625,795.3846435546875,783.6996459960938
1065,804.2490844726562,798.2051391601562,797.8021850585938,791.7582397460938
1066,803.040283203125,799.4139404296875,794.981689453125,796.5933837890625
1067,801.025634765625,795.7875366210938,797.3992919921875,797.3992919921875
1068,795.7875366210938,788.937744140625,800.2197875976562,798.2051391601562
1069,788.5347900390625,792.967041015625,798.2051391601562,803.8461303710938
1070,792.1611938476562,794.981689453125,799.4139404296875,804.2490844726562
1071,791.7582397460938,785.7142944335938,794.1758422851562,799.8168334960938
1072,790.1465454101562,786.923095703125,791.7582397460938,801.8314819335938
1073,795.3846435546875,793.3699340820312,793.3699340820312,800.2197875976562
1074,794.981689453125,796.996337890625,796.1904907226562,799.8168334960938
1075,790.952392578125,794.981689453125,798.2051391601562,795.7875366210938
1076,788.5347900390625,792.967041015625,795.3846435546875,791.3552856445312
1077,786.923095703125,795.7875366210938,796.1904907226562,792.967041015625
1078,788.5347900390625,798.2051391601562,797.8021850585938,790.1465454101562
1079,790.952392578125,793.7728881835938,799.010986328125,789.3406372070312
1080,789.3406372070312,788.937744140625,796.1904907226562,792.967041015625
1081,788.937744140625,791.3552856445312,794.1758422851562,791.3552856445312
1082,788.5347900390625,790.952392578125,796.1904907226562,784.5054931640625
1083,788.5347900390625,790.5494384765625,790.952392578125,786.923095703125
1084,791.7582397460938,794.5787353515625,794.1758422851562,788.1318969726562
1085,792.967041015625,793.7728881835938,798.6080322265625,783.6996459960938
1086,786.923095703125,792.1611938476562,794.5787353515625,784.908447265625
1087,786.923095703125,790.952392578125,792.5640869140625,793.7728881835938
1088,788.937744140625,789.3406372070312,791.3552856445312,796.996337890625
1089,784.908447265625,787.3259887695312,791.7582397460938,791.7582397460938
1090,782.893798828125,790.1465454101562,794.981689453125,791.7582397460938
1091,788.1318969726562,786.923095703125,795.7875366210938,799.4139404296875
1092,787.3259887695312,782.893798828125,795.3846435546875,810.6959838867188
1093,785.3113403320312,789.3406372070312,801.4285888671875,810.2930297851562
1094,786.1171875,787.3259887695312,804.2490844726562,803.8461303710938
1095,780.0732421875,775.2380981445312,799.4139404296875,795.3846435546875
1096,778.05859375,783.6996459960938,797.8021850585938,784.5054931640625
1097,782.4908447265625,794.981689453125,797.3992919921875,786.1171875
1098,785.7142944335938,791.3552856445312,794.981689453125,782.893798828125
1099,786.1171875,793.7728881835938,791.3552856445312,784.5054931640625
1100,789.3406372070312,798.2051391601562,792.1611938476562,786.5201416015625
1101,791.3552856445312,797.8021850585938,794.1758422851562,784.5054931640625
1102,790.5494384765625,796.996337890625,791.7582397460938,791.3552856445312
1103,789.3406372070312,795.7875366210938,787.7289428710938,799.010986328125
1104,792.967041015625,795.7875366210938,787.7289428710938,803.040283203125
1105,799.8168334960938,796.5933837890625,788.937744140625,800.2197875976562
1106,811.5018310546875,794.5787353515625,785.3113403320312,807.069580078125
1107,810.2930297851562,794.981689453125,786.923095703125,807.069580078125
1108,791.3552856445312,799.4139404296875,789.7435913085938,783.2966918945312
1109,791.7582397460938,796.1904907226562,786.923095703125,784.1025390625
1110,801.4285888671875,797.8021850585938,782.4908447265625,792.5640869140625
1111,804.2490844726562,795.7875366210938,782.893798828125,795.3846435546875
1112,806.2637329101562,794.1758422851562,789.3406372070312,801.025634765625
1113,799.8168334960938,793.7728881835938,792.1611938476562,795.3846435546875
1114,794.1758422851562,786.1171875,790.5494384765625,796.996337890625
1115,793.7728881835938,779.6703491210938,789.3406372070312,797.3992919921875
1116,793.7728881835938,782.893798828125,794.981689453125,799.4139404296875
1117,794.5787353515625,790.952392578125,796.996337890625,806.6666870117188
1118,798.2051391601562,791.7582397460938,795.3846435546875,804.2490844726562
1119,799.8168334960938,782.893798828125,793.3699340820312,806.2637329101562
1120,803.040283203125,783.6996459960938,798.2051391601562,803.8461303710938
1121,802.2344360351562,788.5347900390625,799.4139404296875,795.3846435546875
1122,796.996337890625,793.3699340820312,799.4139404296875,798.6080322265625
1123,801.4285888671875,800.2197875976562,802.2344360351562,803.040283203125
1124,804.6520385742188,801.4285888671875,801.025634765625,802.2344360351562
1125,797.8021850585938,792.967041015625,798.6080322265625,795.3846435546875
1126,790.952392578125,791.3552856445312,794.981689453125,789.7435913085938
1127,793.7728881835938,794.981689453125,794.5787353515625,786.923095703125
1128,792.967041015625,794.5787353515625,792.967041015625,786.5201416015625
1129,790.1465454101562,792.1611938476562,790.1465454101562,785.3113403320312
1130,795.7875366210938,788.5347900390625,785.7142944335938,789.3406372070312
1131,800.6226806640625,788.5347900390625,787.7289428710938,797.8021850585938
1132,803.040283203125,788.937744140625,795.3846435546875,799.8168334960938
1133,804.2490844726562,789.3406372070312,796.5933837890625,799.4139404296875
1134,801.4285888671875,789.7435913085938,795.7875366210938,798.6080322265625
1135,803.8461303710938,786.1171875,799.010986328125,803.4432373046875
1136,804.6520385742188,791.7582397460938,801.8314819335938,809.4871826171875
1137,800.6226806640625,796.996337890625,802.2344360351562,815.93408203125
1138,801.8314819335938,797.8021850585938,803.4432373046875,815.93408203125
1139,801.8314819335938,794.5787353515625,800.6226806640625,809.4871826171875
1140,799.8168334960938,792.5640869140625,796.1904907226562,803.4432373046875
1141,805.8607788085938,793.3699340820312,794.1758422851562,801.4285888671875
1142,804.2490844726562,792.5640869140625,794.981689453125,800.2197875976562
1143,798.6080322265625,790.1465454101562,796.5933837890625,789.3406372070312
1144,798.2051391601562,785.7142944335938,794.5787353515625,784.908447265625
1145,800.2197875976562,786.5201416015625,795.7875366210938,789.3406372070312
1146,797.3992919921875,794.5787353515625,796.5933837890625,795.7875366210938
1147,793.3699340820312,797.8021850585938,794.1758422851562,799.8168334960938
1148,789.7435913085938,794.981689453125,789.3406372070312,789.7435913085938
1149,785.7142944335938,790.5494384765625,787.7289428710938,782.893798828125
1150,792.1611938476562,788.5347900390625,791.3552856445312,788.1318969726562
1151,797.8021850585938,790.5494384765625,791.3552856445312,794.5787353515625
1152,795.3846435546875,788.1318969726562,789.7435913085938,791.7582397460938
1153,792.967041015625,785.7142944335938,789.3406372070312,791.3552856445312
1154,796.1904907226562,784.908447265625,790.5494384765625,793.3699340820312
1155,805.4578857421875,788.937744140625,794.5787353515625,788.1318969726562
1156,801.025634765625,792.5640869140625,794.981689453125,790.952392578125
1157,798.2051391601562,789.7435913085938,793.3699340820312,793.3699340820312
1158,797.8021850585938,787.7289428710938,792.1611938476562,796.996337890625
1159,792.1611938476562,792.5640869140625,790.5494384765625,798.2051391601562
1160,794.981689453125,790.952392578125,788.937744140625,800.6226806640625
1161,801.4285888671875,788.5347900390625,786.5201416015625,805.8607788085938
1162,801.8314819335938,789.3406372070312,790.1465454101562,801.8314819335938
1163,802.6373901367188,786.923095703125,789.7435913085938,797.8021850585938
1164,805.4578857421875,787.3259887695312,786.1171875,797.8021850585938
1165,805.054931640625,789.7435913085938,791.7582397460938,803.040283203125
1166,796.996337890625,789.7435913085938,794.981689453125,796.1904907226562
1167,798.2051391601562,795.3846435546875,791.3552856445312,792.5640869140625
1168,798.6080322265625,797.3992919921875,789.3406372070312,792.5640869140625
1169,795.3846435546875,793.7728881835938,790.1465454101562,786.923095703125
1170,795.3846435546875,795.3846435546875,793.3699340820312,796.5933837890625
1171,787.7289428710938,796.1904907226562,794.1758422851562,801.025634765625
1172,786.5201416015625,794.1758422851562,794.1758422851562,796.5933837890625
1173,792.5640869140625,792.5640869140625,795.3846435546875,797.8021850585938
1174,792.1611938476562,793.7728881835938,792.967041015625,797.3992919921875
1175,790.5494384765625,792.1611938476562,792.1611938476562,796.5933837890625
1176,798.6080322265625,791.3552856445312,790.952392578125,798.2051391601562
1177,800.2197875976562,792.967041015625,793.3699340820312,790.1465454101562
1178,785.7142944335938,794.1758422851562,792.967041015625,781.6849975585938
1179,782.4908447265625,794.981689453125,788.1318969726562,789.7435913085938
1180,790.952392578125,795.7875366210938,790.5494384765625,797.3992919921875
1181,785.3113403320312,795.3846435546875,798.2051391601562,796.996337890625
1182,790.5494384765625,794.1758422851562,806.2637329101562,795.7875366210938
1183,803.040283203125,796.1904907226562,804.6520385742188,795.3846435546875
1184,802.2344360351562,794.981689453125,797.3992919921875,804.2490844726562
1185,794.5787353515625,796.1904907226562,798.2051391601562,801.025634765625
1186,784.5054931640625,799.8168334960938,801.025634765625,787.3259887695312
1187,784.908447265625,798.6080322265625,801.025634765625,785.3113403320312
1188,794.5787353515625,802.6373901367188,799.8168334960938,796.1904907226562
1189,801.4285888671875,805.054931640625,797.3992919921875,797.3992919921875
1190,799.010986328125,800.6226806640625,798.2051391601562,795.3846435546875
1191,793.7728881835938,800.2197875976562,796.996337890625,800.2197875976562
1192,791.3552856445312,796.5933837890625,794.5787353515625,798.2051391601562
1193,787.7289428710938,794.981689453125,796.5933837890625,788.937744140625
1194,790.5494384765625,794.981689453125,797.3992919921875,790.1465454101562
1195,789.3406372070312,790.5494384765625,794.981689453125,786.923095703125
1196,781.2820434570312,790.1465454101562,794.981689453125,778.8644409179688
1197,782.087890625,790.5494384765625,797.8021850585938,784.5054931640625
1198,789.3406372070312,787.3259887695312,797.8021850585938,786.1171875
1199,794.1758422851562,790.952392578125,789.7435913085938,789.7435913085938
1200,794.1758422851562,796.5933837890625,792.1611938476562,793.7728881835938
1201,788.937744140625,797.3992919921875,796.996337890625,788.5347900390625
1202,789.3406372070312,795.7875366210938,793.7728881835938,784.908447265625
1203,788.937744140625,788.5347900390625,796.1904907226562,789.3406372070312
1204,785.3113403320312,788.1318969726562,796.5933837890625,788.1318969726562
1205,791.7582397460938,792.967041015625,797.3992919921875,783.2966918945312
1206,797.8021850585938,788.1318969726562,796.1904907226562,782.087890625
1207,793.7728881835938,785.3113403320312,794.5787353515625,782.893798828125
1208,781.2820434570312,784.908447265625,791.3552856445312,785.7142944335938
1209,780.0732421875,789.7435913085938,791.7582397460938,786.5201416015625
1210,782.893798828125,789.7435913085938,793.3699340820312,788.1318969726562
1211,779.6703491210938,780.0732421875,792.1611938476562,787.7289428710938
1212,778.05859375,782.4908447265625,792.1611938476562,791.7582397460938
1213,784.908447265625,792.5640869140625,793.3699340820312,791.3552856445312
1214,790.1465454101562,795.3846435546875,793.3699340820312,791.3552856445312
1215,789.7435913085938,793.7728881835938,792.967041015625,805.8607788085938
1216,786.1171875,790.5494384765625,793.7728881835938,803.8461303710938
1217,780.879150390625,788.1318969726562,792.967041015625,798.2051391601562
1218,781.6849975585938,789.7435913085938,793.3699340820312,803.4432373046875
1219,788.937744140625,790.952392578125,794.5787353515625,793.3699340820312
1220,787.3259887695312,793.7728881835938,793.3699340820312,780.879150390625
1221,784.1025390625,793.7728881835938,793.3699340820312,786.5201416015625
1222,786.923095703125,795.7875366210938,794.1758422851562,790.5494384765625
1223,785.3113403320312,794.1758422851562,790.1465454101562,783.2966918945312
1224,786.5201416015625,793.7728881835938,795.3846435546875,785.7142944335938
1225,791.7582397460938,797.8021850585938,799.8168334960938,788.5347900390625
1226,784.1025390625,794.1758422851562,799.4139404296875,788.937744140625
1227,781.2820434570312,793.3699340820312,800.2197875976562,789.7435913085938
1228,787.3259887695312,795.3846435546875,801.025634765625,790.5494384765625
1229,792.5640869140625,792.967041015625,798.2051391601562,791.3552856445312
1230,794.5787353515625,792.1611938476562,797.3992919921875,799.010986328125
1231,788.1318969726562,788.1318969726562,797.3992919921875,799.8168334960938
1232,787.7289428710938,791.7582397460938,791.3552856445312,795.3846435546875
1233,792.1611938476562,797.8021850585938,789.3406372070312,789.3406372070312
1234,788.5347900390625,792.967041015625,790.952392578125,784.5054931640625
1235,781.6849975585938,794.1758422851562,790.1465454101562,784.5054931640625
1236,781.6849975585938,799.4139404296875,789.7435913085938,782.893798828125
1237,780.4761962890625,796.1904907226562,790.1465454101562,783.6996459960938
1238,778.05859375,792.967041015625,789.3406372070312,788.937744140625
1239,779.6703491210938,798.6080322265625,791.3552856445312,786.1171875
1240,789.3406372070312,803.8461303710938,795.7875366210938,790.1465454101562
1241,791.7582397460938,803.8461303710938,796.1904907226562,793.3699340820312
1242,784.5054931640625,799.010986328125,796.996337890625,793.3699340820312
1243,788.1318969726562,793.3699340820312,796.5933837890625,795.7875366210938
1244,795.3846435546875,791.7582397460938,797.3992919921875,790.1465454101562
1245,799.4139404296875,797.3992919921875,797.3992919921875,789.7435913085938
1246,801.025634765625,802.2344360351562,802.2344360351562,793.3699340820312
1247,801.025634765625,799.8168334960938,800.6226806640625,789.7435913085938
1248,797.3992919921875,799.8168334960938,793.7728881835938,784.908447265625
1249,792.5640869140625,798.6080322265625,794.1758422851562,790.5494384765625
1250,790.5494384765625,795.3846435546875,791.7582397460938,796.5933837890625
1251,789.7435913085938,793.7728881835938,793.7728881835938,792.5640869140625
1252,788.1318969726562,794.5787353515625,794.981689453125,791.3552856445312
1253,790.952392578125,792.5640869140625,795.7875366210938,795.7875366210938
1254,794.1758422851562,790.5494384765625,799.4139404296875,800.6226806640625
1255,794.1758422851562,790.5494384765625,799.010986328125,792.967041015625
1256,795.7875366210938,791.3552856445312,796.1904907226562,788.937744140625
1257,794.981689453125,792.5640869140625,797.3992919921875,785.7142944335938
1258,794.981689453125,789.3406372070312,799.4139404296875,785.3113403320312
1259,794.1758422851562,790.1465454101562,797.3992919921875,783.6996459960938
1260,791.7582397460938,789.7435913085938,794.1758422851562,778.8644409179688
1261,789.7435913085938,782.893798828125,794.5787353515625,788.1318969726562
1262,779.2673950195312,785.7142944335938,794.981689453125,789.7435913085938
1263,781.2820434570312,789.7435913085938,794.981689453125,788.1318969726562
1264,791.3552856445312,792.1611938476562,799.8168334960938,795.3846435546875
1265,794.5787353515625,794.981689453125,801.025634765625,798.2051391601562
1266,788.5347900390625,786.1171875,796.1904907226562,792.967041015625
1267,786.923095703125,781.2820434570312,790.1465454101562,787.3259887695312
1268,787.7289428710938,788.1318969726562,792.5640869140625,788.937744140625
1269,786.923095703125,791.3552856445312,798.6080322265625,791.7582397460938
1270,790.1465454101562,791.7582397460938,797.3992919921875,795.7875366210938
1271,788.937744140625,790.5494384765625,792.1611938476562,796.1904907226562
1272,790.1465454101562,786.1171875,790.1465454101562,798.6080322265625
1273,791.7582397460938,789.7435913085938,789.7435913085938,798.6080322265625
1274,792.1611938476562,794.981689453125,792.967041015625,791.7582397460938
1275,792.967041015625,794.5787353515625,796.1904907226562,792.5640869140625
1276,791.7582397460938,790.952392578125,792.5640869140625,794.981689453125
1277,792.967041015625,795.3846435546875,790.952392578125,792.5640869140625
1278,795.7875366210938,801.8314819335938,795.7875366210938,793.3699340820312
1279,790.952392578125,790.1465454101562,791.3552856445312,794.1758422851562
1280,793.3699340820312,788.1318969726562,787.3259887695312,799.010986328125
1281,796.5933837890625,797.8021850585938,792.5640869140625,805.4578857421875
1282,794.5787353515625,799.4139404296875,799.4139404296875,806.2637329101562
1283,795.7875366210938,801.025634765625,799.4139404296875,806.2637329101562
1284,790.952392578125,796.996337890625,791.7582397460938,805.4578857421875
1285,787.3259887695312,792.967041015625,793.3699340820312,794.981689453125
1286,786.5201416015625,793.7728881835938,794.981689453125,790.1465454101562
1287,788.937744140625,795.3846435546875,790.952392578125,788.5347900390625
1288,783.6996459960938,793.3699340820312,792.1611938476562,783.6996459960938
1289,783.2966918945312,794.5787353515625,792.1611938476562,786.1171875
1290,792.1611938476562,790.5494384765625,791.3552856445312,787.7289428710938
1291,791.7582397460938,788.5347900390625,790.5494384765625,783.6996459960938
1292,790.5494384765625,797.8021850585938,789.7435913085938,787.7289428710938
1293,793.7728881835938,800.2197875976562,794.1758422851562,788.1318969726562
1294,794.5787353515625,794.5787353515625,795.7875366210938,787.3259887695312
1295,794.981689453125,788.937744140625,792.5640869140625,788.1318969726562
1296,797.3992919921875,788.5347900390625,790.5494384765625,792.1611938476562
1297,794.5787353515625,794.981689453125,794.5787353515625,794.981689453125
1298,789.3406372070312,798.6080322265625,794.1758422851562,796.1904907226562
1299,790.952392578125,794.981689453125,784.5054931640625,802.6373901367188
1300,797.8021850585938,791.3552856445312,786.1171875,800.2197875976562
1301,801.8314819335938,791.7582397460938,792.967041015625,794.5787353515625
1302,799.010986328125,788.937744140625,793.7728881835938,798.2051391601562
1303,791.3552856445312,788.937744140625,793.7728881835938,803.040283203125
1304,795.3846435546875,792.1611938476562,796.5933837890625,800.6226806640625
1305,804.6520385742188,791.3552856445312,794.981689453125,795.3846435546875
1306,800.6226806640625,794.1758422851562,793.7728881835938,794.5787353515625
1307,788.937744140625,792.1611938476562,797.3992919921875,795.7875366210938
1308,788.5347900390625,789.3406372070312,796.5933837890625,798.2051391601562
1309,792.5640869140625,794.1758422851562,791.3552856445312,796.1904907226562
1310,796.5933837890625,792.967041015625,788.937744140625,794.5787353515625
1311,796.5933837890625,785.3113403320312,792.1611938476562,798.2051391601562
1312,786.923095703125,778.8644409179688,789.7435913085938,790.1465454101562
1313,784.908447265625,780.0732421875,788.1318969726562,789.3406372070312
1314,786.5201416015625,786.5201416015625,792.5640869140625,794.5787353515625
1315,785.7142944335938,785.7142944335938,793.7728881835938,791.3552856445312
1316,784.1025390625,789.7435913085938,792.967041015625,788.937744140625
1317,782.4908447265625,792.5640869140625,795.3846435546875,789.3406372070312
1318,782.087890625,788.937744140625,798.2051391601562,794.1758422851562
1319,788.1318969726562,786.5201416015625,801.8314819335938,792.967041015625
1320,795.3846435546875,789.3406372070312,801.025634765625,790.952392578125
1321,790.1465454101562,794.1758422851562,798.2051391601562,793.7728881835938
1322,786.1171875,794.5787353515625,794.5787353515625,800.6226806640625
1323,784.908447265625,789.7435913085938,793.3699340820312,801.8314819335938
1324,784.908447265625,786.923095703125,796.1904907226562,793.7728881835938
1325,786.5201416015625,787.3259887695312,797.8021850585938,796.1904907226562
1326,784.908447265625,791.3552856445312,798.2051391601562,799.4139404296875
1327,788.1318969726562,792.967041015625,796.996337890625,801.8314819335938
1328,795.7875366210938,791.7582397460938,791.3552856445312,811.90478515625
1329,794.1758422851562,791.3552856445312,788.937744140625,812.3076782226562
1330,779.6703491210938,794.1758422851562,794.981689453125,793.7728881835938
1331,775.2380981445312,792.5640869140625,795.3846435546875,785.7142944335938
1332,790.952392578125,789.7435913085938,796.5933837890625,797.3992919921875
1333,796.1904907226562,789.3406372070312,799.8168334960938,802.2344360351562
1334,790.1465454101562,792.967041015625,794.5787353515625,798.6080322265625
1335,788.937744140625,794.981689453125,790.952392578125,790.1465454101562
1336,788.1318969726562,793.3699340820312,792.5640869140625,785.3113403320312
1337,789.3406372070312,792.5640869140625,791.3552856445312,785.7142944335938
1338,796.5933837890625,797.3992919921875,792.1611938476562,789.7435913085938
1339,793.3699340820312,795.3846435546875,796.1904907226562,788.5347900390625
1340,787.3259887695312,790.5494384765625,795.3846435546875,781.6849975585938
1341,785.7142944335938,790.1465454101562,792.967041015625,778.4615478515625
1342,788.937744140625,791.7582397460938,790.952392578125,782.087890625
1343,793.7728881835938,793.7728881835938,792.1611938476562,788.937744140625
1344,792.967041015625,796.996337890625,796.1904907226562,798.6080322265625
1345,796.996337890625,793.3699340820312,792.967041015625,805.8607788085938
1346,805.4578857421875,789.3406372070312,792.1611938476562,807.069580078125
1347,803.8461303710938,792.1611938476562,791.3552856445312,798.2051391601562
1348,801.025634765625,794.5787353515625,784.908447265625,797.8021850585938
1349,798.2051391601562,795.3846435546875,784.908447265625,796.5933837890625
1350,796.1904907226562,793.7728881835938,787.7289428710938,791.7582397460938
1351,800.6226806640625,788.5347900390625,785.7142944335938,795.7875366210938
1352,797.8021850585938,793.3699340820312,789.3406372070312,799.010986328125
1353,796.1904907226562,796.1904907226562,796.996337890625,800.2197875976562
1354,799.4139404296875,794.5787353515625,799.010986328125,800.6226806640625
1355,796.5933837890625,796.1904907226562,795.3846435546875,796.5933837890625
1356,796.1904907226562,794.1758422851562,796.5933837890625,792.1611938476562
1357,805.8607788085938,792.967041015625,794.1758422851562,798.6080322265625
1358,800.6226806640625,793.7728881835938,790.1465454101562,799.8168334960938
1359,787.7289428710938,792.967041015625,796.1904907226562,790.5494384765625
1360,787.3259887695312,790.1465454101562,798.6080322265625,784.908447265625
1361,789.7435913085938,790.1465454101562,796.1904907226562,788.5347900390625
1362,791.7582397460938,788.937744140625,791.7582397460938,792.5640869140625
1363,797.3992919921875,787.3259887695312,795.3846435546875,793.7728881835938
1364,794.1758422851562,784.5054931640625,801.4285888671875,796.5933837890625
1365,792.5640869140625,781.6849975585938,798.2051391601562,796.5933837890625
1366,795.7875366210938,789.7435913085938,793.3699340820312,796.996337890625
1367,801.8314819335938,791.7582397460938,792.5640869140625,800.2197875976562
1368,802.2344360351562,786.5201416015625,792.5640869140625,801.4285888671875
1369,793.7728881835938,786.5201416015625,795.7875366210938,801.025634765625
1370,789.3406372070312,788.937744140625,796.996337890625,803.040283203125
1371,791.3552856445312,793.3699340820312,797.8021850585938,803.4432373046875
1372,793.7728881835938,793.3699340820312,798.6080322265625,802.2344360351562
1373,788.5347900390625,785.7142944335938,797.8021850585938,795.7875366210938
1374,786.923095703125,783.2966918945312,796.1904907226562,784.5054931640625
1375,787.3259887695312,788.937744140625,794.1758422851562,784.1025390625
1376,788.937744140625,787.7289428710938,790.5494384765625,790.952392578125
1377,794.1758422851562,784.1025390625,787.3259887695312,792.967041015625
1378,794.981689453125,791.3552856445312,787.3259887695312,786.923095703125
1379,791.3552856445312,795.7875366210938,786.1171875,783.6996459960938
1380,790.1465454101562,788.5347900390625,790.1465454101562,790.5494384765625
1381,784.908447265625,793.3699340820312,793.3699340820312,785.7142944335938
1382,786.923095703125,800.6226806640625,787.3259887695312,780.0732421875
1383,792.1611938476562,800.6226806640625,788.937744140625,784.1025390625
1384,790.1465454101562,798.2051391601562,789.3406372070312,785.7142944335938
1385,791.3552856445312,796.1904907226562,789.3406372070312,787.7289428710938
1386,789.3406372070312,792.5640869140625,794.1758422851562,782.4908447265625
1387,786.923095703125,794.5787353515625,794.5787353515625,783.6996459960938
1388,795.3846435546875,794.1758422851562,794.981689453125,788.5347900390625
1389,803.040283203125,787.7289428710938,793.7728881835938,787.7289428710938
1390,801.4285888671875,790.952392578125,792.967041015625,792.5640869140625
1391,798.6080322265625,793.3699340820312,792.1611938476562,800.6226806640625
1392,797.3992919921875,795.7875366210938,792.967041015625,799.8168334960938
1393,795.7875366210938,795.3846435546875,792.967041015625,799.8168334960938
1394,801.8314819335938,795.3846435546875,794.981689453125,807.069580078125
1395,799.010986328125,793.3699340820312,794.1758422851562,808.6813354492188
1396,795.3846435546875,788.937744140625,794.1758422851562,799.010986328125
1397,796.996337890625,793.3699340820312,794.1758422851562,794.5787353515625
1398,799.4139404296875,791.3552856445312,793.3699340820312,794.1758422851562
1399,803.4432373046875,790.1465454101562,797.3992919921875,796.5933837890625
1400,798.6080322265625,792.5640869140625,796.996337890625,796.5933837890625
1401,796.5933837890625,788.5347900390625,796.996337890625,795.3846435546875
1402,799.010986328125,792.967041015625,793.3699340820312,796.996337890625
1403,797.8021850585938,793.7728881835938,790.5494384765625,805.054931640625
1404,792.5640869140625,796.1904907226562,792.1611938476562,798.2051391601562
1405,793.3699340820312,804.6520385742188,794.981689453125,784.908447265625
1406,797.3992919921875,804.2490844726562,795.7875366210938,788.1318969726562
1407,796.1904907226562,802.2344360351562,786.923095703125,795.7875366210938
1408,795.3846435546875,801.8314819335938,788.937744140625,792.5640869140625
1409,797.3992919921875,801.4285888671875,794.5787353515625,793.3699340820312
1410,796.5933837890625,796.996337890625,792.1611938476562,792.5640869140625
1411,790.5494384765625,794.1758422851562,789.7435913085938,782.087890625
1412,785.3113403320312,795.7875366210938,789.3406372070312,786.1171875
1413,794.981689453125,793.7728881835938,791.3552856445312,796.996337890625
1414,801.025634765625,790.952392578125,791.3552856445312,798.2051391601562
1415,800.6226806640625,796.5933837890625,790.1465454101562,802.6373901367188
1416,794.981689453125,796.996337890625,792.5640869140625,801.025634765625
1417,795.3846435546875,790.952392578125,796.5933837890625,800.6226806640625
1418,801.025634765625,795.7875366210938,792.1611938476562,803.8461303710938
1419,793.7728881835938,799.010986328125,789.3406372070312,805.4578857421875
1420,791.3552856445312,797.3992919921875,794.5787353515625,802.2344360351562
1421,794.981689453125,793.7728881835938,795.7875366210938,793.7728881835938
1422,792.1611938476562,791.3552856445312,792.967041015625,791.3552856445312
1423,789.7435913085938,794.1758422851562,791.3552856445312,788.937744140625
1424,794.1758422851562,792.5640869140625,794.981689453125,788.937744140625
1425,796.996337890625,791.7582397460938,797.3992919921875,793.3699340820312
1426,790.1465454101562,793.7728881835938,791.7582397460938,791.3552856445312
1427,790.952392578125,791.7582397460938,792.5640869140625,786.923095703125
1428,793.3699340820312,788.5347900390625,793.7728881835938,778.8644409179688
1429,790.1465454101562,780.879150390625,788.5347900390625,772.0146484375
1430,794.1758422851562,785.3113403320312,785.7142944335938,785.3113403320312
1431,792.5640869140625,793.3699340820312,784.1025390625,788.937744140625
1432,789.7435913085938,793.3699340820312,786.923095703125,783.2966918945312
1433,793.7728881835938,793.7728881835938,790.1465454101562,795.3846435546875
1434,793.7728881835938,792.5640869140625,788.937744140625,800.2197875976562
1435,786.1171875,790.1465454101562,786.923095703125,797.8021850585938
1436,786.1171875,792.1611938476562,787.3259887695312,796.996337890625
1437,787.3259887695312,794.981689453125,791.3552856445312,791.7582397460938
1438,785.7142944335938,794.1758422851562,790.952392578125,792.5640869140625
1439,785.3113403320312,791.3552856445312,786.5201416015625,789.3406372070312
1440,788.1318969726562,791.7582397460938,788.937744140625,788.5347900390625
1441,793.3699340820312,782.4908447265625,792.967041015625,796.996337890625
1442,788.937744140625,782.893798828125,790.952392578125,800.2197875976562
1443,784.1025390625,794.5787353515625,792.5640869140625,797.3992919921875
1444,786.5201416015625,797.3992919921875,796.1904907226562,796.5933837890625
1445,788.5347900390625,797.3992919921875,794.981689453125,797.3992919921875
1446,792.1611938476562,799.4139404296875,795.3846435546875,797.8021850585938
1447,798.6080322265625,802.2344360351562,796.996337890625,797.3992919921875
1448,801.025634765625,801.8314819335938,795.3846435546875,805.4578857421875
1449,804.6520385742188,799.8168334960938,794.5787353515625,810.6959838867188
1450,801.4285888671875,799.8168334960938,794.981689453125,805.8607788085938
1451,793.7728881835938,803.4432373046875,793.3699340820312,790.952392578125
1452,792.5640869140625,801.4285888671875,797.8021850585938,789.7435913085938
1453,798.6080322265625,796.996337890625,800.2197875976562,805.054931640625
1454,799.8168334960938,798.6080322265625,794.981689453125,795.3846435546875
1455,802.6373901367188,793.7728881835938,788.5347900390625,788.5347900390625
1456,809.084228515625,789.3406372070312,787.3259887695312,801.025634765625
1457,808.2783813476562,795.3846435546875,791.7582397460938,805.4578857421875
1458,797.8021850585938,796.5933837890625,792.5640869140625,803.040283203125
1459,792.967041015625,797.3992919921875,791.7582397460938,796.1904907226562
1460,796.5933837890625,799.8168334960938,794.5787353515625,796.1904907226562
1461,796.996337890625,798.6080322265625,793.7728881835938,796.996337890625
1462,796.996337890625,794.1758422851562,788.5347900390625,794.5787353515625
1463,791.7582397460938,786.5201416015625,788.937744140625,789.7435913085938
1464,784.908447265625,785.3113403320312,790.1465454101562,794.5787353515625
1465,790.952392578125,793.3699340820312,788.5347900390625,801.8314819335938
1466,798.2051391601562,796.996337890625,791.3552856445312,792.967041015625
1467,799.010986328125,795.3846435546875,792.967041015625,794.1758422851562
1468,799.8168334960938,791.3552856445312,794.981689453125,803.4432373046875
1469,797.3992919921875,794.1758422851562,798.2051391601562,804.2490844726562
1470,796.5933837890625,799.4139404296875,793.7728881835938,799.010986328125
1471,803.4432373046875,796.996337890625,791.3552856445312,800.2197875976562
1472,807.4725341796875,798.6080322265625,796.996337890625,805.8607788085938
1473,800.6226806640625,799.4139404296875,794.1758422851562,802.2344360351562
1474,792.1611938476562,793.3699340820312,788.1318969726562,795.3846435546875
1475,797.8021850585938,791.3552856445312,789.3406372070312,797.8021850585938
1476,809.4871826171875,793.7728881835938,790.952392578125,798.6080322265625
1477,808.6813354492188,796.996337890625,792.1611938476562,793.7728881835938
1478,801.8314819335938,796.5933837890625,793.7728881835938,790.952392578125
1479,801.8314819335938,790.952392578125,793.7728881835938,791.3552856445312
1480,803.8461303710938,787.7289428710938,796.5933837890625,795.3846435546875
1481,799.8168334960938,790.952392578125,798.6080322265625,796.996337890625
1482,790.952392578125,792.1611938476562,797.8021850585938,798.2051391601562
1483,782.893798828125,790.952392578125,793.7728881835938,794.1758422851562
1484,780.4761962890625,795.3846435546875,790.5494384765625,785.3113403320312
1485,779.2673950195312,796.1904907226562,792.967041015625,780.879150390625
1486,782.087890625,792.5640869140625,792.5640869140625,779.6703491210938
1487,786.923095703125,787.7289428710938,792.1611938476562,786.1171875
1488,792.5640869140625,789.3406372070312,796.5933837890625,801.025634765625
1489,788.1318969726562,799.4139404296875,797.3992919921875,801.8314819335938
1490,785.3113403320312,798.6080322265625,797.8021850585938,795.7875366210938
1491,788.937744140625,788.937744140625,796.1904907226562,795.3846435546875
1492,796.5933837890625,786.923095703125,792.5640869140625,788.1318969726562
1493,806.2637329101562,791.7582397460938,790.952392578125,784.5054931640625
1494,806.6666870117188,794.981689453125,795.3846435546875,789.7435913085938
1495,804.6520385742188,796.1904907226562,798.2051391601562,791.3552856445312
1496,803.4432373046875,792.5640869140625,796.1904907226562,788.1318969726562
1497,803.4432373046875,792.967041015625,796.5933837890625,795.3846435546875
1498,799.4139404296875,797.3992919921875,797.3992919921875,801.025634765625
1499,793.7728881835938,794.981689453125,800.2197875976562,799.4139404296875
1500,792.967041015625,790.952392578125,799.8168334960938,799.010986328125
1501,792.967041015625,787.7289428710938,798.6080322265625,801.025634765625
1502,796.996337890625,783.2966918945312,799.010986328125,806.2637329101562
1503,796.996337890625,784.5054931640625,796.1904907226562,812.7106323242188
1504,781.2820434570312,789.7435913085938,794.1758422851562,800.2197875976562
1505,781.6849975585938,795.3846435546875,797.3992919921875,789.3406372070312
1506,790.952392578125,791.7582397460938,799.8168334960938,795.7875366210938
1507,788.1318969726562,793.7728881835938,801.8314819335938,790.952392578125
1508,784.908447265625,800.6226806640625,801.4285888671875,788.5347900390625
1509,790.1465454101562,794.5787353515625,798.2051391601562,793.7728881835938
1510,792.5640869140625,788.937744140625,796.5933837890625,793.3699340820312
1511,790.1465454101562,790.5494384765625,803.8461303710938,792.5640869140625
1512,790.1465454101562,788.5347900390625,805.054931640625,790.5494384765625
1513,790.5494384765625,784.908447265625,801.4285888671875,794.981689453125
1514,790.5494384765625,792.1611938476562,799.010986328125,792.967041015625
1515,790.952392578125,795.7875366210938,795.3846435546875,788.937744140625
1516,793.7728881835938,789.7435913085938,795.7875366210938,790.952392578125
1517,796.996337890625,791.7582397460938,798.6080322265625,791.7582397460938
1518,793.7728881835938,791.3552856445312,796.996337890625,796.1904907226562
1519,793.7728881835938,785.3113403320312,795.7875366210938,798.6080322265625
1520,795.7875366210938,790.1465454101562,794.5787353515625,798.6080322265625
1521,799.8168334960938,799.8168334960938,799.010986328125,802.2344360351562
1522,805.4578857421875,794.981689453125,798.6080322265625,812.3076782226562
1523,806.6666870117188,791.7582397460938,796.1904907226562,814.3223266601562
1524,801.025634765625,790.5494384765625,801.4285888671875,799.4139404296875
1525,801.025634765625,792.1611938476562,799.4139404296875,788.937744140625
1526,798.2051391601562,795.7875366210938,794.5787353515625,785.7142944335938
1527,786.5201416015625,792.1611938476562,794.981689453125,782.893798828125
1528,787.7289428710938,790.1465454101562,797.3992919921875,792.5640869140625
1529,792.967041015625,789.3406372070312,797.3992919921875,796.1904907226562
1530,798.2051391601562,791.3552856445312,797.3992919921875,795.3846435546875
1531,793.3699340820312,791.3552856445312,796.1904907226562,794.1758422851562
1532,785.7142944335938,788.1318969726562,791.7582397460938,792.1611938476562
1533,786.923095703125,785.7142944335938,792.1611938476562,792.5640869140625
1534,786.5201416015625,789.7435913085938,794.981689453125,792.967041015625
1535,785.7142944335938,790.1465454101562,798.6080322265625,792.1611938476562
1536,783.2966918945312,783.6996459960938,798.6080322265625,784.908447265625
1537,786.923095703125,785.3113403320312,795.3846435546875,788.1318969726562
1538,792.967041015625,788.937744140625,794.5787353515625,795.7875366210938
1539,794.5787353515625,791.7582397460938,791.7582397460938,790.1465454101562
1540,794.1758422851562,790.952392578125,790.5494384765625,782.4908447265625
1541,799.4139404296875,790.1465454101562,794.981689453125,787.7289428710938
1542,804.6520385742188,794.981689453125,796.5933837890625,790.952392578125
1543,799.8168334960938,793.3699340820312,792.1611938476562,785.7142944335938
1544,802.2344360351562,793.3699340820312,790.1465454101562,785.3113403320312
1545,802.6373901367188,790.5494384765625,791.7582397460938,787.3259887695312
1546,799.010986328125,781.6849975585938,794.1758422851562,789.3406372070312
1547,799.8168334960938,782.087890625,791.7582397460938,792.5640869140625
1548,803.040283203125,788.1318969726562,792.5640869140625,796.1904907226562
1549,803.040283203125,791.7582397460938,794.981689453125,801.4285888671875
1550,806.2637329101562,796.5933837890625,797.8021850585938,802.2344360351562
1551,809.084228515625,794.1758422851562,799.8168334960938,806.6666870117188
1552,799.4139404296875,787.7289428710938,794.981689453125,808.6813354492188
1553,797.3992919921875,790.5494384765625,793.7728881835938,804.2490844726562
1554,801.4285888671875,791.3552856445312,796.1904907226562,801.025634765625
1555,796.996337890625,790.5494384765625,795.3846435546875,799.010986328125
1556,794.5787353515625,789.3406372070312,793.3699340820312,801.4285888671875
1557,796.996337890625,785.7142944335938,795.3846435546875,801.4285888671875
1558,793.3699340820312,786.923095703125,795.3846435546875,797.8021850585938
1559,789.3406372070312,790.5494384765625,790.5494384765625,796.996337890625
1560,788.5347900390625,789.3406372070312,790.952392578125,798.2051391601562
1561,791.7582397460938,787.7289428710938,793.3699340820312,793.7728881835938
1562,788.1318969726562,786.923095703125,787.7289428710938,783.6996459960938
1563,791.7582397460938,792.967041015625,786.923095703125,778.8644409179688
1564,796.996337890625,794.5787353515625,795.3846435546875,779.6703491210938
1565,792.5640869140625,792.5640869140625,791.7582397460938,781.6849975585938
1566,788.937744140625,790.952392578125,786.1171875,783.2966918945312
1567,794.1758422851562,791.7582397460938,781.6849975585938,784.5054931640625
1568,801.025634765625,799.8168334960938,783.6996459960938,792.5640869140625
1569,796.996337890625,800.2197875976562,790.952392578125,791.7582397460938
1570,789.7435913085938,794.981689453125,792.5640869140625,789.3406372070312
1571,792.5640869140625,795.3846435546875,794.1758422851562,792.967041015625
1572,791.3552856445312,792.967041015625,792.1611938476562,801.4285888671875
1573,788.1318969726562,794.5787353515625,792.967041015625,802.2344360351562
1574,787.3259887695312,798.6080322265625,794.981689453125,794.5787353515625
1575,790.1465454101562,798.6080322265625,795.3846435546875,799.4139404296875
1576,789.3406372070312,791.7582397460938,794.981689453125,797.8021850585938
1577,781.2820434570312,786.1171875,791.7582397460938,788.5347900390625
1578,780.4761962890625,791.7582397460938,794.1758422851562,787.3259887695312
1579,776.0439453125,796.996337890625,796.5933837890625,791.3552856445312
