timestamp,RAW_TP9,RAW_AF7,RAW_AF8,RAW_TP10
1,783.6996459960938,794.5787353515625,798.2051391601562,783.2966918945312
2,785.3113403320312,795.3846435546875,798.2051391601562,784.5054931640625
3,790.5494384765625,793.7728881835938,793.3699340820312,782.087890625
4,793.7728881835938,794.5787353515625,792.967041015625,786.1171875
5,794.5787353515625,795.7875366210938,794.981689453125,798.6080322265625
6,796.1904907226562,796.5933837890625,794.981689453125,791.3552856445312
7,793.7728881835938,794.5787353515625,795.3846435546875,779.6703491210938
8,790.952392578125,789.7435913085938,796.996337890625,780.0732421875
9,793.3699340820312,791.7582397460938,795.3846435546875,787.7289428710938
10,799.4139404296875,796.996337890625,796.1904907226562,791.7582397460938
11,800.2197875976562,796.996337890625,796.996337890625,795.7875366210938
12,795.3846435546875,791.7582397460938,797.3992919921875,794.1758422851562
13,794.981689453125,789.3406372070312,798.2051391601562,788.5347900390625
14,795.3846435546875,792.967041015625,791.7582397460938,788.937744140625
15,792.967041015625,792.1611938476562,791.3552856445312,786.5201416015625
16,790.5494384765625,790.5494384765625,796.996337890625,792.1611938476562
17,784.908447265625,792.1611938476562,796.5933837890625,796.996337890625
18,780.879150390625,789.3406372070312,796.5933837890625,786.1171875
19,782.893798828125,787.7289428710938,798.2051391601562,787.3259887695312
20,780.0732421875,788.937744140625,799.010986328125,788.5347900390625
21,784.908447265625,792.5640869140625,797.8021850585938,788.937744140625
22,791.3552856445312,792.967041015625,794.5787353515625,782.4908447265625
23,785.7142944335938,788.5347900390625,794.1758422851562,780.879150390625
24,784.5054931640625,785.3113403320312,792.967041015625,779.6703491210938
25,790.1465454101562,786.923095703125,792.967041015625,778.4615478515625
26,786.923095703125,788.5347900390625,795.3846435546875,793.7728881835938
27,781.2820434570312,784.1025390625,794.5787353515625,794.981689453125
28,787.3259887695312,787.3259887695312,796.1904907226562,794.1758422851562
29,791.3552856445312,788.5347900390625,796.5933837890625,790.5494384765625
30,799.4139404296875,790.5494384765625,792.5640869140625,786.923095703125
31,801.8314819335938,791.3552856445312,792.967041015625,793.7728881835938
32,791.7582397460938,789.3406372070312,794.5787353515625,794.981689453125
33,790.5494384765625,794.5787353515625,790.952392578125,792.5640869140625
34,794.5787353515625,796.1904907226562,791.7582397460938,794.981689453125
35,800.2197875976562,796.1904907226562,794.1758422851562,797.8021850585938
36,800.2197875976562,793.7728881835938,792.967041015625,791.7582397460938
37,791.7582397460938,787.3259887695312,790.5494384765625,785.7142944335938
38,785.7142944335938,784.1025390625,790.952392578125,785.3113403320312
39,792.5640869140625,791.3552856445312,794.1758422851562,785.7142944335938
40,796.996337890625,791.7582397460938,794.5787353515625,790.1465454101562
41,792.1611938476562,791.7582397460938,796.1904907226562,797.3992919921875
42,790.952392578125,797.3992919921875,800.2197875976562,789.7435913085938
43,784.1025390625,791.7582397460938,796.996337890625,779.6703491210938
44,784.5054931640625,786.5201416015625,791.7582397460938,781.2820434570312
45,785.3113403320312,785.3113403320312,791.7582397460938,782.4908447265625
46,789.7435913085938,790.1465454101562,792.967041015625,780.4761962890625
47,797.8021850585938,792.967041015625,796.1904907226562,783.6996459960938
48,791.3552856445312,792.967041015625,796.1904907226562,788.1318969726562
49,789.7435913085938,793.3699340820312,794.981689453125,784.5054931640625
50,792.967041015625,790.952392578125,793.7728881835938,784.1025390625
51,794.5787353515625,790.1465454101562,790.952392578125,786.5201416015625
52,791.3552856445312,790.952392578125,792.5640869140625,778.8644409179688
53,782.4908447265625,789.7435913085938,793.3699340820312,776.4468994140625
54,782.4908447265625,790.5494384765625,792.1611938476562,782.4908447265625
55,788.5347900390625,790.952392578125,794.5787353515625,782.4908447265625
56,791.3552856445312,787.7289428710938,800.6226806640625,788.937744140625
57,796.5933837890625,794.5787353515625,807.069580078125,798.6080322265625
58,788.937744140625,798.2051391601562,808.2783813476562,802.2344360351562
59,776.4468994140625,796.5933837890625,803.4432373046875,790.5494384765625
60,782.893798828125,795.3846435546875,801.8314819335938,780.0732421875
61,788.1318969726562,798.2051391601562,803.8461303710938,788.1318969726562
62,785.3113403320312,799.010986328125,801.4285888671875,792.967041015625
63,781.2820434570312,794.1758422851562,797.8021850585938,787.7289428710938
64,778.05859375,792.967041015625,794.981689453125,781.2820434570312
65,786.923095703125,795.7875366210938,800.2197875976562,782.893798828125
66,791.3552856445312,799.010986328125,802.2344360351562,791.7582397460938
67,790.952392578125,803.4432373046875,801.025634765625,797.8021850585938
68,788.937744140625,805.4578857421875,800.2197875976562,787.3259887695312
69,788.5347900390625,805.4578857421875,796.996337890625,786.1171875
70,791.3552856445312,805.8607788085938,794.1758422851562,788.5347900390625
71,790.5494384765625,803.4432373046875,795.3846435546875,784.5054931640625
72,787.3259887695312,797.3992919921875,792.967041015625,780.0732421875
73,780.879150390625,796.1904907226562,786.923095703125,775.2380981445312
74,780.4761962890625,796.1904907226562,786.923095703125,781.6849975585938
75,784.5054931640625,794.981689453125,791.3552856445312,788.937744140625
76,786.923095703125,790.5494384765625,792.1611938476562,777.6557006835938
77,790.952392578125,785.7142944335938,787.3259887695312,774.8351440429688
78,785.7142944335938,785.7142944335938,784.5054931640625,776.0439453125
79,786.5201416015625,788.1318969726562,782.893798828125,778.05859375
80,792.967041015625,790.1465454101562,784.5054931640625,778.4615478515625
81,794.5787353515625,788.5347900390625,786.923095703125,782.893798828125
82,792.1611938476562,787.3259887695312,787.7289428710938,793.3699340820312
83,788.1318969726562,789.3406372070312,791.3552856445312,788.937744140625
84,797.8021850585938,795.3846435546875,791.3552856445312,784.908447265625
85,803.4432373046875,796.5933837890625,791.3552856445312,783.2966918945312
86,794.1758422851562,792.5640869140625,789.7435913085938,782.087890625
87,790.952392578125,789.3406372070312,786.1171875,778.4615478515625
88,792.967041015625,790.952392578125,790.1465454101562,782.893798828125
89,792.1611938476562,790.952392578125,794.981689453125,792.1611938476562
90,786.1171875,787.3259887695312,790.952392578125,790.952392578125
91,786.5201416015625,793.3699340820312,794.5787353515625,779.6703491210938
92,793.3699340820312,797.8021850585938,800.6226806640625,782.893798828125
93,793.3699340820312,793.3699340820312,801.4285888671875,793.3699340820312
94,792.967041015625,796.5933837890625,803.4432373046875,794.981689453125
95,792.1611938476562,799.8168334960938,801.025634765625,796.996337890625
96,787.3259887695312,799.010986328125,796.1904907226562,783.2966918945312
97,785.7142944335938,793.3699340820312,795.7875366210938,776.4468994140625
98,787.7289428710938,794.981689453125,799.8168334960938,790.5494384765625
99,788.937744140625,800.2197875976562,799.4139404296875,788.937744140625
100,792.1611938476562,795.7875366210938,796.5933837890625,787.7289428710938
101,802.2344360351562,798.6080322265625,795.7875366210938,805.054931640625
102,804.2490844726562,801.025634765625,795.7875366210938,803.040283203125
103,800.6226806640625,799.010986328125,797.3992919921875,791.7582397460938
104,797.3992919921875,799.010986328125,799.8168334960938,789.7435913085938
105,786.1171875,795.7875366210938,792.1611938476562,775.2380981445312
106,785.7142944335938,790.952392578125,790.5494384765625,778.4615478515625
107,794.5787353515625,792.5640869140625,790.5494384765625,791.7582397460938
108,792.5640869140625,793.7728881835938,786.923095703125,787.3259887695312
109,788.1318969726562,791.7582397460938,786.5201416015625,783.6996459960938
110,796.996337890625,794.1758422851562,785.7142944335938,787.7289428710938
111,795.7875366210938,791.7582397460938,794.981689453125,791.3552856445312
112,794.1758422851562,792.967041015625,799.8168334960938,794.5787353515625
113,805.054931640625,800.6226806640625,793.3699340820312,793.7728881835938
114,801.4285888671875,799.010986328125,791.3552856445312,792.1611938476562
115,786.1171875,796.5933837890625,793.3699340820312,780.879150390625
116,787.7289428710938,793.7728881835938,791.7582397460938,780.4761962890625
117,795.3846435546875,788.937744140625,790.952392578125,788.5347900390625
118,798.6080322265625,788.1318969726562,794.1758422851562,791.3552856445312
119,800.2197875976562,792.967041015625,791.7582397460938,790.1465454101562
120,797.8021850585938,790.952392578125,789.3406372070312,799.010986328125
121,797.8021850585938,789.3406372070312,795.7875366210938,810.2930297851562
122,802.6373901367188,795.7875366210938,794.1758422851562,798.6080322265625
123,799.8168334960938,793.3699340820312,791.7582397460938,794.1758422851562
124,789.7435913085938,790.952392578125,789.3406372070312,804.6520385742188
125,788.5347900390625,791.7582397460938,791.7582397460938,809.4871826171875
126,794.5787353515625,789.7435913085938,793.3699340820312,800.6226806640625
127,792.5640869140625,790.1465454101562,793.7728881835938,792.1611938476562
128,784.908447265625,786.5201416015625,796.996337890625,792.1611938476562
129,784.908447265625,783.6996459960938,797.8021850585938,786.923095703125
130,786.1171875,786.1171875,797.3992919921875,784.908447265625
131,786.923095703125,787.7289428710938,797.8021850585938,793.7728881835938
132,789.7435913085938,789.7435913085938,802.2344360351562,792.5640869140625
133,788.5347900390625,790.5494384765625,803.8461303710938,787.7289428710938
134,790.1465454101562,794.5787353515625,801.4285888671875,786.5201416015625
135,794.981689453125,797.3992919921875,799.8168334960938,790.1465454101562
136,798.6080322265625,793.3699340820312,800.2197875976562,795.7875366210938
137,794.1758422851562,797.8021850585938,796.5933837890625,788.937744140625
138,795.7875366210938,799.4139404296875,798.2051391601562,793.7728881835938
139,798.2051391601562,791.7582397460938,799.010986328125,794.981689453125
140,793.7728881835938,792.967041015625,796.5933837890625,787.3259887695312
141,796.1904907226562,792.967041015625,793.3699340820312,784.1025390625
142,802.2344360351562,789.7435913085938,792.5640869140625,785.3113403320312
143,803.8461303710938,792.5640869140625,798.6080322265625,796.1904907226562
144,807.4725341796875,797.3992919921875,796.1904907226562,790.952392578125
145,802.2344360351562,793.7728881835938,792.967041015625,788.1318969726562
146,796.5933837890625,790.1465454101562,796.1904907226562,793.7728881835938
147,797.3992919921875,791.7582397460938,794.1758422851562,786.923095703125
148,793.7728881835938,791.7582397460938,789.7435913085938,780.4761962890625
149,792.1611938476562,792.1611938476562,787.7289428710938,785.7142944335938
150,788.5347900390625,790.952392578125,784.1025390625,782.087890625
151,780.0732421875,790.1465454101562,783.6996459960938,782.087890625
152,782.087890625,792.5640869140625,784.1025390625,778.4615478515625
153,790.952392578125,793.3699340820312,782.893798828125,780.0732421875
154,790.5494384765625,794.5787353515625,788.937744140625,786.5201416015625
155,787.7289428710938,795.7875366210938,791.3552856445312,779.6703491210938
156,784.1025390625,792.967041015625,790.1465454101562,777.6557006835938
157,780.4761962890625,795.7875366210938,792.5640869140625,783.2966918945312
158,783.6996459960938,799.010986328125,787.7289428710938,787.7289428710938
159,787.3259887695312,794.5787353515625,787.7289428710938,788.1318969726562
160,782.893798828125,794.5787353515625,792.967041015625,784.1025390625
161,778.05859375,791.3552856445312,793.3699340820312,783.2966918945312
162,777.2527465820312,787.7289428710938,789.3406372070312,780.879150390625
163,781.2820434570312,790.952392578125,787.7289428710938,779.2673950195312
164,782.087890625,796.996337890625,793.7728881835938,790.952392578125
165,780.0732421875,794.5787353515625,797.3992919921875,795.7875366210938
166,783.6996459960938,787.3259887695312,790.5494384765625,780.879150390625
167,788.1318969726562,790.5494384765625,786.1171875,779.6703491210938
168,790.1465454101562,800.2197875976562,787.7289428710938,778.8644409179688
169,793.3699340820312,799.4139404296875,789.7435913085938,782.893798828125
170,793.7728881835938,793.3699340820312,793.7728881835938,786.1171875
171,786.923095703125,790.952392578125,794.5787353515625,782.4908447265625
172,786.1171875,794.1758422851562,796.5933837890625,782.4908447265625
173,795.3846435546875,796.5933837890625,797.8021850585938,790.952392578125
174,798.2051391601562,793.3699340820312,798.6080322265625,796.1904907226562
175,800.2197875976562,793.7728881835938,797.8021850585938,781.2820434570312
176,798.6080322265625,788.937744140625,796.1904907226562,780.0732421875
177,794.5787353515625,786.923095703125,797.8021850585938,786.923095703125
178,798.2051391601562,794.5787353515625,799.010986328125,792.967041015625
179,794.1758422851562,795.7875366210938,792.1611938476562,785.3113403320312
180,792.5640869140625,789.7435913085938,787.3259887695312,776.0439453125
181,787.3259887695312,790.5494384765625,790.952392578125,782.4908447265625
182,787.7289428710938,797.8021850585938,791.7582397460938,790.5494384765625
183,790.1465454101562,798.6080322265625,790.5494384765625,785.7142944335938
184,788.5347900390625,800.2197875976562,790.952392578125,782.893798828125
185,792.1611938476562,800.6226806640625,791.3552856445312,792.1611938476562
186,786.923095703125,798.6080322265625,794.1758422851562,797.8021850585938
187,782.087890625,799.8168334960938,796.5933837890625,788.937744140625
188,788.5347900390625,799.8168334960938,795.3846435546875,790.1465454101562
189,789.3406372070312,792.1611938476562,788.937744140625,793.7728881835938
190,782.893798828125,789.7435913085938,788.937744140625,798.6080322265625
191,788.937744140625,794.5787353515625,796.1904907226562,805.054931640625
192,787.7289428710938,793.3699340820312,795.7875366210938,795.3846435546875
193,783.2966918945312,793.3699340820312,794.1758422851562,786.923095703125
194,794.1758422851562,797.3992919921875,796.1904907226562,792.1611938476562
195,790.952392578125,797.8021850585938,794.5787353515625,795.7875366210938
196,782.087890625,794.5787353515625,792.967041015625,792.5640869140625
197,788.1318969726562,792.5640869140625,796.5933837890625,796.1904907226562
198,788.937744140625,794.981689453125,797.8021850585938,789.7435913085938
199,789.7435913085938,798.6080322265625,800.2197875976562,789.7435913085938
200,795.7875366210938,800.2197875976562,801.025634765625,795.3846435546875
201,790.5494384765625,796.1904907226562,799.4139404296875,794.5787353515625
202,788.1318969726562,792.5640869140625,795.7875366210938,786.1171875
203,784.5054931640625,789.7435913085938,797.8021850585938,783.6996459960938
204,779.6703491210938,794.1758422851562,796.996337890625,786.923095703125
205,780.4761962890625,793.3699340820312,796.1904907226562,788.937744140625
206,782.087890625,788.1318969726562,797.8021850585938,793.7728881835938
207,789.7435913085938,790.5494384765625,795.7875366210938,792.1611938476562
208,791.7582397460938,794.1758422851562,798.2051391601562,799.8168334960938
209,789.3406372070312,792.1611938476562,801.8314819335938,809.084228515625
210,792.1611938476562,790.952392578125,799.010986328125,798.6080322265625
211,787.3259887695312,789.7435913085938,793.3699340820312,788.937744140625
212,777.2527465820312,783.6996459960938,791.3552856445312,786.5201416015625
213,780.0732421875,779.2673950195312,792.967041015625,791.3552856445312
214,784.5054931640625,780.0732421875,794.5787353515625,800.6226806640625
215,786.5201416015625,784.5054931640625,794.1758422851562,800.6226806640625
216,784.908447265625,784.908447265625,796.1904907226562,803.4432373046875
217,789.7435913085938,786.923095703125,798.6080322265625,808.2783813476562
218,794.1758422851562,792.967041015625,795.3846435546875,797.8021850585938
219,797.3992919921875,791.7582397460938,791.3552856445312,800.6226806640625
220,796.996337890625,792.1611938476562,789.3406372070312,804.2490844726562
221,788.1318969726562,794.1758422851562,790.1465454101562,788.1318969726562
222,792.967041015625,795.3846435546875,791.7582397460938,784.908447265625
223,795.3846435546875,794.981689453125,789.3406372070312,789.7435913085938
224,792.1611938476562,792.1611938476562,787.7289428710938,786.1171875
225,787.7289428710938,791.3552856445312,789.3406372070312,773.6264038085938
226,786.923095703125,790.5494384765625,790.5494384765625,776.0439453125
227,779.6703491210938,785.7142944335938,791.7582397460938,780.879150390625
228,777.2527465820312,785.7142944335938,793.7728881835938,782.087890625
229,783.2966918945312,792.5640869140625,793.7728881835938,784.5054931640625
230,786.5201416015625,788.5347900390625,792.5640869140625,782.087890625
231,786.5201416015625,785.3113403320312,794.981689453125,785.3113403320312
232,780.4761962890625,788.5347900390625,798.2051391601562,788.1318969726562
233,778.8644409179688,792.5640869140625,796.5933837890625,787.3259887695312
234,780.0732421875,787.3259887695312,799.010986328125,790.952392578125
235,778.8644409179688,784.1025390625,798.6080322265625,782.893798828125
236,781.2820434570312,784.5054931640625,799.010986328125,784.908447265625
237,783.2966918945312,780.879150390625,799.4139404296875,789.3406372070312
238,787.7289428710938,787.7289428710938,799.8168334960938,790.1465454101562
239,790.5494384765625,789.3406372070312,799.8168334960938,794.5787353515625
240,790.1465454101562,787.3259887695312,797.8021850585938,795.3846435546875
241,789.7435913085938,789.3406372070312,800.6226806640625,789.3406372070312
242,788.937744140625,790.952392578125,798.2051391601562,790.1465454101562
243,792.967041015625,794.5787353515625,799.010986328125,802.2344360351562
244,799.8168334960938,800.6226806640625,803.4432373046875,793.7728881835938
245,802.6373901367188,799.4139404296875,802.6373901367188,794.1758422851562
246,797.3992919921875,791.3552856445312,799.4139404296875,796.5933837890625
247,797.3992919921875,790.952392578125,794.981689453125,792.5640869140625
248,794.5787353515625,792.1611938476562,799.8168334960938,794.981689453125
249,780.879150390625,790.952392578125,803.040283203125,788.1318969726562
250,782.4908447265625,792.5640869140625,803.4432373046875,790.5494384765625
251,794.1758422851562,791.3552856445312,805.8607788085938,798.6080322265625
252,788.5347900390625,793.7728881835938,804.2490844726562,794.1758422851562
253,780.0732421875,791.7582397460938,803.4432373046875,788.937744140625
254,770.8058471679688,784.908447265625,803.4432373046875,776.8497924804688
255,773.2234497070312,787.3259887695312,804.6520385742188,774.8351440429688
256,780.0732421875,788.937744140625,803.4432373046875,778.05859375
257,778.8644409179688,790.5494384765625,797.3992919921875,756.3003540039062
258,778.8644409179688,792.1611938476562,798.6080322265625,772.4176025390625
259,786.1171875,794.1758422851562,800.6226806640625,788.1318969726562
260,789.3406372070312,793.3699340820312,797.8021850585938,759.120849609375
261,783.2966918945312,790.5494384765625,798.6080322265625,764.7619018554688
262,784.1025390625,794.981689453125,803.040283203125,788.5347900390625
263,785.3113403320312,790.952392578125,804.6520385742188,790.1465454101562
264,790.5494384765625,786.1171875,804.2490844726562,776.4468994140625
265,811.098876953125,795.3846435546875,805.4578857421875,787.3259887695312
266,802.6373901367188,796.1904907226562,805.054931640625,784.1025390625
267,777.6557006835938,792.5640869140625,803.4432373046875,776.0439453125
268,776.0439453125,789.3406372070312,807.069580078125,797.8021850585938
269,785.3113403320312,786.5201416015625,806.2637329101562,797.8021850585938
270,776.4468994140625,785.3113403320312,808.6813354492188,799.8168334960938
271,787.7289428710938,784.908447265625,812.7106323242188,809.084228515625
272,792.967041015625,786.923095703125,809.084228515625,811.5018310546875
273,786.5201416015625,786.923095703125,805.054931640625,804.6520385742188
274,791.3552856445312,789.7435913085938,805.054931640625,803.040283203125
275,784.5054931640625,791.7582397460938,805.8607788085938,799.8168334960938
276,791.7582397460938,793.3699340820312,805.4578857421875,790.952392578125
277,796.1904907226562,791.7582397460938,804.2490844726562,795.3846435546875
278,784.908447265625,792.1611938476562,804.6520385742188,802.2344360351562
279,790.1465454101562,793.3699340820312,809.084228515625,803.040283203125
280,796.996337890625,791.3552856445312,806.6666870117188,792.967041015625
281,801.025634765625,793.3699340820312,798.2051391601562,801.4285888671875
282,799.010986328125,796.5933837890625,797.3992919921875,803.8461303710938
283,793.7728881835938,797.3992919921875,797.8021850585938,792.5640869140625
284,790.5494384765625,796.5933837890625,792.967041015625,776.4468994140625
285,784.1025390625,798.6080322265625,792.967041015625,766.7765502929688
286,782.893798828125,796.1904907226562,795.3846435546875,778.05859375
287,784.908447265625,794.5787353515625,795.3846435546875,778.8644409179688
288,785.7142944335938,796.5933837890625,796.996337890625,778.8644409179688
289,796.1904907226562,794.5787353515625,797.3992919921875,786.923095703125
290,803.040283203125,795.3846435546875,795.7875366210938,792.967041015625
291,803.8461303710938,791.7582397460938,795.7875366210938,786.5201416015625
292,780.879150390625,782.4908447265625,794.5787353515625,782.4908447265625
293,778.05859375,786.1171875,792.967041015625,798.2051391601562
294,791.3552856445312,794.5787353515625,792.967041015625,779.6703491210938
295,800.6226806640625,794.1758422851562,791.7582397460938,784.908447265625
296,806.6666870117188,794.981689453125,792.1611938476562,811.90478515625
297,811.098876953125,792.967041015625,790.952392578125,805.4578857421875
298,788.937744140625,789.7435913085938,792.5640869140625,788.937744140625
299,781.6849975585938,791.3552856445312,794.5787353515625,795.7875366210938
300,796.996337890625,794.1758422851562,799.010986328125,813.5164794921875
301,793.3699340820312,793.7728881835938,800.6226806640625,821.1721801757812
302,810.6959838867188,798.2051391601562,801.4285888671875,817.5457763671875
303,814.3223266601562,799.8168334960938,802.2344360351562,817.1428833007812
304,796.5933837890625,795.7875366210938,799.010986328125,811.90478515625
305,792.967041015625,793.7728881835938,798.6080322265625,798.6080322265625
306,787.3259887695312,796.1904907226562,803.040283203125,815.93408203125
307,788.5347900390625,796.996337890625,801.4285888671875,819.96337890625
308,799.010986328125,804.2490844726562,796.1904907226562,790.952392578125
309,787.3259887695312,803.040283203125,796.996337890625,782.4908447265625
310,775.2380981445312,798.6080322265625,801.4285888671875,798.6080322265625
311,773.6264038085938,800.6226806640625,802.2344360351562,801.025634765625
312,789.7435913085938,804.2490844726562,794.5787353515625,793.7728881835938
313,790.952392578125,801.025634765625,792.1611938476562,784.908447265625
314,780.0732421875,794.5787353515625,796.5933837890625,789.7435913085938
315,791.7582397460938,796.996337890625,794.1758422851562,803.4432373046875
316,802.2344360351562,797.8021850585938,792.5640869140625,810.2930297851562
317,788.5347900390625,799.4139404296875,795.7875366210938,799.4139404296875
318,780.879150390625,798.6080322265625,792.1611938476562,780.879150390625
319,801.4285888671875,796.996337890625,789.3406372070312,779.6703491210938
320,786.5201416015625,792.967041015625,794.981689453125,795.3846435546875
321,782.087890625,788.937744140625,794.1758422851562,801.4285888671875
322,810.2930297851562,793.3699340820312,789.7435913085938,789.7435913085938
323,803.8461303710938,794.5787353515625,794.981689453125,795.7875366210938
324,799.4139404296875,792.1611938476562,790.5494384765625,789.7435913085938
325,788.5347900390625,784.908447265625,789.3406372070312,775.6410522460938
326,780.4761962890625,784.5054931640625,795.7875366210938,783.2966918945312
327,788.5347900390625,786.1171875,792.5640869140625,798.2051391601562
328,785.7142944335938,785.7142944335938,791.7582397460938,796.996337890625
329,770.0,784.1025390625,792.5640869140625,773.6264038085938
330,770.0,785.7142944335938,793.7728881835938,773.6264038085938
331,784.1025390625,791.7582397460938,795.3846435546875,790.5494384765625
332,775.2380981445312,790.952392578125,795.3846435546875,782.4908447265625
333,771.2088012695312,790.5494384765625,795.3846435546875,778.8644409179688
334,786.1171875,790.952392578125,794.981689453125,785.3113403320312
335,787.3259887695312,791.3552856445312,798.2051391601562,785.3113403320312
336,783.2966918945312,792.1611938476562,798.2051391601562,780.4761962890625
337,799.010986328125,791.7582397460938,796.996337890625,777.6557006835938
338,793.7728881835938,790.1465454101562,798.2051391601562,791.3552856445312
339,782.4908447265625,793.3699340820312,794.5787353515625,795.7875366210938
340,784.5054931640625,797.3992919921875,793.3699340820312,788.1318969726562
341,785.7142944335938,799.010986328125,792.967041015625,778.8644409179688
342,799.8168334960938,800.6226806640625,791.3552856445312,780.879150390625
343,812.3076782226562,806.2637329101562,792.967041015625,785.7142944335938
344,787.7289428710938,807.4725341796875,794.5787353515625,778.4615478515625
345,769.5970458984375,798.2051391601562,792.1611938476562,775.2380981445312
346,767.9853515625,793.7728881835938,788.937744140625,774.4322509765625
347,776.0439453125,794.5787353515625,787.3259887695312,772.0146484375
348,786.1171875,792.967041015625,784.1025390625,777.2527465820312
349,786.5201416015625,788.1318969726562,786.923095703125,785.7142944335938
350,788.5347900390625,789.3406372070312,793.3699340820312,792.967041015625
351,789.3406372070312,792.967041015625,793.3699340820312,795.3846435546875
352,783.2966918945312,794.981689453125,788.5347900390625,774.8351440429688
353,779.6703491210938,794.1758422851562,790.952392578125,778.05859375
354,785.3113403320312,796.1904907226562,801.8314819335938,801.025634765625
355,790.5494384765625,798.2051391601562,801.025634765625,804.2490844726562
356,791.7582397460938,794.1758422851562,795.3846435546875,780.879150390625
357,790.952392578125,790.1465454101562,799.010986328125,791.3552856445312
358,785.7142944335938,793.7728881835938,799.8168334960938,813.5164794921875
359,792.1611938476562,797.8021850585938,793.7728881835938,797.8021850585938
360,783.2966918945312,794.1758422851562,789.3406372070312,782.4908447265625
361,790.1465454101562,793.3699340820312,790.5494384765625,794.1758422851562
362,799.010986328125,799.8168334960938,798.2051391601562,806.6666870117188
363,780.879150390625,798.6080322265625,801.025634765625,804.6520385742188
364,778.05859375,791.3552856445312,796.996337890625,794.5787353515625
365,788.5347900390625,796.1904907226562,790.5494384765625,786.5201416015625
366,788.5347900390625,793.7728881835938,796.1904907226562,801.4285888671875
367,780.879150390625,790.1465454101562,795.3846435546875,798.2051391601562
368,780.879150390625,792.1611938476562,785.3113403320312,788.1318969726562
369,792.1611938476562,789.3406372070312,784.908447265625,789.3406372070312
370,792.1611938476562,786.923095703125,782.893798828125,783.2966918945312
371,784.1025390625,786.5201416015625,784.5054931640625,777.6557006835938
372,786.923095703125,791.3552856445312,786.1171875,779.6703491210938
373,782.893798828125,792.967041015625,786.1171875,785.7142944335938
374,789.7435913085938,794.981689453125,786.923095703125,778.05859375
375,792.967041015625,792.967041015625,785.7142944335938,767.1795043945312
376,778.05859375,786.923095703125,784.908447265625,765.5677490234375
377,769.1941528320312,786.1171875,784.1025390625,788.1318969726562
378,774.4322509765625,789.3406372070312,786.1171875,796.996337890625
379,779.2673950195312,796.5933837890625,791.3552856445312,783.6996459960938
380,770.0,794.1758422851562,796.996337890625,771.2088012695312
381,771.2088012695312,788.937744140625,797.3992919921875,775.6410522460938
382,781.6849975585938,785.7142944335938,798.2051391601562,796.1904907226562
383,780.879150390625,779.2673950195312,798.6080322265625,797.3992919921875
384,778.05859375,784.1025390625,794.981689453125,796.996337890625
385,775.2380981445312,788.937744140625,796.996337890625,796.996337890625
386,770.8058471679688,788.937744140625,798.2051391601562,790.1465454101562
387,772.8204956054688,788.937744140625,798.2051391601562,795.7875366210938
388,796.5933837890625,788.937744140625,801.025634765625,797.8021850585938
389,807.069580078125,790.952392578125,805.4578857421875,797.3992919921875
390,790.1465454101562,789.3406372070312,807.069580078125,808.2783813476562
391,792.1611938476562,792.5640869140625,802.6373901367188,805.054931640625
392,801.8314819335938,794.5787353515625,799.8168334960938,799.010986328125
393,801.4285888671875,795.3846435546875,801.8314819335938,801.8314819335938
394,802.6373901367188,796.996337890625,803.040283203125,800.2197875976562
395,801.4285888671875,795.7875366210938,802.2344360351562,797.3992919921875
396,799.4139404296875,799.8168334960938,802.2344360351562,798.6080322265625
397,796.5933837890625,802.6373901367188,801.025634765625,795.3846435546875
398,803.8461303710938,803.040283203125,795.7875366210938,791.7582397460938
399,807.87548828125,805.054931640625,793.3699340820312,794.981689453125
400,799.4139404296875,801.4285888671875,795.3846435546875,806.2637329101562
401,798.2051391601562,801.4285888671875,795.7875366210938,807.069580078125
402,803.4432373046875,802.6373901367188,795.3846435546875,799.8168334960938
403,805.054931640625,802.2344360351562,794.5787353515625,800.2197875976562
404,806.6666870117188,807.4725341796875,795.3846435546875,801.025634765625
405,811.098876953125,808.2783813476562,792.967041015625,799.8168334960938
406,807.87548828125,802.6373901367188,791.7582397460938,794.981689453125
407,805.4578857421875,801.4285888671875,794.5787353515625,790.1465454101562
408,798.6080322265625,799.4139404296875,792.5640869140625,785.3113403320312
409,794.981689453125,797.8021850585938,792.967041015625,788.5347900390625
410,798.6080322265625,801.4285888671875,792.967041015625,790.952392578125
411,796.1904907226562,802.6373901367188,790.952392578125,781.6849975585938
412,796.5933837890625,801.025634765625,790.952392578125,788.937744140625
413,795.7875366210938,796.5933837890625,790.952392578125,791.7582397460938
414,799.010986328125,795.3846435546875,790.5494384765625,782.4908447265625
415,791.3552856445312,792.1611938476562,790.5494384765625,785.7142944335938
416,781.6849975585938,789.3406372070312,792.5640869140625,785.3113403320312
417,782.893798828125,788.5347900390625,795.7875366210938,780.879150390625
418,786.1171875,786.5201416015625,797.8021850585938,778.4615478515625
419,787.7289428710938,784.908447265625,794.981689453125,782.4908447265625
420,783.6996459960938,785.3113403320312,797.8021850585938,788.5347900390625
421,781.2820434570312,784.5054931640625,798.2051391601562,784.908447265625
422,779.6703491210938,782.4908447265625,801.025634765625,781.6849975585938
423,784.908447265625,782.893798828125,803.4432373046875,790.5494384765625
424,791.7582397460938,787.3259887695312,805.8607788085938,798.2051391601562
425,786.5201416015625,789.3406372070312,804.6520385742188,787.7289428710938
426,784.5054931640625,787.3259887695312,800.2197875976562,783.6996459960938
427,786.923095703125,788.937744140625,798.6080322265625,786.923095703125
428,793.7728881835938,794.981689453125,799.4139404296875,790.5494384765625
429,796.996337890625,794.981689453125,801.4285888671875,789.3406372070312
430,792.967041015625,791.7582397460938,794.981689453125,787.3259887695312
431,799.010986328125,794.5787353515625,794.981689453125,791.3552856445312
432,806.6666870117188,796.996337890625,801.4285888671875,796.996337890625
433,808.6813354492188,796.1904907226562,799.8168334960938,806.2637329101562
434,816.7399291992188,796.5933837890625,800.2197875976562,811.098876953125
435,819.1575317382812,788.5347900390625,802.2344360351562,815.93408203125
436,810.6959838867188,790.5494384765625,800.6226806640625,806.6666870117188
437,805.4578857421875,801.4285888671875,796.1904907226562,800.6226806640625
438,802.6373901367188,796.1904907226562,794.5787353515625,805.8607788085938
439,801.4285888671875,794.5787353515625,792.967041015625,798.6080322265625
440,801.4285888671875,802.2344360351562,791.3552856445312,791.7582397460938
441,800.6226806640625,806.2637329101562,793.7728881835938,789.7435913085938
442,791.7582397460938,804.2490844726562,792.1611938476562,788.937744140625
443,786.923095703125,801.4285888671875,791.3552856445312,788.5347900390625
444,786.923095703125,794.981689453125,792.1611938476562,784.908447265625
445,783.2966918945312,790.5494384765625,787.3259887695312,780.4761962890625
446,784.908447265625,792.1611938476562,790.952392578125,789.7435913085938
447,782.4908447265625,792.1611938476562,799.4139404296875,795.7875366210938
448,774.8351440429688,792.1611938476562,803.8461303710938,789.7435913085938
449,775.6410522460938,790.952392578125,802.2344360351562,790.5494384765625
450,781.6849975585938,787.3259887695312,796.5933837890625,790.952392578125
451,784.908447265625,786.923095703125,798.6080322265625,789.3406372070312
452,787.7289428710938,787.7289428710938,800.2197875976562,791.3552856445312
453,786.923095703125,788.1318969726562,803.040283203125,796.1904907226562
454,787.3259887695312,788.937744140625,801.4285888671875,797.8021850585938
455,790.1465454101562,783.6996459960938,796.5933837890625,796.1904907226562
456,788.1318969726562,777.6557006835938,797.8021850585938,790.952392578125
457,788.937744140625,778.8644409179688,795.3846435546875,788.5347900390625
458,789.3406372070312,780.0732421875,798.2051391601562,797.8021850585938
459,787.3259887695312,780.0732421875,801.8314819335938,800.2197875976562
460,791.7582397460938,782.893798828125,796.1904907226562,790.1465454101562
461,794.1758422851562,785.3113403320312,795.7875366210938,787.3259887695312
462,791.3552856445312,783.2966918945312,794.1758422851562,790.1465454101562
463,795.7875366210938,787.3259887695312,793.3699340820312,789.7435913085938
464,799.010986328125,797.8021850585938,791.7582397460938,790.1465454101562
465,802.6373901367188,802.2344360351562,794.981689453125,798.6080322265625
466,800.2197875976562,799.010986328125,798.6080322265625,793.7728881835938
467,796.5933837890625,796.996337890625,794.1758422851562,784.1025390625
468,791.3552856445312,796.5933837890625,791.3552856445312,779.6703491210938
469,790.952392578125,796.1904907226562,792.5640869140625,784.908447265625
470,790.1465454101562,795.3846435546875,791.3552856445312,787.7289428710938
471,782.4908447265625,798.6080322265625,794.1758422851562,783.6996459960938
472,776.8497924804688,800.6226806640625,797.8021850585938,781.2820434570312
473,776.4468994140625,796.996337890625,792.5640869140625,782.893798828125
474,776.0439453125,800.6226806640625,793.3699340820312,785.3113403320312
475,774.4322509765625,803.040283203125,795.7875366210938,779.2673950195312
476,773.2234497070312,792.5640869140625,795.3846435546875,779.6703491210938
477,772.0146484375,786.1171875,797.8021850585938,778.8644409179688
478,766.3735961914062,786.1171875,798.2051391601562,776.0439453125
479,769.5970458984375,784.5054931640625,800.2197875976562,781.6849975585938
480,782.4908447265625,786.1171875,798.6080322265625,788.5347900390625
481,783.6996459960938,785.3113403320312,799.8168334960938,787.7289428710938
482,785.7142944335938,782.087890625,800.2197875976562,788.937744140625
483,788.5347900390625,779.6703491210938,801.025634765625,788.937744140625
484,793.7728881835938,785.7142944335938,803.040283203125,790.952392578125
485,801.8314819335938,792.1611938476562,802.6373901367188,794.1758422851562
486,803.8461303710938,790.1465454101562,800.6226806640625,792.1611938476562
487,804.6520385742188,786.5201416015625,800.6226806640625,785.3113403320312
488,809.4871826171875,790.952392578125,803.4432373046875,786.1171875
489,805.054931640625,791.7582397460938,798.2051391601562,780.879150390625
490,799.8168334960938,792.1611938476562,792.5640869140625,774.4322509765625
491,806.6666870117188,794.5787353515625,794.5787353515625,776.4468994140625
492,814.3223266601562,799.4139404296875,797.8021850585938,787.3259887695312
493,811.098876953125,806.6666870117188,801.025634765625,792.5640869140625
494,800.6226806640625,807.87548828125,804.2490844726562,782.893798828125
495,796.996337890625,807.87548828125,807.4725341796875,785.3113403320312
496,799.010986328125,813.113525390625,799.8168334960938,792.967041015625
497,792.967041015625,808.6813354492188,794.5787353515625,792.1611938476562
498,776.8497924804688,800.2197875976562,796.5933837890625,766.3735961914062
499,769.5970458984375,799.8168334960938,800.2197875976562,760.3296508789062
500,763.1502075195312,800.2197875976562,797.3992919921875,766.3735961914062
501,754.2857055664062,798.2051391601562,799.4139404296875,755.8974609375
502,747.8388061523438,802.6373901367188,811.5018310546875,746.6300659179688
503,730.915771484375,811.098876953125,805.4578857421875,733.7362670898438
504,717.2161254882812,809.084228515625,805.8607788085938,723.6630249023438
505,708.3516235351562,806.2637329101562,816.3369750976562,716.8131713867188
506,693.8461303710938,809.89013671875,817.5457763671875,703.91943359375
507,682.967041015625,817.5457763671875,821.1721801757812,695.8607788085938
508,664.029296875,811.098876953125,828.02197265625,686.5933837890625
509,654.3589477539062,804.6520385742188,830.4395751953125,675.7142944335938
510,656.7765502929688,809.89013671875,830.03662109375,671.2820434570312
511,641.8681030273438,812.3076782226562,836.4835205078125,662.4176025390625
512,638.2417602539062,812.3076782226562,844.945068359375,660.4029541015625
513,657.1795043945312,810.6959838867188,849.7802124023438,670.879150390625
514,660.0,810.6959838867188,854.6153564453125,673.6996459960938
515,652.7472534179688,813.5164794921875,853.4066162109375,670.879150390625
516,655.970703125,810.2930297851562,853.8095092773438,671.2820434570312
517,665.2380981445312,807.069580078125,854.2124633789062,670.4761962890625
518,668.4615478515625,801.025634765625,847.7655639648438,670.4761962890625
519,664.029296875,797.8021850585938,843.3333129882812,673.2966918945312
520,672.893798828125,797.8021850585938,840.10986328125,678.1318969726562
521,700.6959838867188,796.1904907226562,834.4688720703125,701.098876953125
522,713.1868286132812,795.7875366210938,829.6337280273438,715.6043701171875
523,708.7545776367188,792.967041015625,822.7838745117188,706.3369750976562
524,712.3809814453125,785.3113403320312,812.7106323242188,709.5604248046875
525,734.945068359375,785.7142944335938,812.3076782226562,728.901123046875
526,747.032958984375,791.7582397460938,811.90478515625,743.003662109375
527,754.2857055664062,795.7875366210938,803.8461303710938,758.7179565429688
528,759.9267578125,793.3699340820312,807.069580078125,766.7765502929688
529,767.1795043945312,791.7582397460938,803.040283203125,770.8058471679688
530,779.6703491210938,794.5787353515625,798.2051391601562,783.6996459960938
531,788.5347900390625,793.3699340820312,799.4139404296875,803.040283203125
532,797.8021850585938,788.5347900390625,796.996337890625,811.90478515625
533,800.6226806640625,786.923095703125,795.7875366210938,806.6666870117188
534,812.7106323242188,788.937744140625,789.7435913085938,815.5311279296875
535,821.1721801757812,792.5640869140625,790.5494384765625,822.3809814453125
536,819.1575317382812,793.3699340820312,786.923095703125,815.93408203125
537,820.3662719726562,791.7582397460938,776.0439453125,814.7252807617188
538,827.2161254882812,790.1465454101562,781.2820434570312,825.2014770507812
539,835.6776733398438,790.1465454101562,778.8644409179688,828.02197265625
540,828.8278198242188,786.5201416015625,773.2234497070312,821.5750732421875
541,829.6337280273438,784.1025390625,777.6557006835938,831.2454223632812
542,840.915771484375,789.3406372070312,774.4322509765625,836.4835205078125
543,833.2600708007812,792.967041015625,771.6116943359375,826.4102783203125
544,831.2454223632812,798.2051391601562,774.8351440429688,820.7692260742188
545,838.4981689453125,794.981689453125,774.029296875,821.5750732421875
546,843.3333129882812,790.5494384765625,768.7911987304688,825.2014770507812
547,846.959716796875,791.7582397460938,764.3589477539062,826.00732421875
548,840.10986328125,792.1611938476562,765.1648559570312,823.1868286132812
549,841.7216186523438,793.3699340820312,767.5823974609375,830.4395751953125
550,841.7216186523438,789.3406372070312,766.3735961914062,829.6337280273438
551,839.7069702148438,792.1611938476562,763.5531005859375,826.8131713867188
552,839.7069702148438,794.981689453125,763.9560546875,828.8278198242188
553,829.6337280273438,791.7582397460938,761.94140625,820.7692260742188
554,833.6630249023438,796.996337890625,762.7472534179688,819.1575317382812
555,832.4542236328125,800.2197875976562,767.9853515625,819.5604248046875
556,827.6190185546875,795.3846435546875,767.1795043945312,817.1428833007812
557,838.4981689453125,795.7875366210938,766.7765502929688,820.7692260742188
558,835.6776733398438,793.3699340820312,770.0,823.5897216796875
559,828.02197265625,794.981689453125,770.8058471679688,819.5604248046875
560,827.6190185546875,794.1758422851562,771.6116943359375,815.1282348632812
561,829.6337280273438,793.3699340820312,775.6410522460938,819.96337890625
562,832.05126953125,795.7875366210938,781.6849975585938,827.2161254882812
563,831.6483764648438,790.5494384765625,786.5201416015625,823.99267578125
564,827.6190185546875,787.7289428710938,784.5054931640625,821.97802734375
565,822.3809814453125,783.6996459960938,784.1025390625,826.8131713867188
566,823.5897216796875,783.2966918945312,788.5347900390625,828.02197265625
567,826.8131713867188,785.7142944335938,792.967041015625,826.8131713867188
568,827.6190185546875,788.937744140625,794.1758422851562,832.4542236328125
569,827.6190185546875,790.952392578125,791.7582397460938,838.09521484375
570,818.7545776367188,790.5494384765625,795.3846435546875,835.6776733398438
571,814.3223266601562,790.1465454101562,794.5787353515625,828.02197265625
572,816.7399291992188,788.5347900390625,789.3406372070312,822.7838745117188
573,816.7399291992188,790.1465454101562,788.5347900390625,819.1575317382812
574,815.5311279296875,794.981689453125,786.1171875,814.7252807617188
575,811.90478515625,792.5640869140625,787.7289428710938,815.5311279296875
576,812.7106323242188,787.7289428710938,789.3406372070312,819.5604248046875
577,809.4871826171875,786.1171875,787.3259887695312,813.91943359375
578,809.89013671875,783.2966918945312,786.5201416015625,805.8607788085938
579,812.3076782226562,783.2966918945312,784.5054931640625,803.4432373046875
580,805.054931640625,782.893798828125,783.6996459960938,792.967041015625
581,804.6520385742188,786.5201416015625,784.908447265625,793.7728881835938
582,807.4725341796875,790.1465454101562,783.2966918945312,795.7875366210938
583,807.87548828125,786.5201416015625,785.3113403320312,789.3406372070312
584,810.6959838867188,788.5347900390625,784.1025390625,794.1758422851562
585,814.7252807617188,795.7875366210938,784.5054931640625,802.2344360351562
586,813.113525390625,795.3846435546875,786.1171875,796.996337890625
587,812.7106323242188,792.1611938476562,781.6849975585938,791.7582397460938
588,812.7106323242188,795.3846435546875,778.05859375,796.1904907226562
589,811.5018310546875,798.6080322265625,779.6703491210938,792.1611938476562
590,815.5311279296875,798.2051391601562,780.879150390625,788.5347900390625
591,816.3369750976562,799.4139404296875,784.5054931640625,793.7728881835938
592,815.93408203125,800.6226806640625,787.7289428710938,799.010986328125
593,822.3809814453125,800.6226806640625,785.3113403320312,807.4725341796875
594,821.97802734375,799.010986328125,788.5347900390625,807.4725341796875
595,817.5457763671875,798.2051391601562,789.7435913085938,804.6520385742188
596,817.1428833007812,795.7875366210938,790.1465454101562,807.87548828125
597,817.94873046875,791.7582397460938,792.5640869140625,805.4578857421875
598,819.96337890625,789.7435913085938,795.7875366210938,808.6813354492188
599,816.7399291992188,789.3406372070312,799.010986328125,811.098876953125
600,814.7252807617188,789.7435913085938,796.1904907226562,811.098876953125
601,807.87548828125,786.1171875,792.5640869140625,811.098876953125
602,805.4578857421875,786.5201416015625,792.5640869140625,809.89013671875
603,810.6959838867188,788.1318969726562,796.5933837890625,811.098876953125
604,806.2637329101562,786.923095703125,794.981689453125,817.1428833007812
605,796.996337890625,787.3259887695312,796.996337890625,813.5164794921875
606,794.1758422851562,788.937744140625,801.4285888671875,806.6666870117188
607,793.3699340820312,789.7435913085938,799.010986328125,804.6520385742188
608,793.7728881835938,788.5347900390625,797.3992919921875,800.6226806640625
609,793.3699340820312,787.7289428710938,796.1904907226562,796.996337890625
610,789.3406372070312,787.7289428710938,799.4139404296875,792.5640869140625
611,785.3113403320312,786.1171875,799.4139404296875,792.967041015625
612,786.923095703125,790.5494384765625,795.7875366210938,793.3699340820312
613,793.3699340820312,789.3406372070312,795.7875366210938,788.937744140625
614,794.981689453125,787.3259887695312,797.8021850585938,780.879150390625
615,794.1758422851562,788.5347900390625,793.7728881835938,777.2527465820312
616,791.3552856445312,788.937744140625,793.3699340820312,779.6703491210938
617,790.952392578125,790.5494384765625,793.3699340820312,775.6410522460938
618,798.2051391601562,789.7435913085938,790.952392578125,783.2966918945312
619,799.8168334960938,796.1904907226562,792.1611938476562,790.1465454101562
620,796.1904907226562,798.6080322265625,792.1611938476562,792.1611938476562
621,796.996337890625,794.5787353515625,789.7435913085938,792.1611938476562
622,795.3846435546875,788.1318969726562,786.923095703125,787.3259887695312
623,793.3699340820312,787.7289428710938,788.1318969726562,785.7142944335938
624,799.8168334960938,790.952392578125,791.7582397460938,792.5640869140625
625,799.4139404296875,791.7582397460938,796.1904907226562,795.7875366210938
626,794.1758422851562,792.5640869140625,793.7728881835938,794.981689453125
627,790.5494384765625,788.937744140625,788.5347900390625,801.8314819335938
628,792.1611938476562,788.937744140625,790.952392578125,806.6666870117188
629,794.1758422851562,792.5640869140625,790.952392578125,797.3992919921875
630,790.5494384765625,791.3552856445312,792.967041015625,789.7435913085938
631,789.7435913085938,793.3699340820312,794.5787353515625,786.5201416015625
632,792.5640869140625,795.7875366210938,799.8168334960938,794.5787353515625
633,796.996337890625,795.7875366210938,799.010986328125,803.040283203125
634,802.2344360351562,796.1904907226562,792.967041015625,793.7728881835938
635,798.2051391601562,796.1904907226562,793.3699340820312,782.4908447265625
636,796.996337890625,801.025634765625,793.7728881835938,788.1318969726562
637,800.6226806640625,803.040283203125,792.967041015625,795.3846435546875
638,794.5787353515625,796.1904907226562,793.3699340820312,790.1465454101562
639,793.7728881835938,791.3552856445312,796.5933837890625,792.1611938476562
640,794.5787353515625,790.5494384765625,796.1904907226562,790.952392578125
641,789.7435913085938,788.5347900390625,792.5640869140625,779.2673950195312
642,789.3406372070312,790.1465454101562,794.1758422851562,783.2966918945312
643,790.952392578125,792.1611938476562,796.1904907226562,792.1611938476562
644,786.5201416015625,790.5494384765625,799.4139404296875,790.1465454101562
645,782.4908447265625,792.1611938476562,797.3992919921875,787.3259887695312
646,786.1171875,796.1904907226562,800.6226806640625,787.7289428710938
647,780.879150390625,790.1465454101562,805.4578857421875,792.5640869140625
648,773.6264038085938,787.7289428710938,805.4578857421875,789.3406372070312
649,778.8644409179688,788.937744140625,800.2197875976562,791.7582397460938
650,770.4029541015625,784.908447265625,794.5787353515625,792.5640869140625
651,761.5384521484375,779.6703491210938,796.1904907226562,783.6996459960938
652,767.5823974609375,779.6703491210938,793.3699340820312,780.4761962890625
653,768.3883056640625,781.2820434570312,785.7142944335938,779.6703491210938
654,776.8497924804688,782.893798828125,786.1171875,791.3552856445312
655,782.4908447265625,787.7289428710938,788.5347900390625,792.967041015625
656,776.0439453125,788.937744140625,790.1465454101562,790.5494384765625
657,777.2527465820312,787.7289428710938,794.1758422851562,792.1611938476562
658,784.1025390625,790.952392578125,794.1758422851562,790.952392578125
659,791.7582397460938,796.5933837890625,793.7728881835938,798.2051391601562
660,794.981689453125,796.5933837890625,792.1611938476562,790.1465454101562
661,795.3846435546875,794.1758422851562,798.2051391601562,784.908447265625
662,797.3992919921875,798.6080322265625,801.8314819335938,789.3406372070312
663,799.010986328125,796.5933837890625,801.025634765625,791.7582397460938
664,803.040283203125,794.981689453125,801.8314819335938,792.1611938476562
665,806.2637329101562,798.6080322265625,803.040283203125,797.3992919921875
666,803.8461303710938,796.1904907226562,796.1904907226562,800.6226806640625
667,799.010986328125,792.967041015625,792.967041015625,795.7875366210938
668,800.2197875976562,796.5933837890625,795.7875366210938,794.5787353515625
669,804.2490844726562,799.4139404296875,797.3992919921875,799.8168334960938
670,804.2490844726562,798.6080322265625,796.996337890625,794.1758422851562
671,801.4285888671875,796.996337890625,791.7582397460938,787.3259887695312
672,800.2197875976562,799.4139404296875,793.3699340820312,793.7728881835938
673,799.8168334960938,797.3992919921875,800.6226806640625,796.1904907226562
674,797.3992919921875,791.3552856445312,798.6080322265625,795.7875366210938
675,791.3552856445312,792.5640869140625,794.981689453125,799.4139404296875
676,781.2820434570312,788.1318969726562,800.2197875976562,796.996337890625
677,780.4761962890625,786.5201416015625,799.8168334960938,801.025634765625
678,783.6996459960938,796.996337890625,799.4139404296875,797.8021850585938
679,788.5347900390625,800.2197875976562,803.8461303710938,788.5347900390625
680,793.7728881835938,795.7875366210938,796.5933837890625,787.7289428710938
681,798.2051391601562,796.1904907226562,795.7875366210938,791.7582397460938
682,799.8168334960938,793.3699340820312,801.8314819335938,791.7582397460938
683,805.8607788085938,794.1758422851562,794.981689453125,791.7582397460938
684,806.2637329101562,797.3992919921875,793.3699340820312,798.2051391601562
685,796.996337890625,798.2051391601562,798.2051391601562,799.010986328125
686,794.1758422851562,794.981689453125,798.6080322265625,797.8021850585938
687,793.7728881835938,790.952392578125,797.8021850585938,798.6080322265625
688,791.3552856445312,788.937744140625,796.996337890625,796.5933837890625
689,792.1611938476562,789.7435913085938,792.967041015625,790.952392578125
690,792.967041015625,789.7435913085938,796.5933837890625,791.3552856445312
691,794.981689453125,786.923095703125,802.2344360351562,794.981689453125
692,796.996337890625,791.3552856445312,803.040283203125,790.1465454101562
693,792.5640869140625,790.1465454101562,803.040283203125,786.923095703125
694,788.937744140625,789.3406372070312,798.6080322265625,788.937744140625
695,786.923095703125,786.5201416015625,794.5787353515625,788.937744140625
696,784.1025390625,785.7142944335938,797.8021850585938,788.5347900390625
697,779.6703491210938,788.937744140625,800.2197875976562,787.7289428710938
698,775.2380981445312,786.1171875,799.010986328125,788.1318969726562
699,778.8644409179688,783.6996459960938,796.996337890625,789.7435913085938
700,785.7142944335938,784.1025390625,798.6080322265625,792.1611938476562
701,783.2966918945312,786.1171875,798.6080322265625,786.923095703125
702,778.05859375,784.908447265625,798.2051391601562,776.8497924804688
703,776.4468994140625,782.893798828125,795.3846435546875,780.0732421875
704,775.6410522460938,782.893798828125,791.3552856445312,783.2966918945312
705,780.4761962890625,784.908447265625,792.967041015625,780.879150390625
706,788.937744140625,788.1318969726562,796.5933837890625,784.908447265625
707,786.1171875,786.5201416015625,792.967041015625,782.4908447265625
708,784.1025390625,787.7289428710938,787.3259887695312,779.6703491210938
709,787.7289428710938,787.7289428710938,788.5347900390625,784.908447265625
710,792.1611938476562,786.5201416015625,785.7142944335938,787.7289428710938
711,794.5787353515625,790.1465454101562,781.6849975585938,788.1318969726562
712,788.5347900390625,792.1611938476562,785.7142944335938,786.5201416015625
713,788.937744140625,799.4139404296875,790.952392578125,794.1758422851562
714,792.5640869140625,795.7875366210938,788.1318969726562,799.010986328125
715,800.2197875976562,790.5494384765625,787.7289428710938,799.4139404296875
716,803.4432373046875,791.7582397460938,791.7582397460938,801.4285888671875
717,799.4139404296875,791.3552856445312,792.1611938476562,800.6226806640625
718,801.4285888671875,792.5640869140625,790.1465454101562,804.2490844726562
719,807.87548828125,795.3846435546875,792.967041015625,809.89013671875
720,803.4432373046875,793.7728881835938,798.2051391601562,805.4578857421875
721,797.3992919921875,792.1611938476562,799.4139404296875,798.2051391601562
722,798.2051391601562,789.3406372070312,796.1904907226562,796.996337890625
723,796.1904907226562,788.5347900390625,794.981689453125,795.7875366210938
724,789.3406372070312,788.937744140625,792.5640869140625,791.3552856445312
725,788.5347900390625,786.1171875,793.3699340820312,788.5347900390625
726,795.3846435546875,787.3259887695312,798.6080322265625,793.3699340820312
727,798.6080322265625,788.5347900390625,799.4139404296875,793.7728881835938
728,791.3552856445312,786.1171875,799.4139404296875,789.3406372070312
729,786.5201416015625,786.1171875,795.3846435546875,788.5347900390625
730,790.952392578125,786.923095703125,793.3699340820312,791.3552856445312
731,792.967041015625,791.3552856445312,798.6080322265625,796.1904907226562
732,797.8021850585938,797.3992919921875,802.6373901367188,801.8314819335938
733,797.8021850585938,801.025634765625,800.6226806640625,799.8168334960938
734,795.3846435546875,800.6226806640625,800.2197875976562,800.6226806640625
735,794.5787353515625,799.4139404296875,803.4432373046875,801.025634765625
736,790.1465454101562,795.7875366210938,798.2051391601562,790.1465454101562
737,788.1318969726562,792.967041015625,795.3846435546875,783.6996459960938
738,788.1318969726562,792.967041015625,794.1758422851562,788.937744140625
739,784.1025390625,793.3699340820312,790.952392578125,785.7142944335938
740,780.879150390625,794.5787353515625,790.5494384765625,778.4615478515625
741,783.6996459960938,793.7728881835938,792.5640869140625,780.879150390625
742,786.1171875,792.1611938476562,792.967041015625,783.6996459960938
743,783.6996459960938,792.5640869140625,793.3699340820312,780.4761962890625
744,785.3113403320312,794.1758422851562,794.5787353515625,774.8351440429688
745,788.1318969726562,792.967041015625,794.5787353515625,781.2820434570312
746,789.3406372070312,792.5640869140625,792.967041015625,786.923095703125
747,790.952392578125,794.981689453125,796.5933837890625,787.7289428710938
748,786.5201416015625,798.6080322265625,800.2197875976562,786.1171875
749,785.3113403320312,799.8168334960938,794.981689453125,788.5347900390625
750,787.3259887695312,794.981689453125,795.3846435546875,794.5787353515625
751,786.5201416015625,795.3846435546875,800.2197875976562,791.7582397460938
752,786.5201416015625,798.2051391601562,799.010986328125,787.7289428710938
753,789.3406372070312,796.1904907226562,796.996337890625,792.1611938476562
754,789.3406372070312,795.7875366210938,792.1611938476562,790.5494384765625
755,787.7289428710938,794.981689453125,790.1465454101562,784.5054931640625
756,794.1758422851562,796.1904907226562,792.967041015625,788.1318969726562
757,800.2197875976562,798.6080322265625,789.3406372070312,788.1318969726562
758,797.8021850585938,801.4285888671875,786.5201416015625,782.893798828125
759,791.3552856445312,803.4432373046875,782.4908447265625,781.6849975585938
760,793.7728881835938,804.2490844726562,783.6996459960938,785.3113403320312
761,799.4139404296875,806.2637329101562,788.937744140625,791.7582397460938
762,798.2051391601562,801.8314819335938,787.7289428710938,789.7435913085938
763,795.7875366210938,799.010986328125,789.3406372070312,782.4908447265625
764,796.1904907226562,799.010986328125,793.3699340820312,780.879150390625
765,792.1611938476562,793.3699340820312,796.5933837890625,783.2966918945312
766,786.1171875,790.952392578125,792.967041015625,786.5201416015625
767,785.3113403320312,795.3846435546875,789.7435913085938,790.952392578125
768,786.5201416015625,793.7728881835938,794.1758422851562,790.1465454101562
769,794.1758422851562,793.3699340820312,799.8168334960938,791.7582397460938
770,796.996337890625,796.996337890625,801.025634765625,801.8314819335938
771,795.7875366210938,795.7875366210938,800.2197875976562,806.6666870117188
772,788.937744140625,793.7728881835938,799.8168334960938,801.8314819335938
773,786.923095703125,793.3699340820312,797.3992919921875,804.6520385742188
774,788.5347900390625,793.3699340820312,797.3992919921875,802.2344360351562
775,783.2966918945312,786.923095703125,802.6373901367188,793.3699340820312
776,784.1025390625,785.7142944335938,803.4432373046875,799.010986328125
777,788.1318969726562,786.5201416015625,802.2344360351562,801.8314819335938
778,784.1025390625,786.5201416015625,799.8168334960938,794.5787353515625
779,777.2527465820312,784.908447265625,797.3992919921875,781.2820434570312
780,776.4468994140625,777.2527465820312,794.981689453125,778.05859375
781,783.2966918945312,778.8644409179688,794.1758422851562,782.893798828125
782,790.5494384765625,785.7142944335938,795.7875366210938,784.5054931640625
783,791.3552856445312,787.3259887695312,794.1758422851562,786.5201416015625
784,784.1025390625,787.7289428710938,791.7582397460938,784.908447265625
785,778.8644409179688,788.937744140625,790.952392578125,788.1318969726562
786,777.6557006835938,792.1611938476562,786.923095703125,780.4761962890625
787,782.893798828125,793.7728881835938,787.3259887695312,772.8204956054688
788,793.3699340820312,788.937744140625,792.5640869140625,778.05859375
789,792.5640869140625,789.3406372070312,794.5787353515625,785.7142944335938
790,789.7435913085938,792.1611938476562,797.3992919921875,788.1318969726562
791,794.981689453125,794.981689453125,796.996337890625,794.981689453125
792,798.6080322265625,792.1611938476562,795.3846435546875,795.3846435546875
793,798.2051391601562,789.3406372070312,792.1611938476562,787.7289428710938
794,794.1758422851562,792.967041015625,790.952392578125,789.7435913085938
795,792.5640869140625,792.967041015625,793.7728881835938,792.1611938476562
796,794.5787353515625,789.7435913085938,790.5494384765625,801.4285888671875
797,798.6080322265625,789.3406372070312,793.3699340820312,805.8607788085938
798,799.010986328125,785.3113403320312,794.5787353515625,795.3846435546875
799,792.967041015625,784.5054931640625,790.5494384765625,787.3259887695312
800,788.937744140625,788.937744140625,793.3699340820312,790.5494384765625
801,791.7582397460938,787.7289428710938,795.3846435546875,792.1611938476562
802,793.7728881835938,786.1171875,799.4139404296875,792.5640869140625
803,793.7728881835938,790.5494384765625,799.8168334960938,792.5640869140625
804,797.8021850585938,794.1758422851562,799.010986328125,790.5494384765625
805,794.5787353515625,796.1904907226562,798.2051391601562,791.3552856445312
806,796.1904907226562,799.4139404296875,797.8021850585938,791.7582397460938
807,800.2197875976562,799.4139404296875,796.5933837890625,796.5933837890625
808,794.1758422851562,797.3992919921875,792.967041015625,794.1758422851562
809,794.5787353515625,793.3699340820312,791.7582397460938,786.1171875
810,798.2051391601562,794.5787353515625,784.5054931640625,786.5201416015625
811,795.3846435546875,797.8021850585938,784.908447265625,786.5201416015625
812,793.3699340820312,796.996337890625,791.3552856445312,784.1025390625
813,795.7875366210938,796.996337890625,790.5494384765625,787.7289428710938
814,793.3699340820312,796.5933837890625,790.5494384765625,790.1465454101562
815,792.1611938476562,797.8021850585938,788.1318969726562,785.7142944335938
816,796.996337890625,798.6080322265625,784.5054931640625,789.3406372070312
817,799.4139404296875,799.010986328125,787.3259887695312,791.7582397460938
818,800.2197875976562,801.4285888671875,792.5640869140625,793.7728881835938
819,798.6080322265625,801.4285888671875,789.3406372070312,797.8021850585938
820,794.1758422851562,801.025634765625,788.5347900390625,799.8168334960938
821,792.1611938476562,799.4139404296875,789.3406372070312,794.1758422851562
822,797.3992919921875,798.2051391601562,789.3406372070312,792.5640869140625
823,798.2051391601562,797.3992919921875,790.952392578125,796.996337890625
824,795.3846435546875,798.2051391601562,793.3699340820312,798.2051391601562
825,795.7875366210938,799.010986328125,797.8021850585938,800.6226806640625
826,796.1904907226562,797.8021850585938,796.1904907226562,801.025634765625
827,797.8021850585938,797.8021850585938,794.981689453125,800.2197875976562
828,792.1611938476562,796.996337890625,797.3992919921875,795.3846435546875
829,792.1611938476562,799.4139404296875,793.3699340820312,792.1611938476562
830,794.981689453125,800.6226806640625,790.5494384765625,798.2051391601562
831,795.3846435546875,798.2051391601562,790.952392578125,799.8168334960938
832,795.3846435546875,798.6080322265625,795.7875366210938,793.7728881835938
833,797.8021850585938,799.8168334960938,798.2051391601562,796.5933837890625
834,795.3846435546875,798.6080322265625,800.2197875976562,801.4285888671875
835,786.1171875,794.1758422851562,799.8168334960938,792.1611938476562
836,787.7289428710938,789.7435913085938,797.3992919921875,783.6996459960938
837,787.3259887695312,786.923095703125,804.6520385742188,785.3113403320312
838,789.7435913085938,788.937744140625,807.87548828125,790.952392578125
839,792.967041015625,787.3259887695312,803.4432373046875,792.5640869140625
840,780.4761962890625,782.4908447265625,802.2344360351562,785.7142944335938
841,776.0439453125,782.087890625,801.025634765625,782.087890625
842,785.3113403320312,786.5201416015625,801.4285888671875,785.7142944335938
843,792.5640869140625,789.7435913085938,805.054931640625,791.7582397460938
844,790.1465454101562,785.7142944335938,803.040283203125,793.7728881835938
845,784.1025390625,782.893798828125,799.8168334960938,795.7875366210938
846,779.2673950195312,784.908447265625,799.8168334960938,795.3846435546875
847,774.029296875,786.923095703125,800.6226806640625,791.3552856445312
848,778.4615478515625,786.1171875,800.2197875976562,789.7435913085938
849,785.3113403320312,785.3113403320312,802.6373901367188,789.3406372070312
850,782.087890625,788.5347900390625,802.2344360351562,788.937744140625
851,780.879150390625,793.7728881835938,800.6226806640625,789.7435913085938
852,786.923095703125,796.996337890625,805.054931640625,790.952392578125
853,786.1171875,791.7582397460938,796.5933837890625,790.952392578125
854,787.7289428710938,788.937744140625,789.7435913085938,794.5787353515625
855,789.3406372070312,790.952392578125,791.3552856445312,788.5347900390625
856,787.7289428710938,795.7875366210938,790.5494384765625,783.6996459960938
857,790.952392578125,799.010986328125,792.1611938476562,793.3699340820312
858,791.3552856445312,794.5787353515625,788.5347900390625,799.4139404296875
859,790.952392578125,793.7728881835938,786.1171875,790.952392578125
860,790.5494384765625,799.010986328125,788.1318969726562,790.5494384765625
861,786.5201416015625,796.5933837890625,789.3406372070312,794.1758422851562
862,780.0732421875,793.7728881835938,784.5054931640625,791.7582397460938
863,788.937744140625,798.2051391601562,782.4908447265625,794.1758422851562
864,793.3699340820312,799.4139404296875,788.1318969726562,798.6080322265625
865,788.1318969726562,794.981689453125,791.3552856445312,796.996337890625
866,792.5640869140625,799.4139404296875,796.1904907226562,798.6080322265625
867,792.1611938476562,805.8607788085938,794.981689453125,797.3992919921875
868,792.5640869140625,803.8461303710938,788.5347900390625,796.5933837890625
869,795.7875366210938,801.8314819335938,792.5640869140625,799.4139404296875
870,790.5494384765625,797.8021850585938,791.7582397460938,790.952392578125
871,786.923095703125,796.5933837890625,786.923095703125,784.5054931640625
872,787.7289428710938,794.5787353515625,788.5347900390625,788.5347900390625
873,785.7142944335938,788.937744140625,788.1318969726562,792.1611938476562
874,787.7289428710938,788.937744140625,788.5347900390625,791.3552856445312
875,793.7728881835938,790.5494384765625,792.1611938476562,791.7582397460938
876,793.7728881835938,788.5347900390625,788.5347900390625,794.981689453125
877,790.952392578125,790.952392578125,786.1171875,801.025634765625
878,786.1171875,792.967041015625,790.1465454101562,796.5933837890625
879,786.5201416015625,788.937744140625,789.3406372070312,788.1318969726562
880,793.3699340820312,789.7435913085938,787.3259887695312,795.7875366210938
881,793.7728881835938,795.3846435546875,789.3406372070312,806.6666870117188
882,790.5494384765625,791.3552856445312,791.3552856445312,794.5787353515625
883,794.5787353515625,789.3406372070312,793.7728881835938,790.952392578125
884,797.3992919921875,792.967041015625,794.1758422851562,795.7875366210938
885,794.5787353515625,793.3699340820312,796.1904907226562,792.5640869140625
886,791.3552856445312,792.967041015625,796.996337890625,791.7582397460938
887,784.908447265625,790.952392578125,794.5787353515625,789.3406372070312
888,781.6849975585938,789.3406372070312,792.5640869140625,786.5201416015625
889,782.893798828125,785.7142944335938,791.3552856445312,786.923095703125
890,781.6849975585938,787.7289428710938,793.3699340820312,786.1171875
891,780.4761962890625,791.7582397460938,799.010986328125,785.7142944335938
892,782.4908447265625,789.7435913085938,797.3992919921875,788.1318969726562
893,788.5347900390625,788.1318969726562,799.4139404296875,790.952392578125
894,795.3846435546875,794.1758422851562,802.6373901367188,787.7289428710938
895,794.1758422851562,798.6080322265625,799.8168334960938,782.893798828125
896,794.5787353515625,801.025634765625,796.5933837890625,784.5054931640625
897,802.6373901367188,802.2344360351562,795.7875366210938,788.937744140625
898,808.6813354492188,803.040283203125,801.8314819335938,792.5640869140625
899,809.4871826171875,804.2490844726562,799.010986328125,796.996337890625
900,805.4578857421875,802.2344360351562,795.7875366210938,801.8314819335938
901,803.4432373046875,797.8021850585938,794.1758422851562,799.4139404296875
902,806.6666870117188,796.5933837890625,797.8021850585938,799.010986328125
903,805.4578857421875,798.6080322265625,802.6373901367188,805.4578857421875
904,803.4432373046875,800.2197875976562,801.025634765625,801.8314819335938
905,801.4285888671875,797.8021850585938,800.2197875976562,794.1758422851562
906,793.7728881835938,796.1904907226562,797.3992919921875,790.952392578125
907,792.967041015625,798.6080322265625,793.7728881835938,789.3406372070312
908,792.1611938476562,796.5933837890625,796.1904907226562,790.952392578125
909,786.5201416015625,796.1904907226562,798.2051391601562,796.1904907226562
910,785.7142944335938,792.5640869140625,795.7875366210938,791.7582397460938
911,783.6996459960938,792.967041015625,795.3846435546875,788.1318969726562
912,784.5054931640625,798.2051391601562,796.5933837890625,792.1611938476562
913,784.1025390625,795.7875366210938,794.5787353515625,788.5347900390625
914,786.923095703125,798.2051391601562,796.5933837890625,788.937744140625
915,788.937744140625,798.2051391601562,798.2051391601562,793.7728881835938
916,790.5494384765625,795.7875366210938,796.996337890625,793.7728881835938
917,786.1171875,793.7728881835938,795.3846435546875,787.3259887695312
918,776.4468994140625,791.3552856445312,793.7728881835938,786.1171875
919,782.893798828125,793.7728881835938,793.3699340820312,790.952392578125
920,786.5201416015625,792.967041015625,793.7728881835938,784.5054931640625
921,788.937744140625,793.7728881835938,795.3846435546875,783.2966918945312
922,792.1611938476562,796.996337890625,798.2051391601562,785.7142944335938
923,788.5347900390625,794.1758422851562,794.5787353515625,778.4615478515625
924,787.7289428710938,790.5494384765625,792.5640869140625,773.2234497070312
925,791.3552856445312,791.7582397460938,796.1904907226562,778.05859375
926,791.3552856445312,795.3846435546875,796.996337890625,786.5201416015625
927,789.7435913085938,795.3846435546875,796.1904907226562,792.5640869140625
928,788.5347900390625,797.8021850585938,794.1758422851562,794.5787353515625
929,788.5347900390625,800.2197875976562,794.1758422851562,794.1758422851562
930,787.7289428710938,794.981689453125,796.5933837890625,791.3552856445312
931,792.967041015625,793.7728881835938,796.1904907226562,787.7289428710938
932,792.967041015625,794.1758422851562,793.7728881835938,783.6996459960938
933,784.1025390625,791.3552856445312,787.7289428710938,780.4761962890625
934,781.2820434570312,788.5347900390625,786.923095703125,781.2820434570312
935,782.893798828125,788.937744140625,792.1611938476562,784.1025390625
936,783.2966918945312,788.937744140625,792.967041015625,784.908447265625
937,780.879150390625,788.1318969726562,792.967041015625,786.1171875
938,780.4761962890625,788.937744140625,796.5933837890625,790.952392578125
939,779.6703491210938,790.1465454101562,794.5787353515625,791.7582397460938
940,776.8497924804688,791.7582397460938,794.5787353515625,787.7289428710938
941,779.2673950195312,789.3406372070312,793.7728881835938,791.7582397460938
942,780.879150390625,792.5640869140625,793.3699340820312,790.5494384765625
943,776.4468994140625,795.3846435546875,798.6080322265625,788.1318969726562
944,774.4322509765625,796.1904907226562,792.5640869140625,784.5054931640625
945,779.6703491210938,796.996337890625,786.923095703125,781.2820434570312
946,786.5201416015625,795.3846435546875,789.7435913085938,786.1171875
947,790.1465454101562,794.1758422851562,787.7289428710938,792.1611938476562
948,788.1318969726562,794.1758422851562,788.5347900390625,792.1611938476562
949,788.1318969726562,795.3846435546875,792.1611938476562,792.1611938476562
950,791.7582397460938,796.1904907226562,788.937744140625,792.5640869140625
951,795.3846435546875,796.1904907226562,784.1025390625,788.1318969726562
952,794.1758422851562,795.7875366210938,787.3259887695312,783.2966918945312
953,790.5494384765625,789.3406372070312,788.937744140625,789.3406372070312
954,791.3552856445312,786.5201416015625,790.1465454101562,799.010986328125
955,794.5787353515625,790.1465454101562,794.5787353515625,794.981689453125
956,795.3846435546875,793.3699340820312,794.5787353515625,787.3259887695312
957,792.1611938476562,791.7582397460938,791.3552856445312,782.087890625
958,791.7582397460938,795.3846435546875,790.5494384765625,782.893798828125
959,791.3552856445312,800.6226806640625,794.1758422851562,781.2820434570312
960,792.5640869140625,797.8021850585938,799.4139404296875,780.879150390625
961,795.3846435546875,796.996337890625,794.1758422851562,782.087890625
962,798.2051391601562,798.2051391601562,796.5933837890625,786.5201416015625
963,798.6080322265625,799.4139404296875,801.8314819335938,790.1465454101562
964,790.952392578125,799.4139404296875,798.6080322265625,789.3406372070312
965,793.7728881835938,797.8021850585938,799.4139404296875,800.2197875976562
966,796.1904907226562,794.981689453125,800.6226806640625,802.2344360351562
967,788.937744140625,789.7435913085938,802.2344360351562,793.3699340820312
968,784.908447265625,788.5347900390625,803.4432373046875,794.981689453125
969,785.3113403320312,792.967041015625,803.040283203125,792.5640869140625
970,790.1465454101562,791.7582397460938,805.054931640625,792.1611938476562
971,793.7728881835938,793.3699340820312,807.069580078125,799.8168334960938
972,792.967041015625,790.952392578125,805.4578857421875,799.4139404296875
973,793.3699340820312,790.952392578125,803.4432373046875,797.8021850585938
974,793.3699340820312,793.7728881835938,802.6373901367188,801.025634765625
975,791.7582397460938,794.1758422851562,801.8314819335938,799.8168334960938
976,798.6080322265625,796.1904907226562,798.6080322265625,808.6813354492188
977,803.4432373046875,795.7875366210938,799.8168334960938,815.1282348632812
978,799.4139404296875,796.996337890625,801.025634765625,801.025634765625
979,801.4285888671875,798.6080322265625,796.1904907226562,794.981689453125
980,804.6520385742188,794.1758422851562,790.1465454101562,794.5787353515625
981,804.2490844726562,793.3699340820312,786.5201416015625,793.7728881835938
982,802.2344360351562,791.3552856445312,785.7142944335938,791.3552856445312
983,798.6080322265625,788.937744140625,784.1025390625,788.937744140625
984,795.3846435546875,794.1758422851562,789.7435913085938,786.923095703125
985,796.5933837890625,793.3699340820312,792.5640869140625,782.4908447265625
986,797.8021850585938,794.5787353515625,790.1465454101562,783.2966918945312
987,797.3992919921875,799.8168334960938,790.952392578125,786.923095703125
988,794.981689453125,796.1904907226562,793.3699340820312,791.3552856445312
989,789.3406372070312,794.981689453125,796.1904907226562,794.1758422851562
990,789.3406372070312,795.7875366210938,799.4139404296875,789.3406372070312
991,792.5640869140625,791.3552856445312,801.025634765625,792.1611938476562
992,787.7289428710938,789.7435913085938,797.8021850585938,796.1904907226562
993,788.937744140625,789.7435913085938,796.5933837890625,794.981689453125
994,787.3259887695312,789.7435913085938,795.7875366210938,791.7582397460938
995,782.087890625,784.1025390625,793.7728881835938,792.5640869140625
996,784.1025390625,784.5054931640625,793.3699340820312,794.1758422851562
997,783.2966918945312,784.5054931640625,793.3699340820312,785.7142944335938
998,784.908447265625,786.1171875,792.967041015625,786.923095703125
999,780.879150390625,784.1025390625,794.5787353515625,794.981689453125
1000,776.8497924804688,779.6703491210938,793.3699340820312,794.981689453125
1001,787.7289428710938,786.923095703125,792.1611938476562,790.5494384765625
1002,796.5933837890625,791.3552856445312,790.5494384765625,783.2966918945312
1003,789.7435913085938,790.952392578125,785.3113403320312,776.4468994140625
1004,782.4908447265625,787.7289428710938,788.937744140625,777.2527465820312
1005,785.3113403320312,785.7142944335938,796.1904907226562,778.8644409179688
1006,787.3259887695312,785.3113403320312,793.3699340820312,779.2673950195312
1007,787.3259887695312,787.7289428710938,792.967041015625,781.6849975585938
1008,788.937744140625,787.7289428710938,790.1465454101562,784.1025390625
1009,786.5201416015625,786.1171875,788.5347900390625,782.4908447265625
1010,785.7142944335938,789.3406372070312,793.7728881835938,784.1025390625
1011,790.952392578125,795.3846435546875,793.3699340820312,790.952392578125
1012,794.981689453125,795.3846435546875,794.5787353515625,797.3992919921875
1013,797.3992919921875,794.1758422851562,796.1904907226562,792.1611938476562
1014,791.3552856445312,791.7582397460938,791.3552856445312,782.087890625
1015,791.3552856445312,796.5933837890625,790.952392578125,784.908447265625
1016,794.5787353515625,799.4139404296875,794.5787353515625,792.967041015625
1017,793.3699340820312,795.7875366210938,791.7582397460938,792.5640869140625
1018,790.952392578125,799.010986328125,787.3259887695312,788.5347900390625
1019,784.908447265625,801.4285888671875,782.4908447265625,786.923095703125
1020,787.3259887695312,800.2197875976562,785.3113403320312,788.1318969726562
1021,787.3259887695312,794.5787353515625,788.1318969726562,783.2966918945312
1022,790.952392578125,790.1465454101562,788.937744140625,790.1465454101562
1023,796.5933837890625,793.3699340820312,794.1758422851562,801.8314819335938
1024,794.5787353515625,794.981689453125,796.1904907226562,794.5787353515625
1025,794.1758422851562,794.981689453125,797.3992919921875,790.1465454101562
1026,796.996337890625,792.967041015625,792.5640869140625,792.967041015625
1027,795.7875366210938,789.3406372070312,788.5347900390625,790.1465454101562
1028,792.1611938476562,790.1465454101562,796.996337890625,788.1318969726562
1029,795.7875366210938,796.1904907226562,801.4285888671875,791.3552856445312
1030,788.937744140625,797.3992919921875,800.2197875976562,787.3259887695312
1031,784.1025390625,795.3846435546875,802.2344360351562,786.1171875
1032,790.1465454101562,794.981689453125,803.8461303710938,791.7582397460938
1033,791.3552856445312,794.5787353515625,804.6520385742188,789.7435913085938
1034,792.1611938476562,796.1904907226562,802.6373901367188,787.7289428710938
1035,792.5640869140625,792.967041015625,804.6520385742188,786.1171875
1036,790.1465454101562,790.5494384765625,801.4285888671875,784.1025390625
1037,787.3259887695312,788.937744140625,794.1758422851562,785.7142944335938
1038,782.893798828125,784.5054931640625,794.981689453125,788.937744140625
1039,777.6557006835938,783.6996459960938,795.7875366210938,781.2820434570312
1040,772.0146484375,786.1171875,797.8021850585938,773.6264038085938
1041,776.8497924804688,788.5347900390625,799.8168334960938,782.4908447265625
1042,792.1611938476562,790.1465454101562,797.8021850585938,792.1611938476562
1043,795.3846435546875,792.5640869140625,798.6080322265625,795.7875366210938
1044,791.3552856445312,795.7875366210938,797.3992919921875,790.1465454101562
1045,795.3846435546875,796.1904907226562,796.996337890625,790.952392578125
1046,794.981689453125,799.010986328125,800.2197875976562,794.981689453125
1047,788.5347900390625,799.4139404296875,798.6080322265625,795.7875366210938
1048,786.5201416015625,792.1611938476562,792.967041015625,792.967041015625
1049,785.7142944335938,788.937744140625,791.3552856445312,790.5494384765625
1050,786.5201416015625,792.967041015625,791.3552856445312,790.5494384765625
1051,786.5201416015625,795.3846435546875,787.3259887695312,787.3259887695312
1052,790.952392578125,794.1758422851562,786.923095703125,787.3259887695312
1053,797.3992919921875,796.5933837890625,788.5347900390625,796.5933837890625
1054,795.7875366210938,798.6080322265625,788.5347900390625,799.4139404296875
1055,792.967041015625,796.1904907226562,789.7435913085938,787.3259887695312
1056,790.5494384765625,794.5787353515625,787.7289428710938,780.4761962890625
1057,796.996337890625,790.952392578125,785.7142944335938,790.5494384765625
1058,798.6080322265625,790.5494384765625,788.937744140625,799.010986328125
1059,791.3552856445312,791.7582397460938,792.1611938476562,790.1465454101562
1060,791.3552856445312,793.3699340820312,793.3699340820312,784.908447265625
1061,789.7435913085938,794.5787353515625,797.3992919921875,787.7289428710938
1062,791.7582397460938,795.3846435546875,796.1904907226562,784.5054931640625
1063,794.1758422851562,797.3992919921875,792.967041015625,784.5054931640625
1064,791.3552856445312,798.2051391601562,793.7728881835938,789.7435913085938
1065,788.937744140625,797.3992919921875,794.5787353515625,791.7582397460938
1066,789.3406372070312,794.1758422851562,793.7728881835938,785.3113403320312
1067,792.967041015625,792.1611938476562,792.5640869140625,781.6849975585938
1068,793.3699340820312,791.3552856445312,796.5933837890625,780.879150390625
1069,794.1758422851562,792.1611938476562,794.981689453125,780.0732421875
1070,786.923095703125,791.7582397460938,795.3846435546875,784.5054931640625
1071,778.05859375,790.1465454101562,792.1611938476562,780.4761962890625
1072,779.6703491210938,786.5201416015625,789.3406372070312,777.6557006835938
1073,778.05859375,781.2820434570312,792.5640869140625,777.2527465820312
1074,780.4761962890625,780.0732421875,794.1758422851562,776.8497924804688
1075,783.2966918945312,778.8644409179688,793.7728881835938,778.4615478515625
1076,780.0732421875,781.6849975585938,794.981689453125,778.8644409179688
1077,777.6557006835938,786.5201416015625,795.3846435546875,776.0439453125
1078,787.7289428710938,790.5494384765625,796.996337890625,783.6996459960938
1079,801.025634765625,796.1904907226562,796.5933837890625,797.3992919921875
1080,798.6080322265625,801.4285888671875,799.4139404296875,803.8461303710938
1081,794.981689453125,805.4578857421875,799.4139404296875,808.6813354492188
1082,798.6080322265625,801.4285888671875,796.5933837890625,803.4432373046875
1083,803.040283203125,801.4285888671875,790.952392578125,801.025634765625
1084,803.4432373046875,799.8168334960938,786.1171875,805.8607788085938
1085,801.025634765625,794.981689453125,788.937744140625,807.069580078125
1086,801.8314819335938,797.3992919921875,792.5640869140625,803.040283203125
1087,799.4139404296875,798.2051391601562,791.7582397460938,797.8021850585938
1088,799.010986328125,799.8168334960938,787.7289428710938,793.7728881835938
1089,803.4432373046875,799.010986328125,788.1318969726562,793.7728881835938
1090,807.069580078125,795.7875366210938,793.3699340820312,797.8021850585938
1091,804.2490844726562,796.5933837890625,793.7728881835938,792.5640869140625
1092,797.3992919921875,792.967041015625,790.5494384765625,780.879150390625
1093,799.4139404296875,793.7728881835938,793.7728881835938,791.3552856445312
1094,801.025634765625,795.7875366210938,802.6373901367188,800.2197875976562
1095,794.5787353515625,792.5640869140625,799.4139404296875,794.981689453125
1096,788.5347900390625,788.1318969726562,795.7875366210938,789.3406372070312
1097,782.4908447265625,788.1318969726562,799.4139404296875,787.3259887695312
1098,780.879150390625,790.952392578125,801.025634765625,792.1611938476562
1099,783.6996459960938,792.1611938476562,803.4432373046875,801.025634765625
1100,784.1025390625,794.5787353515625,801.025634765625,803.8461303710938
1101,785.3113403320312,797.8021850585938,802.2344360351562,798.2051391601562
1102,788.5347900390625,798.2051391601562,800.2197875976562,799.4139404296875
1103,796.1904907226562,799.010986328125,797.3992919921875,799.8168334960938
1104,796.5933837890625,797.8021850585938,798.6080322265625,795.3846435546875
1105,793.3699340820312,793.3699340820312,797.8021850585938,796.5933837890625
1106,794.1758422851562,796.996337890625,800.6226806640625,792.967041015625
1107,794.5787353515625,799.010986328125,803.040283203125,797.3992919921875
1108,789.7435913085938,794.5787353515625,795.7875366210938,794.5787353515625
1109,791.3552856445312,792.967041015625,788.1318969726562,788.937744140625
1110,794.1758422851562,795.7875366210938,788.937744140625,790.1465454101562
1111,789.7435913085938,797.3992919921875,785.7142944335938,788.937744140625
1112,790.5494384765625,796.996337890625,789.7435913085938,792.1611938476562
1113,792.1611938476562,799.8168334960938,790.1465454101562,792.1611938476562
1114,791.3552856445312,802.6373901367188,785.7142944335938,788.1318969726562
1115,794.5787353515625,801.4285888671875,791.7582397460938,786.5201416015625
1116,793.7728881835938,802.6373901367188,790.1465454101562,782.893798828125
1117,787.7289428710938,802.6373901367188,787.3259887695312,774.4322509765625
1118,792.1611938476562,795.3846435546875,789.3406372070312,785.3113403320312
1119,796.1904907226562,791.7582397460938,788.1318969726562,791.3552856445312
1120,787.7289428710938,791.7582397460938,786.1171875,780.4761962890625
1121,784.1025390625,790.1465454101562,785.7142944335938,774.8351440429688
1122,779.2673950195312,789.3406372070312,784.908447265625,778.05859375
1123,769.1941528320312,786.5201416015625,781.6849975585938,777.2527465820312
1124,773.6264038085938,784.5054931640625,784.908447265625,773.2234497070312
1125,778.05859375,785.7142944335938,784.908447265625,775.2380981445312
1126,775.6410522460938,787.7289428710938,783.2966918945312,777.6557006835938
1127,778.4615478515625,787.3259887695312,791.7582397460938,782.893798828125
1128,778.4615478515625,785.7142944335938,794.5787353515625,785.7142944335938
1129,783.6996459960938,789.7435913085938,790.952392578125,791.7582397460938
1130,792.967041015625,791.3552856445312,790.5494384765625,796.5933837890625
1131,792.5640869140625,788.5347900390625,796.1904907226562,793.3699340820312
1132,789.3406372070312,789.3406372070312,794.5787353515625,792.1611938476562
1133,794.981689453125,792.1611938476562,792.5640869140625,799.4139404296875
1134,799.010986328125,789.7435913085938,794.981689453125,809.084228515625
1135,792.1611938476562,793.3699340820312,799.8168334960938,805.054931640625
1136,792.5640869140625,798.2051391601562,803.040283203125,793.7728881835938
1137,796.1904907226562,798.6080322265625,796.5933837890625,795.7875366210938
1138,794.1758422851562,798.6080322265625,794.1758422851562,797.8021850585938
1139,792.967041015625,799.4139404296875,792.5640869140625,795.7875366210938
1140,791.7582397460938,794.981689453125,792.1611938476562,797.3992919921875
1141,791.3552856445312,790.5494384765625,792.967041015625,794.981689453125
1142,786.1171875,788.937744140625,793.7728881835938,786.5201416015625
1143,784.5054931640625,793.3699340820312,799.010986328125,787.7289428710938
1144,786.1171875,793.3699340820312,799.010986328125,787.3259887695312
1145,788.1318969726562,788.937744140625,793.7728881835938,786.923095703125
1146,787.3259887695312,788.5347900390625,794.1758422851562,788.5347900390625
1147,786.923095703125,790.1465454101562,793.7728881835938,787.7289428710938
1148,785.7142944335938,791.3552856445312,794.981689453125,794.981689453125
1149,784.5054931640625,792.967041015625,801.8314819335938,795.7875366210938
1150,785.7142944335938,796.5933837890625,801.8314819335938,790.5494384765625
1151,781.6849975585938,794.5787353515625,799.4139404296875,782.4908447265625
1152,774.029296875,790.5494384765625,799.8168334960938,776.8497924804688
1153,770.0,792.5640869140625,798.2051391601562,777.6557006835938
1154,772.0146484375,792.967041015625,795.3846435546875,777.2527465820312
1155,778.05859375,792.1611938476562,789.3406372070312,783.6996459960938
1156,777.2527465820312,792.5640869140625,787.7289428710938,785.3113403320312
1157,774.8351440429688,789.3406372070312,792.1611938476562,788.1318969726562
1158,776.0439453125,788.1318969726562,794.981689453125,793.7728881835938
1159,780.0732421875,792.1611938476562,790.952392578125,787.3259887695312
1160,786.1171875,794.1758422851562,789.3406372070312,789.3406372070312
1161,787.7289428710938,794.1758422851562,794.5787353515625,795.3846435546875
1162,785.7142944335938,795.7875366210938,792.967041015625,787.7289428710938
1163,784.5054931640625,794.981689453125,795.3846435546875,781.2820434570312
1164,788.1318969726562,793.3699340820312,797.8021850585938,786.5201416015625
1165,791.7582397460938,795.3846435546875,798.2051391601562,792.967041015625
1166,790.5494384765625,798.2051391601562,796.996337890625,790.5494384765625
1167,788.5347900390625,796.1904907226562,791.7582397460938,787.3259887695312
1168,782.087890625,790.952392578125,792.967041015625,790.5494384765625
1169,776.8497924804688,788.1318969726562,796.5933837890625,788.1318969726562
1170,780.879150390625,788.1318969726562,794.1758422851562,776.4468994140625
1171,788.937744140625,793.3699340820312,797.8021850585938,779.6703491210938
1172,791.3552856445312,798.2051391601562,799.010986328125,782.893798828125
1173,789.3406372070312,797.3992919921875,798.6080322265625,779.6703491210938
1174,790.5494384765625,796.996337890625,803.040283203125,782.4908447265625
1175,786.5201416015625,796.1904907226562,802.2344360351562,785.3113403320312
1176,788.937744140625,796.1904907226562,799.010986328125,794.981689453125
1177,795.3846435546875,795.3846435546875,801.025634765625,798.2051391601562
1178,790.952392578125,793.7728881835938,799.010986328125,790.5494384765625
1179,792.1611938476562,797.3992919921875,800.2197875976562,792.967041015625
1180,793.3699340820312,794.981689453125,797.3992919921875,798.6080322265625
1181,794.1758422851562,791.7582397460938,796.5933837890625,800.2197875976562
1182,795.3846435546875,794.981689453125,801.8314819335938,794.981689453125
1183,795.3846435546875,794.981689453125,797.3992919921875,791.3552856445312
1184,794.1758422851562,796.996337890625,800.2197875976562,794.5787353515625
1185,788.5347900390625,797.3992919921875,800.6226806640625,794.981689453125
1186,796.5933837890625,806.6666870117188,803.040283203125,794.1758422851562
1187,795.7875366210938,805.8607788085938,804.2490844726562,786.923095703125
1188,782.087890625,790.952392578125,795.3846435546875,772.4176025390625
1189,774.4322509765625,793.7728881835938,795.7875366210938,770.8058471679688
1190,772.4176025390625,801.8314819335938,803.040283203125,769.5970458984375
1191,765.5677490234375,797.8021850585938,797.3992919921875,755.8974609375
1192,754.2857055664062,798.6080322265625,796.996337890625,752.6740112304688
1193,739.3773193359375,801.4285888671875,808.6813354492188,740.5860595703125
1194,725.2747192382812,803.4432373046875,803.4432373046875,723.2600708007812
1195,714.7985229492188,805.054931640625,805.054931640625,716.8131713867188
1196,706.3369750976562,807.87548828125,807.87548828125,707.1428833007812
1197,693.4432373046875,815.1282348632812,815.5311279296875,697.069580078125
1198,677.3259887695312,820.3662719726562,827.6190185546875,689.010986328125
1199,656.3735961914062,815.1282348632812,830.8424682617188,674.1025390625
1200,641.8681030273438,813.113525390625,832.05126953125,661.2088012695312
1201,647.106201171875,809.4871826171875,834.8717651367188,662.4176025390625
1202,647.5091552734375,803.040283203125,834.8717651367188,660.8058471679688
1203,640.6593627929688,805.4578857421875,833.2600708007812,662.4176025390625
1204,643.4798583984375,806.6666870117188,836.4835205078125,669.2673950195312
1205,642.2710571289062,805.054931640625,839.3040161132812,664.8351440429688
1206,650.7326049804688,808.2783813476562,842.5274658203125,668.4615478515625
1207,660.4029541015625,809.084228515625,845.7509155273438,682.967041015625
1208,664.8351440429688,809.4871826171875,846.1538696289062,686.996337890625
1209,678.1318969726562,807.4725341796875,844.1392211914062,690.2197875976562
1210,685.7875366210938,801.4285888671875,839.7069702148438,695.8607788085938
1211,701.098876953125,796.996337890625,839.3040161132812,707.1428833007812
1212,713.99267578125,800.2197875976562,840.5128173828125,716.4102783203125
1213,718.02197265625,805.8607788085938,835.2747192382812,718.4249267578125
1214,731.3186645507812,805.4578857421875,830.4395751953125,735.3479614257812
1215,744.6153564453125,800.6226806640625,828.4249267578125,748.6447143554688
1216,754.2857055664062,792.967041015625,821.1721801757812,750.2564086914062
1217,751.4652099609375,786.1171875,814.7252807617188,754.2857055664062
1218,770.0,790.952392578125,815.5311279296875,779.2673950195312
1219,790.1465454101562,796.5933837890625,814.7252807617188,795.7875366210938
1220,784.908447265625,797.8021850585938,806.6666870117188,782.4908447265625
1221,786.923095703125,797.3992919921875,802.6373901367188,779.2673950195312
1222,794.5787353515625,794.1758422851562,799.4139404296875,792.1611938476562
1223,802.2344360351562,787.3259887695312,796.1904907226562,803.040283203125
1224,809.89013671875,787.3259887695312,795.7875366210938,808.2783813476562
1225,805.8607788085938,787.7289428710938,791.7582397460938,807.87548828125
1226,807.4725341796875,788.937744140625,786.923095703125,814.7252807617188
1227,809.89013671875,788.937744140625,784.908447265625,817.94873046875
1228,813.91943359375,782.893798828125,778.8644409179688,820.7692260742188
1229,820.3662719726562,780.4761962890625,778.4615478515625,829.6337280273438
1230,824.3956298828125,784.908447265625,780.879150390625,830.4395751953125
1231,833.2600708007812,794.1758422851562,779.2673950195312,835.6776733398438
1232,834.8717651367188,795.3846435546875,780.0732421875,832.8571166992188
1233,836.4835205078125,793.7728881835938,778.4615478515625,831.2454223632812
1234,836.4835205078125,794.981689453125,779.6703491210938,837.6923217773438
1235,828.02197265625,791.3552856445312,778.05859375,832.05126953125
1236,830.03662109375,790.1465454101562,771.2088012695312,831.2454223632812
1237,842.5274658203125,792.1611938476562,769.5970458984375,840.10986328125
1238,844.1392211914062,788.937744140625,772.0146484375,838.09521484375
1239,845.3479614257812,789.3406372070312,773.6264038085938,833.6630249023438
1240,846.959716796875,791.7582397460938,775.2380981445312,837.6923217773438
1241,848.1685180664062,791.3552856445312,774.029296875,841.3186645507812
1242,853.4066162109375,793.3699340820312,772.8204956054688,850.989013671875
1243,850.989013671875,792.967041015625,774.029296875,843.7362670898438
1244,845.7509155273438,791.7582397460938,778.05859375,836.886474609375
1245,847.3626098632812,790.5494384765625,774.8351440429688,842.930419921875
1246,844.1392211914062,792.1611938476562,768.7911987304688,837.2893676757812
1247,839.3040161132812,789.3406372070312,770.0,834.4688720703125
1248,841.7216186523438,785.7142944335938,773.2234497070312,835.6776733398438
1249,832.8571166992188,787.7289428710938,776.0439453125,832.4542236328125
1250,827.2161254882812,787.3259887695312,777.2527465820312,832.8571166992188
1251,827.6190185546875,791.7582397460938,778.05859375,831.6483764648438
1252,830.03662109375,795.3846435546875,780.4761962890625,826.00732421875
1253,834.4688720703125,796.1904907226562,783.2966918945312,833.6630249023438
1254,827.2161254882812,796.1904907226562,786.1171875,832.4542236328125
1255,821.5750732421875,793.3699340820312,788.1318969726562,821.97802734375
1256,822.3809814453125,793.7728881835938,783.2966918945312,826.00732421875
1257,817.94873046875,790.5494384765625,779.2673950195312,824.7985229492188
1258,813.91943359375,789.7435913085938,780.0732421875,821.1721801757812
1259,812.7106323242188,790.952392578125,781.6849975585938,819.5604248046875
1260,810.2930297851562,786.1171875,777.6557006835938,814.7252807617188
1261,813.113525390625,784.1025390625,774.4322509765625,810.6959838867188
1262,817.1428833007812,783.6996459960938,780.0732421875,809.89013671875
1263,819.5604248046875,784.1025390625,782.893798828125,815.1282348632812
1264,826.4102783203125,787.7289428710938,784.1025390625,816.7399291992188
1265,827.2161254882812,788.937744140625,785.7142944335938,812.3076782226562
1266,817.1428833007812,788.937744140625,783.6996459960938,811.098876953125
1267,821.1721801757812,791.3552856445312,782.087890625,814.7252807617188
1268,828.8278198242188,791.7582397460938,782.893798828125,815.93408203125
1269,824.7985229492188,786.923095703125,781.2820434570312,813.91943359375
1270,823.5897216796875,785.7142944335938,781.2820434570312,813.5164794921875
1271,820.3662719726562,783.2966918945312,787.3259887695312,812.3076782226562
1272,820.7692260742188,785.3113403320312,788.1318969726562,819.1575317382812
1273,820.7692260742188,791.3552856445312,788.5347900390625,825.6043701171875
1274,817.1428833007812,795.7875366210938,790.1465454101562,815.1282348632812
1275,809.89013671875,796.5933837890625,788.937744140625,809.4871826171875
1276,809.89013671875,791.7582397460938,783.6996459960938,817.94873046875
1277,814.7252807617188,787.3259887695312,786.5201416015625,813.5164794921875
1278,817.94873046875,792.1611938476562,794.1758422851562,807.4725341796875
1279,817.1428833007812,794.5787353515625,793.3699340820312,812.3076782226562
1280,815.93408203125,790.1465454101562,789.3406372070312,806.2637329101562
1281,815.5311279296875,789.3406372070312,786.5201416015625,798.6080322265625
1282,811.5018310546875,791.3552856445312,782.4908447265625,798.2051391601562
1283,810.2930297851562,793.3699340820312,784.1025390625,804.2490844726562
1284,809.4871826171875,791.3552856445312,787.7289428710938,803.8461303710938
1285,806.2637329101562,789.7435913085938,787.7289428710938,799.4139404296875
1286,797.3992919921875,792.1611938476562,785.3113403320312,795.3846435546875
1287,801.4285888671875,789.7435913085938,784.5054931640625,796.1904907226562
1288,807.069580078125,786.5201416015625,786.1171875,799.010986328125
1289,805.4578857421875,789.7435913085938,787.7289428710938,801.8314819335938
1290,805.054931640625,791.3552856445312,792.5640869140625,801.025634765625
1291,800.6226806640625,788.937744140625,791.3552856445312,791.3552856445312
1292,800.6226806640625,790.1465454101562,791.3552856445312,793.3699340820312
1293,806.6666870117188,791.7582397460938,792.967041015625,794.5787353515625
1294,810.2930297851562,789.7435913085938,790.5494384765625,793.7728881835938
1295,808.2783813476562,795.7875366210938,791.7582397460938,796.5933837890625
1296,799.4139404296875,798.2051391601562,792.967041015625,794.1758422851562
1297,795.3846435546875,792.5640869140625,790.1465454101562,793.7728881835938
1298,800.2197875976562,790.1465454101562,788.1318969726562,794.5787353515625
1299,806.2637329101562,794.1758422851562,791.3552856445312,801.8314819335938
1300,799.010986328125,791.3552856445312,789.3406372070312,800.6226806640625
1301,790.5494384765625,788.5347900390625,785.3113403320312,788.937744140625
1302,794.5787353515625,792.967041015625,783.6996459960938,790.1465454101562
1303,794.5787353515625,791.7582397460938,783.6996459960938,792.967041015625
1304,799.010986328125,791.7582397460938,788.1318969726562,790.952392578125
1305,806.6666870117188,795.3846435546875,792.1611938476562,794.1758422851562
1306,805.054931640625,792.5640869140625,794.5787353515625,802.6373901367188
1307,801.4285888671875,789.3406372070312,792.1611938476562,804.6520385742188
1308,801.025634765625,790.1465454101562,790.952392578125,800.2197875976562
1309,798.2051391601562,787.3259887695312,795.3846435546875,798.6080322265625
1310,798.6080322265625,785.7142944335938,795.7875366210938,797.8021850585938
1311,801.4285888671875,790.952392578125,794.5787353515625,794.981689453125
1312,797.3992919921875,794.1758422851562,793.7728881835938,795.7875366210938
1313,798.6080322265625,791.7582397460938,791.3552856445312,797.8021850585938
1314,801.025634765625,792.1611938476562,792.967041015625,797.3992919921875
1315,798.2051391601562,796.1904907226562,796.1904907226562,798.2051391601562
1316,794.1758422851562,795.3846435546875,796.5933837890625,793.3699340820312
1317,788.937744140625,793.7728881835938,796.5933837890625,792.1611938476562
1318,789.3406372070312,794.5787353515625,789.7435913085938,793.7728881835938
1319,795.7875366210938,796.1904907226562,786.923095703125,792.1611938476562
1320,792.1611938476562,794.1758422851562,788.937744140625,785.7142944335938
1321,787.3259887695312,792.5640869140625,787.3259887695312,784.908447265625
1322,789.7435913085938,792.1611938476562,789.3406372070312,797.3992919921875
1323,792.5640869140625,792.1611938476562,793.3699340820312,800.6226806640625
1324,790.5494384765625,792.967041015625,794.1758422851562,792.5640869140625
1325,794.1758422851562,790.5494384765625,794.981689453125,787.3259887695312
1326,791.7582397460938,786.5201416015625,792.967041015625,787.3259887695312
1327,787.3259887695312,785.7142944335938,795.3846435546875,792.5640869140625
1328,794.981689453125,790.5494384765625,797.8021850585938,793.7728881835938
1329,803.040283203125,792.1611938476562,794.981689453125,791.7582397460938
1330,802.2344360351562,790.952392578125,793.3699340820312,788.937744140625
1331,797.3992919921875,790.952392578125,793.7728881835938,786.5201416015625
1332,792.5640869140625,792.1611938476562,792.1611938476562,787.7289428710938
1333,788.937744140625,788.5347900390625,792.5640869140625,790.1465454101562
1334,790.952392578125,788.1318969726562,794.5787353515625,792.967041015625
1335,794.5787353515625,796.1904907226562,793.3699340820312,800.6226806640625
1336,798.6080322265625,794.981689453125,794.1758422851562,801.025634765625
1337,801.4285888671875,794.1758422851562,796.1904907226562,799.8168334960938
1338,800.6226806640625,797.3992919921875,797.3992919921875,807.4725341796875
1339,800.2197875976562,796.996337890625,798.6080322265625,804.6520385742188
1340,802.6373901367188,794.981689453125,801.025634765625,803.8461303710938
1341,799.010986328125,794.981689453125,799.010986328125,797.3992919921875
1342,796.996337890625,796.996337890625,794.981689453125,792.5640869140625
1343,796.1904907226562,794.5787353515625,792.967041015625,792.5640869140625
1344,797.8021850585938,795.3846435546875,787.7289428710938,786.923095703125
1345,800.6226806640625,795.3846435546875,792.967041015625,792.1611938476562
1346,800.6226806640625,796.1904907226562,797.8021850585938,800.6226806640625
1347,794.5787353515625,801.025634765625,794.5787353515625,803.4432373046875
1348,789.7435913085938,800.2197875976562,797.8021850585938,802.6373901367188
1349,795.7875366210938,797.8021850585938,800.6226806640625,803.040283203125
1350,800.6226806640625,798.6080322265625,799.010986328125,801.8314819335938
1351,796.1904907226562,799.8168334960938,796.1904907226562,788.5347900390625
1352,794.981689453125,796.1904907226562,795.7875366210938,786.5201416015625
1353,799.010986328125,792.5640869140625,799.4139404296875,788.1318969726562
1354,801.4285888671875,791.7582397460938,803.4432373046875,786.5201416015625
1355,801.8314819335938,795.7875366210938,804.6520385742188,795.7875366210938
1356,797.8021850585938,796.5933837890625,804.2490844726562,799.4139404296875
1357,792.967041015625,795.3846435546875,799.8168334960938,792.1611938476562
1358,792.5640869140625,798.2051391601562,797.3992919921875,793.7728881835938
1359,794.1758422851562,789.7435913085938,797.3992919921875,789.3406372070312
1360,793.3699340820312,785.3113403320312,797.8021850585938,792.1611938476562
1361,789.3406372070312,796.1904907226562,794.981689453125,799.4139404296875
1362,790.952392578125,799.8168334960938,793.7728881835938,795.3846435546875
1363,790.5494384765625,793.3699340820312,795.3846435546875,795.7875366210938
1364,787.3259887695312,790.1465454101562,794.1758422851562,796.996337890625
1365,789.3406372070312,792.5640869140625,795.3846435546875,792.1611938476562
1366,787.3259887695312,790.1465454101562,791.7582397460938,787.3259887695312
1367,786.923095703125,786.1171875,787.3259887695312,788.5347900390625
1368,786.1171875,790.5494384765625,785.3113403320312,788.1318969726562
1369,786.5201416015625,795.3846435546875,792.1611938476562,791.3552856445312
1370,788.5347900390625,794.5787353515625,795.7875366210938,796.5933837890625
1371,788.5347900390625,793.7728881835938,792.967041015625,793.3699340820312
1372,789.7435913085938,792.1611938476562,792.1611938476562,789.3406372070312
1373,789.3406372070312,794.981689453125,791.7582397460938,787.7289428710938
1374,786.5201416015625,799.4139404296875,790.5494384765625,785.7142944335938
1375,793.7728881835938,798.2051391601562,791.7582397460938,788.937744140625
1376,803.8461303710938,795.7875366210938,795.3846435546875,796.5933837890625
1377,798.6080322265625,799.010986328125,795.3846435546875,799.010986328125
1378,792.1611938476562,797.3992919921875,796.1904907226562,790.5494384765625
1379,797.8021850585938,797.8021850585938,799.8168334960938,787.3259887695312
1380,797.3992919921875,801.4285888671875,800.6226806640625,788.1318969726562
1381,797.8021850585938,801.8314819335938,802.2344360351562,787.7289428710938
1382,795.7875366210938,796.5933837890625,800.6226806640625,782.4908447265625
1383,790.1465454101562,794.981689453125,796.996337890625,784.5054931640625
1384,795.7875366210938,799.8168334960938,798.6080322265625,796.5933837890625
1385,799.010986328125,797.3992919921875,801.8314819335938,790.952392578125
1386,799.010986328125,792.1611938476562,796.5933837890625,789.3406372070312
1387,794.5787353515625,792.5640869140625,796.996337890625,789.7435913085938
1388,794.981689453125,794.1758422851562,804.6520385742188,791.7582397460938
1389,798.6080322265625,796.1904907226562,803.8461303710938,797.8021850585938
1390,801.4285888671875,797.3992919921875,800.6226806640625,796.5933837890625
1391,802.2344360351562,799.010986328125,797.8021850585938,799.8168334960938
1392,789.7435913085938,796.996337890625,794.981689453125,800.6226806640625
1393,788.5347900390625,792.967041015625,791.3552856445312,795.7875366210938
1394,798.6080322265625,793.7728881835938,792.1611938476562,796.1904907226562
1395,805.054931640625,798.6080322265625,798.2051391601562,801.025634765625
1396,808.2783813476562,801.8314819335938,794.981689453125,799.010986328125
1397,804.2490844726562,795.7875366210938,790.952392578125,796.1904907226562
1398,796.996337890625,790.5494384765625,789.7435913085938,792.967041015625
1399,794.1758422851562,792.5640869140625,785.7142944335938,792.967041015625
1400,797.3992919921875,794.1758422851562,785.3113403320312,796.5933837890625
1401,803.4432373046875,794.981689453125,790.952392578125,798.2051391601562
1402,797.8021850585938,792.967041015625,792.5640869140625,797.8021850585938
1403,788.1318969726562,794.5787353515625,791.3552856445312,788.5347900390625
1404,790.952392578125,799.4139404296875,793.7728881835938,788.937744140625
1405,791.3552856445312,798.6080322265625,796.1904907226562,791.3552856445312
1406,791.7582397460938,795.3846435546875,796.1904907226562,796.5933837890625
1407,790.5494384765625,792.5640869140625,796.5933837890625,798.6080322265625
1408,787.3259887695312,795.7875366210938,796.5933837890625,791.7582397460938
1409,786.1171875,791.7582397460938,794.5787353515625,789.3406372070312
1410,793.3699340820312,792.967041015625,794.1758422851562,793.7728881835938
1411,797.8021850585938,797.8021850585938,796.996337890625,790.5494384765625
1412,789.7435913085938,797.3992919921875,794.1758422851562,783.6996459960938
1413,788.1318969726562,800.2197875976562,797.8021850585938,786.923095703125
1414,789.3406372070312,795.3846435546875,794.5787353515625,780.0732421875
1415,788.5347900390625,790.5494384765625,786.5201416015625,774.4322509765625
1416,792.5640869140625,790.1465454101562,789.7435913085938,780.0732421875
1417,799.4139404296875,790.5494384765625,790.952392578125,786.5201416015625
1418,796.996337890625,789.7435913085938,791.7582397460938,786.5201416015625
1419,785.7142944335938,787.3259887695312,791.3552856445312,784.5054931640625
1420,784.908447265625,788.1318969726562,792.5640869140625,788.5347900390625
1421,794.5787353515625,790.5494384765625,798.6080322265625,790.1465454101562
1422,799.010986328125,793.7728881835938,800.2197875976562,797.3992919921875
1423,787.7289428710938,796.996337890625,798.6080322265625,796.1904907226562
1424,779.6703491210938,789.3406372070312,794.981689453125,782.893798828125
1425,783.6996459960938,779.2673950195312,793.7728881835938,786.5201416015625
1426,786.5201416015625,780.4761962890625,794.5787353515625,791.3552856445312
1427,786.5201416015625,785.3113403320312,792.1611938476562,787.7289428710938
1428,785.7142944335938,787.3259887695312,796.1904907226562,788.5347900390625
1429,785.3113403320312,786.5201416015625,796.5933837890625,792.5640869140625
1430,783.6996459960938,784.5054931640625,792.1611938476562,788.1318969726562
1431,785.3113403320312,782.893798828125,790.1465454101562,783.2966918945312
1432,787.7289428710938,782.893798828125,795.3846435546875,783.6996459960938
1433,781.6849975585938,782.4908447265625,796.1904907226562,781.6849975585938
1434,780.0732421875,782.893798828125,790.1465454101562,786.5201416015625
1435,783.2966918945312,787.3259887695312,793.7728881835938,787.3259887695312
1436,783.6996459960938,791.7582397460938,796.1904907226562,782.893798828125
1437,781.2820434570312,791.7582397460938,796.1904907226562,778.05859375
1438,784.908447265625,790.1465454101562,796.996337890625,780.4761962890625
1439,787.7289428710938,790.952392578125,795.7875366210938,784.5054931640625
1440,786.1171875,788.5347900390625,797.8021850585938,782.087890625
1441,794.1758422851562,788.937744140625,797.8021850585938,784.1025390625
1442,795.7875366210938,790.5494384765625,793.7728881835938,785.3113403320312
1443,789.3406372070312,792.967041015625,792.5640869140625,783.2966918945312
1444,793.3699340820312,793.3699340820312,793.7728881835938,784.5054931640625
1445,797.3992919921875,789.3406372070312,792.967041015625,787.3259887695312
1446,794.5787353515625,793.3699340820312,793.3699340820312,790.5494384765625
1447,797.8021850585938,795.7875366210938,795.7875366210938,797.3992919921875
1448,801.025634765625,793.3699340820312,795.3846435546875,796.996337890625
1449,796.996337890625,794.1758422851562,794.981689453125,795.3846435546875
1450,795.3846435546875,792.967041015625,793.3699340820312,792.5640869140625
1451,794.1758422851562,790.5494384765625,791.7582397460938,781.2820434570312
1452,801.4285888671875,795.3846435546875,788.937744140625,785.7142944335938
1453,807.87548828125,792.967041015625,788.937744140625,801.025634765625
1454,799.4139404296875,794.5787353515625,788.5347900390625,797.8021850585938
1455,792.5640869140625,800.6226806640625,791.3552856445312,791.3552856445312
1456,788.5347900390625,794.981689453125,795.3846435546875,791.7582397460938
1457,790.1465454101562,794.981689453125,790.5494384765625,790.5494384765625
1458,792.5640869140625,795.3846435546875,792.5640869140625,788.937744140625
1459,792.5640869140625,788.1318969726562,794.981689453125,788.937744140625
1460,793.7728881835938,788.937744140625,797.8021850585938,787.3259887695312
1461,789.7435913085938,791.3552856445312,802.6373901367188,782.4908447265625
1462,787.7289428710938,793.3699340820312,796.5933837890625,780.0732421875
1463,794.981689453125,794.1758422851562,792.1611938476562,784.1025390625
1464,794.1758422851562,791.7582397460938,791.7582397460938,784.5054931640625
1465,788.937744140625,795.7875366210938,790.5494384765625,781.6849975585938
1466,790.5494384765625,794.5787353515625,793.3699340820312,783.6996459960938
1467,791.3552856445312,794.981689453125,796.996337890625,783.2966918945312
1468,791.7582397460938,799.4139404296875,796.996337890625,794.981689453125
1469,790.5494384765625,800.2197875976562,798.2051391601562,797.3992919921875
1470,784.908447265625,796.996337890625,798.6080322265625,788.1318969726562
1471,783.2966918945312,790.5494384765625,794.981689453125,790.5494384765625
1472,786.5201416015625,789.3406372070312,795.7875366210938,793.3699340820312
1473,790.1465454101562,790.1465454101562,801.025634765625,793.3699340820312
1474,790.952392578125,789.7435913085938,799.8168334960938,791.3552856445312
1475,791.3552856445312,791.7582397460938,797.3992919921875,790.952392578125
1476,792.1611938476562,792.967041015625,796.996337890625,790.5494384765625
1477,794.981689453125,792.5640869140625,798.2051391601562,795.7875366210938
1478,799.4139404296875,790.1465454101562,796.996337890625,798.2051391601562
1479,796.996337890625,789.3406372070312,795.7875366210938,796.1904907226562
1480,797.3992919921875,794.1758422851562,799.4139404296875,803.4432373046875
1481,794.5787353515625,797.3992919921875,797.3992919921875,796.5933837890625
1482,794.1758422851562,796.1904907226562,790.952392578125,786.1171875
1483,797.8021850585938,801.4285888671875,792.1611938476562,790.952392578125
1484,790.5494384765625,803.4432373046875,796.5933837890625,796.996337890625
1485,783.2966918945312,796.996337890625,795.3846435546875,793.3699340820312
1486,785.3113403320312,797.8021850585938,795.7875366210938,796.1904907226562
1487,791.3552856445312,794.981689453125,796.996337890625,801.4285888671875
1488,790.952392578125,793.3699340820312,796.996337890625,799.8168334960938
1489,789.7435913085938,797.8021850585938,795.3846435546875,796.996337890625
1490,792.5640869140625,793.7728881835938,795.3846435546875,797.3992919921875
1491,798.2051391601562,792.1611938476562,796.5933837890625,803.4432373046875
1492,800.6226806640625,801.025634765625,798.2051391601562,803.4432373046875
1493,795.3846435546875,801.025634765625,798.2051391601562,794.1758422851562
1494,795.3846435546875,793.7728881835938,797.3992919921875,793.7728881835938
1495,793.3699340820312,794.981689453125,797.8021850585938,798.2051391601562
1496,793.3699340820312,795.7875366210938,793.3699340820312,798.6080322265625
1497,797.3992919921875,796.5933837890625,791.7582397460938,794.1758422851562
1498,800.2197875976562,798.6080322265625,790.952392578125,789.3406372070312
1499,805.054931640625,795.3846435546875,793.3699340820312,791.3552856445312
1500,801.4285888671875,795.7875366210938,798.6080322265625,793.3699340820312
1501,794.1758422851562,796.5933837890625,792.967041015625,790.1465454101562
1502,796.1904907226562,797.8021850585938,790.5494384765625,796.5933837890625
1503,793.3699340820312,796.1904907226562,784.5054931640625,794.5787353515625
1504,792.1611938476562,791.3552856445312,786.1171875,787.3259887695312
1505,793.3699340820312,790.952392578125,789.3406372070312,784.1025390625
1506,792.5640869140625,788.1318969726562,786.1171875,784.5054931640625
1507,792.5640869140625,784.908447265625,789.7435913085938,788.1318969726562
1508,789.3406372070312,787.7289428710938,793.3699340820312,781.6849975585938
1509,790.1465454101562,787.3259887695312,794.1758422851562,780.0732421875
1510,786.923095703125,788.1318969726562,793.3699340820312,779.6703491210938
1511,781.6849975585938,788.5347900390625,792.1611938476562,774.4322509765625
1512,781.2820434570312,790.5494384765625,790.1465454101562,779.6703491210938
1513,783.2966918945312,793.3699340820312,790.5494384765625,782.087890625
1514,789.3406372070312,791.7582397460938,792.5640869140625,780.879150390625
1515,790.952392578125,788.1318969726562,793.3699340820312,780.4761962890625
1516,783.2966918945312,787.7289428710938,796.996337890625,778.4615478515625
1517,780.4761962890625,793.7728881835938,797.8021850585938,782.4908447265625
1518,785.3113403320312,794.1758422851562,798.6080322265625,792.5640869140625
1519,786.923095703125,792.967041015625,796.5933837890625,787.7289428710938
1520,783.2966918945312,792.1611938476562,795.7875366210938,779.2673950195312
1521,783.2966918945312,790.1465454101562,798.6080322265625,789.3406372070312
1522,787.3259887695312,788.1318969726562,798.2051391601562,791.3552856445312
1523,789.7435913085938,786.1171875,800.6226806640625,782.4908447265625
1524,792.1611938476562,790.1465454101562,802.6373901367188,780.0732421875
1525,790.1465454101562,788.937744140625,798.2051391601562,779.6703491210938
1526,785.7142944335938,785.7142944335938,793.3699340820312,774.8351440429688
1527,790.1465454101562,788.5347900390625,792.1611938476562,776.8497924804688
1528,796.5933837890625,794.1758422851562,794.5787353515625,789.7435913085938
1529,801.4285888671875,794.1758422851562,795.3846435546875,801.4285888671875
1530,796.996337890625,789.3406372070312,794.981689453125,794.1758422851562
1531,790.1465454101562,788.5347900390625,795.3846435546875,787.3259887695312
1532,792.1611938476562,795.7875366210938,794.981689453125,788.1318969726562
1533,796.996337890625,797.8021850585938,791.7582397460938,791.7582397460938
1534,794.5787353515625,795.3846435546875,788.937744140625,792.1611938476562
1535,787.7289428710938,793.7728881835938,788.5347900390625,788.1318969726562
1536,786.923095703125,792.1611938476562,788.5347900390625,786.1171875
1537,788.937744140625,786.923095703125,782.4908447265625,786.5201416015625
1538,786.923095703125,782.4908447265625,782.893798828125,786.923095703125
1539,789.3406372070312,783.6996459960938,786.923095703125,785.7142944335938
1540,790.1465454101562,788.1318969726562,784.5054931640625,790.1465454101562
1541,787.3259887695312,790.952392578125,790.952392578125,797.8021850585938
1542,786.1171875,786.923095703125,792.967041015625,792.967041015625
1543,784.908447265625,781.6849975585938,788.937744140625,783.2966918945312
1544,792.1611938476562,788.1318969726562,794.981689453125,793.3699340820312
1545,795.3846435546875,792.967041015625,802.6373901367188,796.1904907226562
1546,794.1758422851562,786.5201416015625,798.2051391601562,789.3406372070312
1547,790.5494384765625,784.908447265625,791.3552856445312,783.6996459960938
1548,785.7142944335938,787.3259887695312,788.1318969726562,782.087890625
1549,783.6996459960938,789.3406372070312,789.3406372070312,784.5054931640625
1550,791.7582397460938,791.3552856445312,792.5640869140625,787.3259887695312
1551,807.069580078125,792.967041015625,798.6080322265625,796.1904907226562
1552,801.8314819335938,794.981689453125,803.040283203125,799.4139404296875
1553,787.3259887695312,794.5787353515625,802.2344360351562,795.3846435546875
1554,790.952392578125,794.1758422851562,799.8168334960938,793.7728881835938
1555,796.5933837890625,795.3846435546875,801.8314819335938,799.4139404296875
1556,790.952392578125,793.3699340820312,799.4139404296875,796.1904907226562
1557,794.1758422851562,790.1465454101562,797.3992919921875,791.7582397460938
1558,797.8021850585938,794.1758422851562,803.040283203125,787.3259887695312
1559,798.2051391601562,797.8021850585938,803.040283203125,784.908447265625
1560,802.6373901367188,798.2051391601562,799.010986328125,788.1318969726562
1561,800.6226806640625,798.6080322265625,798.6080322265625,786.5201416015625
1562,801.025634765625,797.3992919921875,800.2197875976562,784.5054931640625
1563,803.040283203125,796.5933837890625,799.010986328125,790.1465454101562
1564,799.8168334960938,790.5494384765625,797.3992919921875,805.4578857421875
1565,800.2197875976562,792.5640869140625,801.4285888671875,813.5164794921875
1566,799.010986328125,801.4285888671875,807.4725341796875,809.4871826171875
1567,793.3699340820312,795.7875366210938,803.040283203125,803.8461303710938
1568,792.5640869140625,790.5494384765625,799.010986328125,800.6226806640625
1569,794.1758422851562,789.3406372070312,798.6080322265625,800.2197875976562
1570,798.2051391601562,793.7728881835938,792.1611938476562,802.6373901367188
1571,800.6226806640625,792.967041015625,791.7582397460938,801.8314819335938
1572,800.2197875976562,790.5494384765625,793.7728881835938,799.8168334960938
1573,797.8021850585938,790.5494384765625,792.1611938476562,798.6080322265625
1574,799.8168334960938,788.937744140625,791.7582397460938,797.8021850585938
1575,802.6373901367188,787.3259887695312,789.7435913085938,797.8021850585938
1576,799.4139404296875,783.6996459960938,792.1611938476562,800.2197875976562
1577,796.5933837890625,788.1318969726562,788.1318969726562,795.7875366210938
1578,798.6080322265625,790.952392578125,788.1318969726562,794.5787353515625
1579,801.025634765625,789.3406372070312,788.937744140625,798.2051391601562
1580,803.8461303710938,791.3552856445312,787.3259887695312,794.5787353515625
1581,804.6520385742188,794.981689453125,794.1758422851562,793.3699340820312
1582,806.6666870117188,800.2197875976562,800.2197875976562,796.5933837890625
1583,805.8607788085938,797.3992919921875,799.010986328125,796.1904907226562
1584,801.4285888671875,792.967041015625,795.7875366210938,793.3699340820312
