timestamp,RAW_TP9,RAW_AF7,RAW_AF8,RAW_TP10
1,798.2051391601562,787.3259887695312,791.7582397460938,794.981689453125
2,791.3552856445312,790.1465454101562,794.981689453125,803.8461303710938
3,789.3406372070312,789.3406372070312,795.3846435546875,803.8461303710938
4,792.1611938476562,789.3406372070312,793.7728881835938,796.5933837890625
5,797.8021850585938,791.3552856445312,794.5787353515625,798.2051391601562
6,797.3992919921875,788.937744140625,794.1758422851562,795.3846435546875
7,796.5933837890625,786.923095703125,790.1465454101562,789.7435913085938
8,793.3699340820312,788.937744140625,791.7582397460938,792.967041015625
9,797.8021850585938,788.5347900390625,797.3992919921875,799.010986328125
10,804.6520385742188,786.923095703125,794.5787353515625,800.2197875976562
11,802.6373901367188,789.7435913085938,791.3552856445312,796.996337890625
12,797.8021850585938,792.5640869140625,789.7435913085938,791.3552856445312
13,794.5787353515625,791.3552856445312,790.1465454101562,790.5494384765625
14,803.4432373046875,794.1758422851562,795.7875366210938,799.010986328125
15,805.054931640625,792.967041015625,795.3846435546875,797.3992919921875
16,799.010986328125,785.7142944335938,787.7289428710938,792.5640869140625
17,801.025634765625,785.3113403320312,789.3406372070312,793.3699340820312
18,802.2344360351562,784.5054931640625,791.7582397460938,792.1611938476562
19,801.8314819335938,782.893798828125,787.3259887695312,794.981689453125
20,803.4432373046875,788.1318969726562,787.7289428710938,799.4139404296875
21,806.2637329101562,794.981689453125,794.1758422851562,806.2637329101562
22,800.2197875976562,795.7875366210938,796.5933837890625,806.2637329101562
23,793.3699340820312,789.7435913085938,796.996337890625,797.3992919921875
24,797.8021850585938,785.7142944335938,796.996337890625,803.040283203125
25,808.2783813476562,782.893798828125,796.5933837890625,813.5164794921875
26,797.8021850585938,775.6410522460938,803.040283203125,803.4432373046875
27,783.6996459960938,775.6410522460938,802.6373901367188,787.7289428710938
28,781.6849975585938,781.6849975585938,797.3992919921875,783.6996459960938
29,782.893798828125,783.6996459960938,799.010986328125,782.087890625
30,792.5640869140625,783.6996459960938,798.2051391601562,784.1025390625
31,796.1904907226562,784.5054931640625,794.981689453125,788.5347900390625
32,788.937744140625,784.1025390625,791.7582397460938,786.1171875
33,788.5347900390625,783.2966918945312,790.5494384765625,787.7289428710938
34,790.952392578125,781.6849975585938,792.1611938476562,786.1171875
35,790.952392578125,779.2673950195312,795.3846435546875,785.3113403320312
36,797.8021850585938,786.5201416015625,801.025634765625,794.981689453125
37,796.1904907226562,789.3406372070312,799.8168334960938,790.5494384765625
38,790.952392578125,783.6996459960938,792.5640869140625,777.6557006835938
39,792.5640869140625,782.087890625,794.1758422851562,781.6849975585938
40,792.5640869140625,783.6996459960938,794.1758422851562,790.1465454101562
41,797.8021850585938,784.908447265625,789.7435913085938,790.5494384765625
42,795.7875366210938,784.1025390625,786.5201416015625,781.6849975585938
43,786.5201416015625,785.3113403320312,785.7142944335938,775.2380981445312
44,789.7435913085938,788.1318969726562,790.5494384765625,782.893798828125
45,790.952392578125,788.5347900390625,792.1611938476562,786.923095703125
46,790.5494384765625,790.1465454101562,789.3406372070312,786.923095703125
47,798.6080322265625,791.7582397460938,791.3552856445312,788.5347900390625
48,798.2051391601562,791.3552856445312,796.1904907226562,793.3699340820312
49,793.3699340820312,794.981689453125,794.5787353515625,799.8168334960938
50,805.4578857421875,796.996337890625,792.1611938476562,800.2197875976562
51,808.6813354492188,789.7435913085938,788.5347900390625,790.1465454101562
52,803.040283203125,785.3113403320312,787.3259887695312,794.981689453125
53,799.010986328125,791.3552856445312,788.5347900390625,799.010986328125
54,789.7435913085938,797.8021850585938,789.7435913085938,786.1171875
55,783.2966918945312,798.2051391601562,794.5787353515625,787.3259887695312
56,792.1611938476562,799.010986328125,796.5933837890625,795.7875366210938
57,796.1904907226562,798.2051391601562,793.7728881835938,796.5933837890625
58,790.1465454101562,793.3699340820312,794.5787353515625,792.1611938476562
59,792.5640869140625,789.7435913085938,799.8168334960938,792.967041015625
60,794.5787353515625,789.3406372070312,799.4139404296875,789.7435913085938
61,797.8021850585938,789.3406372070312,796.996337890625,788.937744140625
62,796.996337890625,790.952392578125,795.7875366210938,788.5347900390625
63,793.3699340820312,792.967041015625,796.996337890625,784.1025390625
64,796.5933837890625,796.5933837890625,795.7875366210938,785.7142944335938
65,803.040283203125,799.010986328125,793.7728881835938,786.923095703125
66,807.4725341796875,796.996337890625,794.5787353515625,787.3259887695312
67,805.054931640625,794.981689453125,792.1611938476562,788.937744140625
68,799.8168334960938,798.6080322265625,789.7435913085938,789.3406372070312
69,791.3552856445312,799.8168334960938,790.1465454101562,780.879150390625
70,792.967041015625,793.7728881835938,788.937744140625,783.6996459960938
71,793.7728881835938,791.7582397460938,789.7435913085938,788.5347900390625
72,791.7582397460938,792.5640869140625,790.5494384765625,783.6996459960938
73,786.5201416015625,792.5640869140625,788.5347900390625,782.4908447265625
74,789.3406372070312,795.3846435546875,790.1465454101562,783.6996459960938
75,794.5787353515625,794.5787353515625,793.7728881835938,788.5347900390625
76,792.967041015625,794.5787353515625,791.3552856445312,794.5787353515625
77,793.7728881835938,792.967041015625,782.893798828125,788.5347900390625
78,793.3699340820312,789.7435913085938,782.893798828125,779.2673950195312
79,791.3552856445312,795.3846435546875,787.3259887695312,783.2966918945312
80,788.5347900390625,792.1611938476562,788.937744140625,781.2820434570312
81,788.937744140625,784.1025390625,786.923095703125,777.2527465820312
82,792.5640869140625,789.3406372070312,790.1465454101562,781.6849975585938
83,789.7435913085938,788.937744140625,789.3406372070312,779.2673950195312
84,788.1318969726562,782.4908447265625,782.4908447265625,778.05859375
85,788.937744140625,784.1025390625,784.5054931640625,778.8644409179688
86,794.1758422851562,790.1465454101562,790.5494384765625,782.087890625
87,798.2051391601562,794.1758422851562,791.3552856445312,786.5201416015625
88,797.8021850585938,794.5787353515625,792.1611938476562,788.937744140625
89,791.7582397460938,790.952392578125,792.1611938476562,790.952392578125
90,791.7582397460938,789.3406372070312,787.3259887695312,794.1758422851562
91,796.5933837890625,790.952392578125,790.952392578125,794.5787353515625
92,795.3846435546875,793.3699340820312,792.967041015625,786.923095703125
93,791.7582397460938,792.967041015625,790.5494384765625,780.0732421875
94,787.7289428710938,791.3552856445312,790.952392578125,781.6849975585938
95,784.908447265625,795.3846435546875,793.3699340820312,784.5054931640625
96,793.7728881835938,799.4139404296875,791.3552856445312,787.7289428710938
97,798.2051391601562,799.4139404296875,790.5494384765625,788.5347900390625
98,798.2051391601562,799.4139404296875,791.7582397460938,791.3552856445312
99,796.996337890625,799.8168334960938,791.7582397460938,792.5640869140625
100,796.5933837890625,797.3992919921875,792.5640869140625,790.1465454101562
101,799.4139404296875,796.996337890625,791.7582397460938,794.981689453125
102,803.040283203125,794.981689453125,790.1465454101562,801.025634765625
103,799.8168334960938,792.5640869140625,793.3699340820312,797.8021850585938
104,796.5933837890625,795.7875366210938,794.5787353515625,790.5494384765625
105,795.3846435546875,800.6226806640625,799.010986328125,793.3699340820312
106,792.5640869140625,800.2197875976562,800.2197875976562,794.5787353515625
107,792.967041015625,795.7875366210938,794.981689453125,786.5201416015625
108,789.7435913085938,791.3552856445312,793.7728881835938,782.087890625
109,786.1171875,786.923095703125,795.3846435546875,783.2966918945312
110,789.3406372070312,787.3259887695312,792.967041015625,780.4761962890625
111,791.7582397460938,788.1318969726562,788.5347900390625,778.8644409179688
112,794.5787353515625,784.908447265625,790.1465454101562,782.087890625
113,793.3699340820312,784.908447265625,790.952392578125,782.087890625
114,791.3552856445312,788.937744140625,789.7435913085938,783.6996459960938
115,794.5787353515625,794.981689453125,792.1611938476562,786.923095703125
116,799.8168334960938,797.8021850585938,796.996337890625,792.5640869140625
117,801.8314819335938,795.3846435546875,795.7875366210938,794.1758422851562
118,802.2344360351562,794.981689453125,791.7582397460938,791.7582397460938
119,803.4432373046875,796.996337890625,791.7582397460938,789.7435913085938
120,801.8314819335938,796.1904907226562,790.5494384765625,790.1465454101562
121,798.2051391601562,792.1611938476562,787.7289428710938,786.5201416015625
122,800.6226806640625,792.967041015625,788.5347900390625,787.3259887695312
123,797.8021850585938,793.3699340820312,788.1318969726562,784.1025390625
124,788.5347900390625,790.5494384765625,789.3406372070312,784.908447265625
125,783.6996459960938,790.1465454101562,791.7582397460938,788.937744140625
126,780.879150390625,787.7289428710938,790.1465454101562,787.3259887695312
127,777.2527465820312,785.7142944335938,789.3406372070312,787.7289428710938
128,778.4615478515625,780.4761962890625,789.7435913085938,787.7289428710938
129,779.6703491210938,776.8497924804688,789.7435913085938,789.3406372070312
130,775.6410522460938,777.6557006835938,792.5640869140625,790.5494384765625
131,778.05859375,780.0732421875,791.7582397460938,788.5347900390625
132,783.6996459960938,778.8644409179688,786.923095703125,782.087890625
133,792.5640869140625,776.8497924804688,788.937744140625,780.4761962890625
134,801.8314819335938,782.4908447265625,793.7728881835938,788.1318969726562
135,804.6520385742188,787.7289428710938,794.1758422851562,793.3699340820312
136,804.6520385742188,786.923095703125,789.3406372070312,790.1465454101562
137,807.069580078125,790.1465454101562,794.5787353515625,784.908447265625
138,813.91943359375,791.7582397460938,795.3846435546875,783.6996459960938
139,809.084228515625,787.7289428710938,791.7582397460938,784.5054931640625
140,796.996337890625,789.7435913085938,792.5640869140625,786.5201416015625
141,790.5494384765625,790.1465454101562,787.7289428710938,785.7142944335938
142,794.1758422851562,793.3699340820312,786.923095703125,782.087890625
143,801.8314819335938,792.967041015625,792.1611938476562,785.7142944335938
144,799.010986328125,789.3406372070312,794.5787353515625,788.1318969726562
145,790.952392578125,790.5494384765625,795.3846435546875,782.4908447265625
146,789.7435913085938,789.3406372070312,796.1904907226562,784.5054931640625
147,796.996337890625,788.937744140625,800.2197875976562,792.5640869140625
148,798.2051391601562,788.1318969726562,800.6226806640625,793.3699340820312
149,794.5787353515625,788.5347900390625,796.5933837890625,791.3552856445312
150,792.1611938476562,787.7289428710938,791.3552856445312,782.087890625
151,789.7435913085938,787.7289428710938,796.5933837890625,780.0732421875
152,794.5787353515625,792.5640869140625,798.2051391601562,790.952392578125
153,800.2197875976562,793.3699340820312,795.3846435546875,789.7435913085938
154,798.6080322265625,791.7582397460938,794.981689453125,783.2966918945312
155,788.937744140625,788.937744140625,793.7728881835938,781.6849975585938
156,783.2966918945312,792.1611938476562,799.4139404296875,782.087890625
157,783.6996459960938,793.7728881835938,802.2344360351562,779.6703491210938
158,788.5347900390625,790.1465454101562,799.8168334960938,779.2673950195312
159,790.1465454101562,790.952392578125,797.3992919921875,785.7142944335938
160,788.1318969726562,792.1611938476562,798.2051391601562,788.5347900390625
161,791.7582397460938,794.5787353515625,794.1758422851562,786.1171875
162,796.5933837890625,796.1904907226562,794.5787353515625,785.7142944335938
163,795.3846435546875,795.3846435546875,798.2051391601562,791.7582397460938
164,791.7582397460938,791.3552856445312,796.5933837890625,791.7582397460938
165,783.6996459960938,790.5494384765625,794.5787353515625,782.893798828125
166,780.4761962890625,789.3406372070312,794.1758422851562,779.6703491210938
167,791.3552856445312,792.967041015625,792.967041015625,786.1171875
168,796.5933837890625,795.3846435546875,793.7728881835938,787.7289428710938
169,801.4285888671875,792.967041015625,799.4139404296875,787.3259887695312
170,803.040283203125,795.3846435546875,799.4139404296875,792.5640869140625
171,794.1758422851562,792.967041015625,799.4139404296875,792.967041015625
172,787.7289428710938,786.923095703125,798.6080322265625,788.937744140625
173,788.5347900390625,784.908447265625,794.5787353515625,787.3259887695312
174,789.3406372070312,788.5347900390625,792.1611938476562,791.7582397460938
175,792.5640869140625,791.7582397460938,793.3699340820312,802.6373901367188
176,792.5640869140625,787.7289428710938,791.7582397460938,796.5933837890625
177,784.908447265625,786.923095703125,788.1318969726562,786.5201416015625
178,787.7289428710938,786.923095703125,788.5347900390625,789.3406372070312
179,795.3846435546875,785.7142944335938,792.1611938476562,796.1904907226562
180,795.7875366210938,788.1318969726562,790.5494384765625,795.3846435546875
181,787.3259887695312,786.5201416015625,790.1465454101562,786.1171875
182,789.3406372070312,781.2820434570312,792.1611938476562,780.4761962890625
183,793.7728881835938,783.2966918945312,792.1611938476562,787.7289428710938
184,794.5787353515625,790.952392578125,793.3699340820312,790.1465454101562
185,795.7875366210938,791.3552856445312,792.5640869140625,784.908447265625
186,790.952392578125,786.1171875,789.7435913085938,781.6849975585938
187,790.1465454101562,790.5494384765625,790.952392578125,792.1611938476562
188,791.7582397460938,794.5787353515625,793.7728881835938,786.923095703125
189,793.7728881835938,791.7582397460938,790.952392578125,778.8644409179688
190,793.7728881835938,791.7582397460938,788.5347900390625,778.4615478515625
191,794.981689453125,794.1758422851562,792.1611938476562,778.4615478515625
192,792.967041015625,795.7875366210938,798.2051391601562,779.6703491210938
193,787.3259887695312,790.5494384765625,794.1758422851562,773.2234497070312
194,788.5347900390625,784.5054931640625,790.1465454101562,768.7911987304688
195,790.952392578125,787.3259887695312,792.1611938476562,774.029296875
196,786.5201416015625,788.5347900390625,793.3699340820312,773.6264038085938
197,781.6849975585938,784.908447265625,793.3699340820312,772.4176025390625
198,781.2820434570312,781.6849975585938,790.952392578125,779.6703491210938
199,779.6703491210938,782.087890625,792.1611938476562,784.1025390625
200,778.05859375,786.5201416015625,791.3552856445312,780.4761962890625
201,782.893798828125,786.1171875,791.3552856445312,788.5347900390625
202,782.893798828125,785.3113403320312,792.967041015625,796.996337890625
203,774.4322509765625,788.5347900390625,794.5787353515625,782.893798828125
204,782.4908447265625,792.1611938476562,793.3699340820312,780.4761962890625
205,788.1318969726562,790.5494384765625,792.5640869140625,785.7142944335938
206,786.1171875,786.923095703125,791.3552856445312,781.2820434570312
207,784.5054931640625,789.3406372070312,786.5201416015625,775.2380981445312
208,784.908447265625,791.7582397460938,788.937744140625,776.8497924804688
209,784.908447265625,788.1318969726562,788.5347900390625,776.8497924804688
210,785.3113403320312,788.1318969726562,788.937744140625,775.6410522460938
211,783.6996459960938,788.937744140625,786.923095703125,776.0439453125
212,776.0439453125,787.7289428710938,783.2966918945312,770.4029541015625
213,781.6849975585938,785.7142944335938,787.3259887695312,776.8497924804688
214,788.1318969726562,786.1171875,786.923095703125,783.6996459960938
215,790.1465454101562,786.5201416015625,784.908447265625,772.0146484375
216,792.5640869140625,788.937744140625,784.908447265625,770.8058471679688
217,787.3259887695312,792.967041015625,787.7289428710938,776.4468994140625
218,784.1025390625,790.5494384765625,788.5347900390625,779.6703491210938
219,788.5347900390625,788.1318969726562,784.908447265625,776.4468994140625
220,792.5640869140625,788.5347900390625,786.923095703125,775.2380981445312
221,794.5787353515625,786.923095703125,787.7289428710938,782.4908447265625
222,791.3552856445312,786.1171875,783.2966918945312,782.4908447265625
223,785.7142944335938,784.5054931640625,786.923095703125,780.879150390625
224,788.1318969726562,784.1025390625,794.5787353515625,789.3406372070312
225,790.1465454101562,785.3113403320312,798.6080322265625,791.7582397460938
226,788.5347900390625,782.087890625,796.5933837890625,784.1025390625
227,788.937744140625,778.4615478515625,794.1758422851562,781.2820434570312
228,784.908447265625,779.6703491210938,790.1465454101562,783.6996459960938
229,787.3259887695312,780.4761962890625,788.5347900390625,782.893798828125
230,796.996337890625,787.3259887695312,793.7728881835938,788.5347900390625
231,801.025634765625,791.7582397460938,796.5933837890625,792.967041015625
232,795.3846435546875,788.937744140625,792.967041015625,787.3259887695312
233,793.7728881835938,790.952392578125,791.3552856445312,794.1758422851562
234,796.5933837890625,793.7728881835938,792.5640869140625,801.4285888671875
235,801.025634765625,794.1758422851562,790.1465454101562,792.1611938476562
236,797.3992919921875,791.3552856445312,788.1318969726562,786.1171875
237,792.5640869140625,790.952392578125,785.7142944335938,792.1611938476562
238,790.1465454101562,794.5787353515625,782.087890625,785.7142944335938
239,789.3406372070312,792.5640869140625,785.3113403320312,785.3113403320312
240,793.3699340820312,788.937744140625,786.1171875,788.937744140625
241,796.1904907226562,790.1465454101562,784.5054931640625,792.1611938476562
242,790.5494384765625,794.5787353515625,784.908447265625,796.996337890625
243,790.5494384765625,795.7875366210938,784.908447265625,797.3992919921875
244,795.7875366210938,794.5787353515625,782.893798828125,801.025634765625
245,795.7875366210938,795.3846435546875,784.5054931640625,796.5933837890625
246,795.3846435546875,791.7582397460938,786.923095703125,792.5640869140625
247,797.8021850585938,790.952392578125,788.937744140625,794.981689453125
248,790.952392578125,789.7435913085938,789.3406372070312,794.1758422851562
249,783.6996459960938,785.7142944335938,790.5494384765625,788.937744140625
250,786.5201416015625,782.4908447265625,787.7289428710938,786.5201416015625
251,788.1318969726562,782.893798828125,784.908447265625,784.5054931640625
252,786.1171875,787.3259887695312,790.5494384765625,780.4761962890625
253,793.7728881835938,792.1611938476562,796.996337890625,784.5054931640625
254,797.8021850585938,794.1758422851562,798.6080322265625,788.937744140625
255,800.2197875976562,794.981689453125,796.1904907226562,789.7435913085938
256,802.6373901367188,788.937744140625,794.5787353515625,790.952392578125
257,798.6080322265625,785.7142944335938,798.6080322265625,788.937744140625
258,800.2197875976562,785.3113403320312,795.3846435546875,786.923095703125
259,801.025634765625,784.5054931640625,792.967041015625,789.3406372070312
260,795.3846435546875,788.937744140625,794.1758422851562,794.5787353515625
261,787.3259887695312,789.3406372070312,790.952392578125,788.937744140625
262,792.1611938476562,785.7142944335938,786.923095703125,790.1465454101562
263,788.1318969726562,784.908447265625,789.3406372070312,785.3113403320312
264,782.893798828125,785.7142944335938,788.937744140625,781.6849975585938
265,789.3406372070312,788.5347900390625,786.923095703125,785.7142944335938
266,790.5494384765625,788.1318969726562,790.1465454101562,788.1318969726562
267,792.1611938476562,789.7435913085938,790.1465454101562,785.3113403320312
268,795.3846435546875,792.1611938476562,789.3406372070312,783.6996459960938
269,787.3259887695312,788.1318969726562,791.3552856445312,781.2820434570312
270,786.1171875,790.1465454101562,790.5494384765625,780.0732421875
271,787.3259887695312,788.937744140625,791.3552856445312,784.5054931640625
272,781.6849975585938,783.2966918945312,789.7435913085938,782.4908447265625
273,783.6996459960938,780.879150390625,788.1318969726562,779.6703491210938
274,786.923095703125,780.0732421875,789.3406372070312,780.0732421875
275,789.3406372070312,785.3113403320312,785.7142944335938,784.908447265625
276,798.6080322265625,789.3406372070312,787.7289428710938,790.952392578125
277,804.2490844726562,788.5347900390625,791.3552856445312,791.7582397460938
278,798.6080322265625,787.3259887695312,784.5054931640625,790.5494384765625
279,793.3699340820312,787.3259887695312,782.087890625,786.5201416015625
280,786.5201416015625,787.3259887695312,784.5054931640625,782.893798828125
281,789.3406372070312,784.5054931640625,781.6849975585938,785.7142944335938
282,802.6373901367188,784.5054931640625,784.908447265625,795.3846435546875
283,803.4432373046875,786.1171875,787.3259887695312,793.3699340820312
284,800.6226806640625,783.2966918945312,784.5054931640625,790.5494384765625
285,797.3992919921875,780.879150390625,784.908447265625,787.7289428710938
286,797.3992919921875,782.4908447265625,784.5054931640625,790.1465454101562
287,798.6080322265625,786.923095703125,785.7142944335938,797.3992919921875
288,797.8021850585938,788.1318969726562,787.3259887695312,789.7435913085938
289,795.3846435546875,788.1318969726562,784.5054931640625,785.3113403320312
290,791.3552856445312,786.923095703125,784.5054931640625,788.1318969726562
291,796.1904907226562,786.5201416015625,782.893798828125,789.3406372070312
292,801.025634765625,784.908447265625,782.4908447265625,787.7289428710938
293,798.6080322265625,784.5054931640625,784.5054931640625,792.5640869140625
294,790.1465454101562,783.2966918945312,783.2966918945312,788.937744140625
295,789.7435913085938,785.7142944335938,783.2966918945312,787.3259887695312
296,794.5787353515625,783.2966918945312,783.2966918945312,794.1758422851562
297,796.1904907226562,780.4761962890625,782.893798828125,795.3846435546875
298,797.8021850585938,785.3113403320312,784.5054931640625,799.010986328125
299,787.7289428710938,786.1171875,786.1171875,795.3846435546875
300,785.7142944335938,784.1025390625,785.7142944335938,789.7435913085938
301,792.5640869140625,784.5054931640625,785.3113403320312,788.937744140625
302,793.3699340820312,780.0732421875,784.5054931640625,786.923095703125
303,788.937744140625,777.2527465820312,782.087890625,781.2820434570312
304,786.923095703125,780.4761962890625,786.5201416015625,778.8644409179688
305,784.908447265625,780.879150390625,787.7289428710938,775.6410522460938
306,788.1318969726562,782.087890625,783.2966918945312,776.8497924804688
307,793.7728881835938,786.1171875,784.5054931640625,784.5054931640625
308,788.937744140625,785.7142944335938,786.5201416015625,785.7142944335938
309,782.087890625,779.6703491210938,778.8644409179688,781.6849975585938
310,785.3113403320312,775.6410522460938,771.2088012695312,782.4908447265625
311,786.5201416015625,778.4615478515625,772.8204956054688,783.6996459960938
312,788.937744140625,777.6557006835938,774.8351440429688,780.4761962890625
313,795.3846435546875,779.6703491210938,780.0732421875,785.3113403320312
314,794.1758422851562,782.893798828125,783.6996459960938,788.937744140625
315,794.1758422851562,783.6996459960938,783.6996459960938,791.3552856445312
316,795.7875366210938,782.893798828125,783.6996459960938,794.981689453125
317,797.8021850585938,780.879150390625,783.2966918945312,789.3406372070312
318,802.2344360351562,782.893798828125,786.1171875,786.1171875
319,797.8021850585938,781.2820434570312,788.1318969726562,789.3406372070312
320,789.3406372070312,781.2820434570312,786.5201416015625,792.967041015625
321,790.952392578125,782.087890625,785.7142944335938,797.3992919921875
322,793.3699340820312,783.6996459960938,779.2673950195312,790.952392578125
323,793.7728881835938,783.2966918945312,776.8497924804688,781.6849975585938
324,788.937744140625,778.8644409179688,779.6703491210938,776.4468994140625
325,792.1611938476562,783.2966918945312,783.2966918945312,778.05859375
326,797.8021850585938,786.1171875,784.5054931640625,784.1025390625
327,798.6080322265625,783.2966918945312,781.2820434570312,788.5347900390625
328,796.5933837890625,780.4761962890625,780.0732421875,790.1465454101562
329,787.3259887695312,778.4615478515625,784.1025390625,787.3259887695312
330,785.7142944335938,781.2820434570312,784.5054931640625,786.5201416015625
331,790.5494384765625,785.3113403320312,780.4761962890625,790.5494384765625
332,795.7875366210938,784.5054931640625,784.908447265625,792.5640869140625
333,798.2051391601562,780.4761962890625,785.3113403320312,793.3699340820312
334,801.025634765625,783.2966918945312,781.2820434570312,791.3552856445312
335,802.2344360351562,784.5054931640625,782.893798828125,787.3259887695312
336,794.5787353515625,779.2673950195312,777.6557006835938,785.3113403320312
337,793.7728881835938,779.6703491210938,776.0439453125,784.908447265625
338,793.3699340820312,778.05859375,778.4615478515625,784.5054931640625
339,795.3846435546875,778.4615478515625,775.2380981445312,786.923095703125
340,794.1758422851562,777.2527465820312,776.8497924804688,786.1171875
341,786.923095703125,778.05859375,778.8644409179688,785.3113403320312
342,790.952392578125,782.893798828125,772.8204956054688,784.5054931640625
343,795.3846435546875,778.4615478515625,773.6264038085938,786.1171875
344,792.5640869140625,771.6116943359375,778.05859375,790.952392578125
345,791.3552856445312,773.6264038085938,776.8497924804688,791.3552856445312
346,790.952392578125,776.0439453125,776.0439453125,786.5201416015625
347,789.7435913085938,772.8204956054688,777.6557006835938,784.908447265625
348,797.3992919921875,776.8497924804688,778.4615478515625,786.5201416015625
349,801.8314819335938,777.2527465820312,777.6557006835938,785.7142944335938
350,797.8021850585938,773.6264038085938,778.4615478515625,788.5347900390625
351,795.7875366210938,778.8644409179688,783.2966918945312,792.5640869140625
352,801.025634765625,780.879150390625,786.5201416015625,794.5787353515625
353,805.8607788085938,780.0732421875,784.908447265625,799.8168334960938
354,806.2637329101562,781.6849975585938,781.6849975585938,801.025634765625
355,804.6520385742188,781.6849975585938,781.6849975585938,794.5787353515625
356,801.8314819335938,780.4761962890625,780.4761962890625,800.2197875976562
357,801.4285888671875,780.4761962890625,778.4615478515625,797.3992919921875
358,798.6080322265625,782.4908447265625,777.2527465820312,793.3699340820312
359,798.2051391601562,781.6849975585938,774.4322509765625,794.5787353515625
360,799.8168334960938,782.4908447265625,775.6410522460938,787.7289428710938
361,798.6080322265625,782.893798828125,777.2527465820312,785.3113403320312
362,798.6080322265625,780.879150390625,777.2527465820312,788.1318969726562
363,799.8168334960938,778.4615478515625,774.8351440429688,789.3406372070312
364,799.010986328125,782.4908447265625,773.2234497070312,788.1318969726562
365,796.1904907226562,784.908447265625,776.0439453125,788.937744140625
366,797.8021850585938,782.087890625,780.879150390625,790.5494384765625
367,798.2051391601562,777.6557006835938,781.2820434570312,795.7875366210938
368,794.5787353515625,774.8351440429688,776.8497924804688,792.1611938476562
369,791.7582397460938,773.2234497070312,778.05859375,782.4908447265625
370,794.981689453125,776.4468994140625,778.4615478515625,784.1025390625
371,792.967041015625,778.4615478515625,780.0732421875,792.1611938476562
372,790.1465454101562,781.6849975585938,782.087890625,789.3406372070312
373,792.5640869140625,780.0732421875,778.05859375,782.4908447265625
374,796.1904907226562,778.8644409179688,778.8644409179688,783.6996459960938
375,794.981689453125,780.879150390625,780.4761962890625,783.2966918945312
376,790.952392578125,780.4761962890625,776.8497924804688,779.2673950195312
377,790.952392578125,780.4761962890625,778.4615478515625,778.4615478515625
378,790.952392578125,781.2820434570312,777.6557006835938,777.6557006835938
379,793.3699340820312,778.8644409179688,775.2380981445312,780.879150390625
380,796.5933837890625,774.029296875,778.05859375,784.908447265625
381,797.8021850585938,770.8058471679688,777.6557006835938,785.3113403320312
382,791.7582397460938,770.8058471679688,774.4322509765625,784.5054931640625
383,790.1465454101562,772.4176025390625,774.4322509765625,783.6996459960938
384,790.5494384765625,770.4029541015625,774.4322509765625,783.6996459960938
385,792.5640869140625,771.6116943359375,777.2527465820312,782.893798828125
386,796.1904907226562,772.8204956054688,781.2820434570312,788.937744140625
387,791.3552856445312,774.029296875,777.6557006835938,790.5494384765625
388,787.3259887695312,778.05859375,772.8204956054688,788.937744140625
389,793.7728881835938,777.6557006835938,775.2380981445312,791.3552856445312
390,801.025634765625,776.0439453125,780.879150390625,793.7728881835938
391,795.7875366210938,776.8497924804688,780.4761962890625,794.981689453125
392,788.5347900390625,776.8497924804688,774.4322509765625,792.967041015625
393,787.7289428710938,774.8351440429688,774.029296875,786.5201416015625
394,788.5347900390625,772.0146484375,774.4322509765625,786.923095703125
395,794.981689453125,773.6264038085938,771.6116943359375,787.3259887695312
396,794.981689453125,779.6703491210938,775.6410522460938,782.4908447265625
397,793.7728881835938,780.879150390625,777.2527465820312,785.7142944335938
398,794.981689453125,778.4615478515625,776.4468994140625,785.3113403320312
399,792.5640869140625,773.6264038085938,774.4322509765625,780.0732421875
400,792.1611938476562,767.5823974609375,768.3883056640625,783.6996459960938
401,789.3406372070312,767.5823974609375,765.1648559570312,779.2673950195312
402,789.3406372070312,772.8204956054688,770.0,774.029296875
403,788.1318969726562,770.4029541015625,771.2088012695312,776.8497924804688
404,784.908447265625,769.5970458984375,771.6116943359375,777.2527465820312
405,789.3406372070312,773.2234497070312,777.6557006835938,787.7289428710938
406,787.7289428710938,773.2234497070312,778.4615478515625,801.4285888671875
407,783.2966918945312,774.8351440429688,776.0439453125,796.1904907226562
408,784.5054931640625,771.6116943359375,782.4908447265625,790.952392578125
409,789.7435913085938,767.9853515625,782.893798828125,794.5787353515625
410,792.967041015625,767.5823974609375,778.4615478515625,796.996337890625
411,795.3846435546875,769.1941528320312,780.4761962890625,794.981689453125
412,792.1611938476562,774.029296875,780.0732421875,791.3552856445312
413,785.7142944335938,773.2234497070312,774.8351440429688,793.7728881835938
414,786.5201416015625,770.4029541015625,774.4322509765625,786.5201416015625
415,787.3259887695312,769.5970458984375,771.2088012695312,776.0439453125
416,789.3406372070312,767.1795043945312,772.0146484375,778.8644409179688
417,790.5494384765625,768.7911987304688,773.2234497070312,785.7142944335938
418,790.5494384765625,771.2088012695312,775.2380981445312,785.3113403320312
419,791.3552856445312,767.9853515625,771.2088012695312,784.5054931640625
420,788.1318969726562,769.1941528320312,766.3735961914062,791.7582397460938
421,788.937744140625,774.029296875,772.4176025390625,786.923095703125
422,786.923095703125,772.4176025390625,776.8497924804688,779.6703491210938
423,788.1318969726562,769.5970458984375,773.2234497070312,780.4761962890625
424,789.3406372070312,768.3883056640625,774.4322509765625,782.087890625
425,790.1465454101562,772.4176025390625,772.0146484375,786.923095703125
426,788.1318969726562,772.8204956054688,766.3735961914062,786.5201416015625
427,781.2820434570312,770.8058471679688,763.9560546875,781.2820434570312
428,782.893798828125,773.6264038085938,769.5970458984375,775.2380981445312
429,790.5494384765625,776.4468994140625,777.2527465820312,780.4761962890625
430,792.967041015625,773.2234497070312,774.8351440429688,787.7289428710938
431,795.3846435546875,777.2527465820312,770.8058471679688,793.3699340820312
432,795.3846435546875,778.8644409179688,772.8204956054688,793.7728881835938
433,792.5640869140625,775.2380981445312,774.4322509765625,785.7142944335938
434,792.967041015625,774.029296875,774.4322509765625,787.3259887695312
435,809.89013671875,774.8351440429688,776.0439453125,799.010986328125
436,814.3223266601562,770.4029541015625,779.6703491210938,808.2783813476562
437,801.025634765625,770.4029541015625,778.8644409179688,805.8607788085938
438,796.1904907226562,777.6557006835938,780.4761962890625,797.8021850585938
439,795.7875366210938,779.6703491210938,784.1025390625,791.3552856445312
440,799.4139404296875,773.2234497070312,778.05859375,792.967041015625
441,801.8314819335938,768.3883056640625,774.8351440429688,798.6080322265625
442,794.1758422851562,773.2234497070312,776.0439453125,787.3259887695312
443,791.3552856445312,774.029296875,771.2088012695312,783.6996459960938
444,795.7875366210938,771.2088012695312,767.1795043945312,784.5054931640625
445,796.5933837890625,770.8058471679688,771.2088012695312,784.908447265625
446,796.5933837890625,772.4176025390625,772.8204956054688,791.3552856445312
447,798.2051391601562,775.6410522460938,772.8204956054688,793.3699340820312
448,796.996337890625,774.029296875,773.2234497070312,792.1611938476562
449,796.996337890625,771.6116943359375,770.0,791.3552856445312
450,800.6226806640625,774.8351440429688,769.1941528320312,789.7435913085938
451,803.040283203125,774.4322509765625,773.6264038085938,791.3552856445312
452,799.4139404296875,768.3883056640625,774.4322509765625,794.5787353515625
453,794.981689453125,765.970703125,774.4322509765625,788.1318969726562
454,795.7875366210938,769.5970458984375,774.029296875,787.3259887695312
455,799.4139404296875,774.4322509765625,771.6116943359375,794.1758422851562
456,803.8461303710938,773.6264038085938,774.029296875,799.8168334960938
457,805.8607788085938,770.0,774.4322509765625,799.010986328125
458,808.6813354492188,772.0146484375,776.4468994140625,803.040283203125
459,804.2490844726562,773.2234497070312,781.2820434570312,807.069580078125
460,807.87548828125,773.2234497070312,779.2673950195312,810.2930297851562
461,812.3076782226562,774.029296875,775.2380981445312,810.6959838867188
462,808.6813354492188,772.8204956054688,774.8351440429688,813.113525390625
463,803.040283203125,770.4029541015625,774.029296875,813.91943359375
464,800.2197875976562,771.2088012695312,774.4322509765625,803.040283203125
465,805.4578857421875,772.8204956054688,771.2088012695312,797.8021850585938
466,805.054931640625,776.4468994140625,772.8204956054688,802.6373901367188
467,799.010986328125,776.8497924804688,773.6264038085938,801.8314819335938
468,797.8021850585938,776.0439453125,769.5970458984375,792.1611938476562
469,795.3846435546875,769.5970458984375,769.5970458984375,787.3259887695312
470,792.967041015625,768.7911987304688,770.0,793.3699340820312
471,792.1611938476562,772.8204956054688,765.1648559570312,794.1758422851562
472,791.7582397460938,772.4176025390625,766.7765502929688,789.3406372070312
473,790.952392578125,774.8351440429688,770.8058471679688,789.3406372070312
474,794.5787353515625,779.2673950195312,773.6264038085938,796.1904907226562
475,800.6226806640625,775.2380981445312,774.8351440429688,799.4139404296875
476,802.2344360351562,771.6116943359375,774.029296875,798.2051391601562
477,802.6373901367188,772.8204956054688,772.8204956054688,801.8314819335938
478,801.025634765625,774.4322509765625,770.8058471679688,800.2197875976562
479,796.1904907226562,775.6410522460938,771.2088012695312,799.4139404296875
480,792.5640869140625,771.6116943359375,771.6116943359375,800.6226806640625
481,790.952392578125,770.4029541015625,767.9853515625,799.4139404296875
482,792.1611938476562,770.4029541015625,771.6116943359375,806.6666870117188
483,793.3699340820312,766.3735961914062,774.8351440429688,805.4578857421875
484,795.7875366210938,768.7911987304688,778.4615478515625,798.6080322265625
485,797.3992919921875,770.8058471679688,780.879150390625,796.1904907226562
486,799.010986328125,765.970703125,776.4468994140625,793.3699340820312
487,800.6226806640625,770.0,778.05859375,794.1758422851562
488,800.2197875976562,775.6410522460938,783.6996459960938,789.7435913085938
489,799.010986328125,773.2234497070312,778.8644409179688,792.967041015625
490,803.8461303710938,772.8204956054688,778.8644409179688,803.040283203125
491,806.6666870117188,772.4176025390625,781.2820434570312,800.2197875976562
492,803.8461303710938,774.029296875,778.4615478515625,797.8021850585938
493,802.2344360351562,774.8351440429688,774.4322509765625,796.996337890625
494,799.4139404296875,776.0439453125,774.4322509765625,796.5933837890625
495,794.5787353515625,773.6264038085938,778.4615478515625,794.981689453125
496,795.7875366210938,772.8204956054688,779.2673950195312,793.7728881835938
497,802.2344360351562,774.029296875,777.6557006835938,798.2051391601562
498,805.4578857421875,776.8497924804688,776.8497924804688,796.996337890625
499,798.2051391601562,780.0732421875,777.6557006835938,790.1465454101562
500,788.1318969726562,780.879150390625,774.4322509765625,785.3113403320312
501,793.3699340820312,782.893798828125,773.6264038085938,790.5494384765625
502,800.6226806640625,780.879150390625,776.4468994140625,800.2197875976562
503,796.1904907226562,779.6703491210938,776.8497924804688,794.5787353515625
504,792.1611938476562,782.893798828125,776.8497924804688,790.5494384765625
505,794.1758422851562,783.6996459960938,775.2380981445312,792.967041015625
506,799.8168334960938,784.5054931640625,776.8497924804688,800.6226806640625
507,805.054931640625,782.893798828125,778.8644409179688,799.4139404296875
508,804.2490844726562,781.6849975585938,772.8204956054688,789.7435913085938
509,802.6373901367188,777.6557006835938,770.4029541015625,788.937744140625
510,799.8168334960938,777.6557006835938,776.0439453125,791.7582397460938
511,795.3846435546875,778.4615478515625,776.4468994140625,788.5347900390625
512,797.8021850585938,774.4322509765625,776.0439453125,786.5201416015625
513,796.996337890625,781.2820434570312,779.2673950195312,799.8168334960938
514,794.5787353515625,784.1025390625,778.05859375,798.6080322265625
515,795.3846435546875,775.6410522460938,776.0439453125,786.5201416015625
516,794.1758422851562,776.4468994140625,775.2380981445312,787.7289428710938
517,790.5494384765625,776.8497924804688,773.2234497070312,790.1465454101562
518,788.937744140625,774.8351440429688,774.4322509765625,788.937744140625
519,788.5347900390625,777.6557006835938,776.4468994140625,784.908447265625
520,792.1611938476562,773.6264038085938,776.0439453125,789.3406372070312
521,795.7875366210938,774.8351440429688,780.4761962890625,792.5640869140625
522,801.8314819335938,784.1025390625,781.6849975585938,790.1465454101562
523,799.8168334960938,784.5054931640625,779.6703491210938,788.5347900390625
524,790.952392578125,780.879150390625,779.2673950195312,784.908447265625
525,789.7435913085938,777.6557006835938,776.4468994140625,780.879150390625
526,790.952392578125,775.6410522460938,776.0439453125,786.923095703125
527,788.5347900390625,770.4029541015625,775.2380981445312,790.5494384765625
528,796.5933837890625,772.4176025390625,776.0439453125,786.923095703125
529,803.8461303710938,778.8644409179688,778.8644409179688,787.7289428710938
530,796.5933837890625,775.6410522460938,777.6557006835938,792.967041015625
531,792.967041015625,776.0439453125,774.8351440429688,795.7875366210938
532,799.010986328125,780.0732421875,775.2380981445312,794.981689453125
533,799.4139404296875,776.8497924804688,778.05859375,789.3406372070312
534,797.3992919921875,780.4761962890625,781.2820434570312,791.3552856445312
535,801.8314819335938,784.1025390625,781.2820434570312,793.7728881835938
536,803.4432373046875,782.4908447265625,780.0732421875,793.3699340820312
537,803.8461303710938,788.937744140625,774.4322509765625,794.981689453125
538,806.6666870117188,792.5640869140625,772.0146484375,792.1611938476562
539,807.87548828125,787.7289428710938,777.2527465820312,791.3552856445312
540,805.4578857421875,787.3259887695312,775.2380981445312,790.5494384765625
541,799.4139404296875,783.6996459960938,773.6264038085938,785.3113403320312
542,793.7728881835938,781.6849975585938,772.8204956054688,782.893798828125
543,799.4139404296875,782.893798828125,774.029296875,787.3259887695312
544,801.4285888671875,782.087890625,776.8497924804688,786.923095703125
545,798.6080322265625,780.879150390625,776.4468994140625,786.1171875
546,800.2197875976562,782.087890625,777.6557006835938,790.1465454101562
547,800.6226806640625,785.3113403320312,777.2527465820312,796.5933837890625
548,800.2197875976562,785.7142944335938,781.2820434570312,807.069580078125
549,791.7582397460938,782.893798828125,779.2673950195312,795.3846435546875
550,790.952392578125,780.4761962890625,778.4615478515625,788.937744140625
551,792.5640869140625,780.0732421875,783.6996459960938,790.952392578125
552,794.981689453125,782.4908447265625,784.1025390625,788.1318969726562
553,796.5933837890625,781.2820434570312,784.908447265625,788.937744140625
554,794.1758422851562,777.2527465820312,777.2527465820312,785.3113403320312
555,795.7875366210938,777.2527465820312,775.2380981445312,784.908447265625
556,791.3552856445312,778.8644409179688,780.4761962890625,784.1025390625
557,791.7582397460938,781.2820434570312,779.6703491210938,785.3113403320312
558,799.010986328125,782.4908447265625,775.2380981445312,790.952392578125
559,799.8168334960938,778.8644409179688,772.8204956054688,792.967041015625
560,793.7728881835938,779.2673950195312,773.6264038085938,787.7289428710938
561,792.1611938476562,782.4908447265625,773.6264038085938,782.087890625
562,797.8021850585938,780.879150390625,774.8351440429688,787.3259887695312
563,802.6373901367188,779.6703491210938,776.8497924804688,794.981689453125
564,801.8314819335938,781.6849975585938,778.8644409179688,792.1611938476562
565,801.8314819335938,779.6703491210938,773.6264038085938,790.1465454101562
566,796.5933837890625,779.2673950195312,772.8204956054688,794.1758422851562
567,795.3846435546875,782.087890625,775.2380981445312,798.6080322265625
568,800.2197875976562,776.0439453125,774.8351440429688,798.6080322265625
569,808.2783813476562,775.6410522460938,778.8644409179688,801.025634765625
570,811.90478515625,783.6996459960938,776.0439453125,797.3992919921875
571,800.6226806640625,782.4908447265625,768.7911987304688,794.5787353515625
572,798.6080322265625,782.087890625,772.8204956054688,793.3699340820312
573,803.8461303710938,782.893798828125,776.8497924804688,794.5787353515625
574,801.025634765625,777.6557006835938,773.6264038085938,797.8021850585938
575,792.1611938476562,775.6410522460938,771.6116943359375,792.5640869140625
576,785.7142944335938,780.879150390625,772.0146484375,788.1318969726562
577,787.3259887695312,781.6849975585938,778.8644409179688,789.3406372070312
578,791.7582397460938,778.4615478515625,776.4468994140625,790.5494384765625
579,798.6080322265625,779.6703491210938,777.6557006835938,794.5787353515625
580,801.025634765625,781.6849975585938,780.4761962890625,794.1758422851562
581,798.2051391601562,785.7142944335938,781.2820434570312,795.7875366210938
582,795.3846435546875,781.6849975585938,777.2527465820312,800.2197875976562
583,796.1904907226562,776.8497924804688,774.029296875,796.5933837890625
584,800.6226806640625,778.8644409179688,776.8497924804688,797.8021850585938
585,801.025634765625,778.05859375,772.4176025390625,795.7875366210938
586,796.5933837890625,778.8644409179688,770.0,795.3846435546875
587,796.1904907226562,777.6557006835938,772.8204956054688,794.1758422851562
588,800.2197875976562,775.2380981445312,774.4322509765625,786.923095703125
589,800.2197875976562,778.8644409179688,776.0439453125,788.5347900390625
590,799.4139404296875,778.8644409179688,769.1941528320312,789.7435913085938
591,797.3992919921875,777.6557006835938,765.1648559570312,788.937744140625
592,796.5933837890625,785.3113403320312,767.1795043945312,796.996337890625
593,802.2344360351562,786.5201416015625,768.3883056640625,800.2197875976562
594,805.8607788085938,783.2966918945312,773.2234497070312,799.4139404296875
595,801.025634765625,779.2673950195312,774.029296875,796.996337890625
596,796.1904907226562,778.05859375,772.8204956054688,789.3406372070312
597,795.3846435546875,783.6996459960938,772.4176025390625,785.3113403320312
598,797.8021850585938,784.1025390625,767.9853515625,784.5054931640625
599,801.025634765625,784.5054931640625,766.3735961914062,785.7142944335938
600,804.6520385742188,785.3113403320312,770.8058471679688,792.1611938476562
601,802.2344360351562,779.2673950195312,770.0,793.3699340820312
602,792.967041015625,775.2380981445312,762.3442993164062,784.908447265625
603,796.996337890625,777.6557006835938,762.3442993164062,786.1171875
604,805.8607788085938,782.893798828125,764.3589477539062,791.3552856445312
605,808.6813354492188,780.4761962890625,762.3442993164062,797.8021850585938
606,805.054931640625,778.8644409179688,764.3589477539062,804.2490844726562
607,800.2197875976562,779.2673950195312,759.5238037109375,794.1758422851562
608,804.2490844726562,776.0439453125,757.912109375,790.5494384765625
609,806.2637329101562,776.8497924804688,758.7179565429688,798.6080322265625
610,799.010986328125,780.4761962890625,756.7033081054688,792.967041015625
611,797.3992919921875,779.2673950195312,757.5091552734375,786.1171875
612,798.2051391601562,778.4615478515625,758.7179565429688,794.1758422851562
613,801.4285888671875,782.087890625,763.1502075195312,801.4285888671875
614,807.87548828125,781.6849975585938,766.3735961914062,800.6226806640625
615,807.87548828125,780.4761962890625,761.5384521484375,800.2197875976562
616,805.4578857421875,775.6410522460938,762.3442993164062,800.2197875976562
617,804.2490844726562,773.2234497070312,765.970703125,801.4285888671875
618,802.2344360351562,773.6264038085938,765.1648559570312,801.025634765625
619,799.4139404296875,773.6264038085938,762.7472534179688,796.5933837890625
620,799.4139404296875,775.6410522460938,762.7472534179688,797.8021850585938
621,796.996337890625,774.029296875,763.9560546875,793.7728881835938
622,794.1758422851562,772.8204956054688,763.1502075195312,786.5201416015625
623,791.3552856445312,774.029296875,767.1795043945312,788.5347900390625
624,791.3552856445312,772.0146484375,765.5677490234375,789.7435913085938
625,792.967041015625,772.8204956054688,762.7472534179688,786.923095703125
626,798.6080322265625,774.8351440429688,765.5677490234375,792.1611938476562
627,801.4285888671875,776.0439453125,764.7619018554688,793.7728881835938
628,797.8021850585938,776.4468994140625,767.1795043945312,797.8021850585938
629,802.2344360351562,774.8351440429688,770.8058471679688,801.4285888671875
630,805.8607788085938,775.6410522460938,767.9853515625,795.3846435546875
631,805.8607788085938,779.2673950195312,765.5677490234375,796.996337890625
632,807.87548828125,780.0732421875,766.3735961914062,808.2783813476562
633,806.6666870117188,775.2380981445312,763.1502075195312,807.87548828125
634,804.6520385742188,772.0146484375,757.5091552734375,799.8168334960938
635,808.6813354492188,774.4322509765625,755.091552734375,801.8314819335938
636,809.4871826171875,777.6557006835938,757.106201171875,802.2344360351562
637,800.2197875976562,774.8351440429688,761.1355590820312,797.3992919921875
638,795.7875366210938,770.0,758.3150024414062,798.2051391601562
639,796.996337890625,770.8058471679688,753.4798583984375,800.6226806640625
640,798.6080322265625,776.8497924804688,757.106201171875,799.8168334960938
641,801.025634765625,776.0439453125,759.120849609375,798.6080322265625
642,794.981689453125,769.5970458984375,758.3150024414062,794.5787353515625
643,790.952392578125,772.8204956054688,758.7179565429688,791.7582397460938
644,792.5640869140625,776.8497924804688,758.7179565429688,796.996337890625
645,793.7728881835938,778.05859375,760.3296508789062,797.8021850585938
646,800.2197875976562,778.4615478515625,758.3150024414062,796.5933837890625
647,805.8607788085938,778.05859375,757.912109375,800.6226806640625
648,805.4578857421875,780.0732421875,760.7326049804688,797.8021850585938
649,804.2490844726562,779.2673950195312,759.5238037109375,791.3552856445312
650,803.8461303710938,775.6410522460938,759.5238037109375,795.7875366210938
651,807.069580078125,777.6557006835938,760.3296508789062,796.5933837890625
652,805.4578857421875,778.4615478515625,756.3003540039062,790.5494384765625
653,803.4432373046875,779.6703491210938,755.8974609375,790.5494384765625
654,809.4871826171875,784.1025390625,761.1355590820312,792.5640869140625
655,810.6959838867188,784.1025390625,765.5677490234375,798.2051391601562
656,809.084228515625,783.2966918945312,765.5677490234375,801.025634765625
657,808.2783813476562,781.6849975585938,767.1795043945312,800.2197875976562
658,800.6226806640625,778.8644409179688,767.5823974609375,801.8314819335938
659,800.2197875976562,780.4761962890625,766.7765502929688,800.2197875976562
660,803.4432373046875,780.4761962890625,766.3735961914062,803.040283203125
661,799.8168334960938,780.0732421875,765.5677490234375,804.2490844726562
662,805.4578857421875,787.3259887695312,764.3589477539062,800.6226806640625
663,803.040283203125,788.937744140625,761.94140625,796.996337890625
664,794.1758422851562,788.937744140625,765.5677490234375,797.3992919921875
665,799.010986328125,788.5347900390625,766.7765502929688,797.3992919921875
666,802.2344360351562,786.1171875,760.7326049804688,792.967041015625
667,800.2197875976562,785.3113403320312,761.5384521484375,791.7582397460938
668,802.6373901367188,784.5054931640625,767.9853515625,797.8021850585938
669,801.8314819335938,781.6849975585938,767.9853515625,799.4139404296875
670,806.2637329101562,783.2966918945312,767.5823974609375,805.8607788085938
671,810.2930297851562,781.6849975585938,766.3735961914062,816.7399291992188
672,802.6373901367188,782.4908447265625,761.94140625,806.2637329101562
673,803.040283203125,784.1025390625,762.7472534179688,801.025634765625
674,806.2637329101562,788.1318969726562,760.7326049804688,805.8607788085938
675,805.054931640625,788.5347900390625,761.94140625,804.2490844726562
676,804.6520385742188,782.893798828125,763.1502075195312,798.2051391601562
677,801.8314819335938,778.8644409179688,757.106201171875,794.1758422851562
678,797.3992919921875,777.6557006835938,755.091552734375,795.7875366210938
679,797.3992919921875,775.6410522460938,759.120849609375,798.2051391601562
680,793.7728881835938,774.4322509765625,759.120849609375,798.6080322265625
681,800.2197875976562,778.8644409179688,759.120849609375,801.4285888671875
682,807.069580078125,780.4761962890625,765.1648559570312,811.90478515625
683,799.8168334960938,779.6703491210938,764.3589477539062,810.2930297851562
684,798.2051391601562,781.2820434570312,757.912109375,800.2197875976562
685,799.010986328125,780.0732421875,760.3296508789062,800.6226806640625
686,801.025634765625,779.6703491210938,763.9560546875,800.6226806640625
687,800.6226806640625,778.8644409179688,759.5238037109375,798.2051391601562
688,799.8168334960938,780.4761962890625,755.8974609375,799.4139404296875
689,806.2637329101562,780.879150390625,761.5384521484375,802.2344360351562
690,806.6666870117188,777.6557006835938,760.3296508789062,799.8168334960938
691,804.6520385742188,780.0732421875,759.120849609375,799.8168334960938
692,809.4871826171875,783.2966918945312,763.1502075195312,802.6373901367188
693,810.2930297851562,779.6703491210938,763.1502075195312,803.8461303710938
694,809.4871826171875,775.2380981445312,765.1648559570312,807.069580078125
695,807.069580078125,775.2380981445312,766.3735961914062,805.054931640625
696,810.6959838867188,777.2527465820312,765.1648559570312,807.4725341796875
697,813.91943359375,780.0732421875,763.1502075195312,807.4725341796875
698,811.5018310546875,786.5201416015625,759.9267578125,801.4285888671875
699,809.084228515625,784.1025390625,761.5384521484375,799.8168334960938
700,808.2783813476562,775.6410522460938,760.7326049804688,796.5933837890625
701,809.89013671875,778.05859375,759.5238037109375,794.981689453125
702,812.3076782226562,782.893798828125,758.7179565429688,799.8168334960938
703,807.4725341796875,778.05859375,754.2857055664062,790.1465454101562
704,801.8314819335938,776.4468994140625,758.3150024414062,787.7289428710938
705,803.040283203125,779.2673950195312,761.94140625,794.1758422851562
706,804.6520385742188,783.2966918945312,761.94140625,794.1758422851562
707,799.4139404296875,783.6996459960938,762.3442993164062,790.952392578125
708,802.6373901367188,784.5054931640625,761.94140625,792.5640869140625
709,807.4725341796875,783.2966918945312,761.5384521484375,800.2197875976562
710,803.4432373046875,780.0732421875,757.912109375,800.6226806640625
711,801.025634765625,782.087890625,759.5238037109375,800.2197875976562
712,807.069580078125,782.087890625,762.7472534179688,803.4432373046875
713,806.6666870117188,777.2527465820312,755.4945068359375,798.6080322265625
714,803.040283203125,780.879150390625,756.7033081054688,798.6080322265625
715,802.2344360351562,784.1025390625,760.3296508789062,803.8461303710938
716,801.8314819335938,781.6849975585938,759.120849609375,804.6520385742188
717,802.6373901367188,782.087890625,760.3296508789062,807.4725341796875
718,802.6373901367188,782.893798828125,758.3150024414062,804.2490844726562
719,800.6226806640625,784.5054931640625,756.3003540039062,800.6226806640625
720,794.1758422851562,782.893798828125,752.2710571289062,791.7582397460938
721,788.1318969726562,779.6703491210938,753.8828125,784.1025390625
722,795.7875366210938,780.879150390625,759.9267578125,792.5640869140625
723,805.054931640625,783.6996459960938,759.5238037109375,794.5787353515625
724,804.6520385742188,785.3113403320312,759.5238037109375,792.1611938476562
725,801.8314819335938,784.1025390625,760.7326049804688,796.5933837890625
726,802.2344360351562,785.7142944335938,760.7326049804688,799.010986328125
727,801.025634765625,783.2966918945312,759.5238037109375,793.7728881835938
728,806.2637329101562,782.4908447265625,759.5238037109375,798.2051391601562
729,807.4725341796875,786.1171875,763.9560546875,797.3992919921875
730,798.2051391601562,785.7142944335938,764.3589477539062,791.3552856445312
731,797.3992919921875,782.893798828125,764.7619018554688,794.5787353515625
732,803.040283203125,781.2820434570312,765.5677490234375,794.981689453125
733,808.2783813476562,783.6996459960938,769.1941528320312,797.8021850585938
734,812.7106323242188,785.7142944335938,768.7911987304688,806.2637329101562
735,808.2783813476562,784.5054931640625,767.9853515625,802.2344360351562
736,805.054931640625,783.2966918945312,764.7619018554688,796.5933837890625
737,807.4725341796875,782.4908447265625,763.1502075195312,799.010986328125
738,813.91943359375,783.2966918945312,770.4029541015625,808.6813354492188
739,816.7399291992188,782.4908447265625,772.4176025390625,812.7106323242188
740,810.2930297851562,784.5054931640625,767.9853515625,817.5457763671875
741,802.2344360351562,782.893798828125,765.5677490234375,810.2930297851562
742,805.8607788085938,780.0732421875,764.7619018554688,801.8314819335938
743,813.91943359375,779.6703491210938,766.3735961914062,803.8461303710938
744,811.098876953125,779.6703491210938,766.7765502929688,799.010986328125
745,805.8607788085938,784.908447265625,763.5531005859375,794.1758422851562
746,810.6959838867188,786.1171875,765.1648559570312,793.3699340820312
747,808.2783813476562,781.6849975585938,765.970703125,791.3552856445312
748,805.054931640625,781.6849975585938,763.5531005859375,793.3699340820312
749,809.4871826171875,788.1318969726562,765.1648559570312,798.6080322265625
750,807.4725341796875,787.7289428710938,762.7472534179688,796.996337890625
751,802.2344360351562,784.5054931640625,759.120849609375,798.2051391601562
752,809.4871826171875,786.5201416015625,760.7326049804688,801.8314819335938
753,811.098876953125,783.2966918945312,760.3296508789062,792.967041015625
754,811.098876953125,780.4761962890625,759.9267578125,789.3406372070312
755,807.87548828125,779.2673950195312,758.7179565429688,790.1465454101562
756,799.4139404296875,777.2527465820312,755.4945068359375,786.1171875
757,800.2197875976562,776.8497924804688,755.8974609375,788.937744140625
758,806.2637329101562,781.2820434570312,763.1502075195312,799.4139404296875
759,807.87548828125,783.2966918945312,765.970703125,806.2637329101562
760,800.2197875976562,776.4468994140625,763.5531005859375,801.4285888671875
761,798.6080322265625,776.8497924804688,767.1795043945312,795.3846435546875
762,804.6520385742188,778.8644409179688,773.2234497070312,796.1904907226562
763,814.3223266601562,782.893798828125,771.6116943359375,802.2344360351562
764,810.2930297851562,785.3113403320312,768.7911987304688,796.1904907226562
765,804.6520385742188,776.8497924804688,770.8058471679688,799.8168334960938
766,807.87548828125,778.8644409179688,773.6264038085938,799.010986328125
767,805.4578857421875,789.3406372070312,775.2380981445312,793.7728881835938
768,811.5018310546875,791.7582397460938,772.8204956054688,792.5640869140625
769,817.5457763671875,786.1171875,766.7765502929688,789.7435913085938
770,813.113525390625,788.5347900390625,766.3735961914062,794.5787353515625
771,808.6813354492188,788.937744140625,767.9853515625,795.3846435546875
772,805.054931640625,783.6996459960938,767.5823974609375,791.3552856445312
773,804.2490844726562,783.2966918945312,767.1795043945312,797.8021850585938
774,807.87548828125,786.1171875,769.5970458984375,805.8607788085938
775,806.2637329101562,786.1171875,768.3883056640625,804.6520385742188
776,801.4285888671875,784.1025390625,771.2088012695312,801.4285888671875
777,796.5933837890625,785.3113403320312,773.6264038085938,797.8021850585938
778,802.6373901367188,789.3406372070312,772.0146484375,804.6520385742188
779,806.6666870117188,788.5347900390625,772.0146484375,807.4725341796875
780,808.2783813476562,786.5201416015625,774.4322509765625,799.8168334960938
781,806.2637329101562,786.923095703125,774.8351440429688,800.6226806640625
782,801.025634765625,786.1171875,775.2380981445312,804.6520385742188
783,806.6666870117188,786.1171875,776.8497924804688,806.2637329101562
784,813.5164794921875,784.1025390625,774.4322509765625,807.4725341796875
785,813.113525390625,788.5347900390625,777.6557006835938,804.6520385742188
786,809.4871826171875,790.5494384765625,778.8644409179688,803.040283203125
787,808.2783813476562,789.3406372070312,772.8204956054688,804.2490844726562
788,806.6666870117188,791.7582397460938,771.2088012695312,808.2783813476562
789,805.4578857421875,789.3406372070312,771.6116943359375,810.6959838867188
790,808.2783813476562,788.937744140625,772.0146484375,811.90478515625
791,807.4725341796875,787.7289428710938,772.0146484375,801.8314819335938
792,805.054931640625,791.7582397460938,775.6410522460938,799.8168334960938
793,800.6226806640625,792.1611938476562,774.4322509765625,802.6373901367188
794,803.4432373046875,786.1171875,773.2234497070312,805.8607788085938
795,802.6373901367188,785.3113403320312,775.6410522460938,801.8314819335938
796,796.996337890625,788.937744140625,776.0439453125,792.1611938476562
797,795.7875366210938,792.5640869140625,780.879150390625,794.1758422851562
798,798.2051391601562,793.3699340820312,786.5201416015625,795.3846435546875
799,801.8314819335938,789.3406372070312,786.1171875,794.981689453125
800,804.6520385742188,789.3406372070312,784.5054931640625,790.952392578125
801,802.6373901367188,793.3699340820312,784.5054931640625,794.981689453125
802,796.5933837890625,790.952392578125,783.2966918945312,794.1758422851562
803,801.025634765625,791.7582397460938,779.6703491210938,784.908447265625
804,802.2344360351562,790.952392578125,781.2820434570312,784.1025390625
805,794.1758422851562,788.1318969726562,783.2966918945312,791.3552856445312
806,793.7728881835938,790.5494384765625,785.7142944335938,794.1758422851562
807,797.3992919921875,790.1465454101562,786.923095703125,789.3406372070312
808,802.2344360351562,792.5640869140625,784.1025390625,791.3552856445312
809,804.2490844726562,787.3259887695312,784.1025390625,792.967041015625
810,806.6666870117188,784.908447265625,780.0732421875,793.7728881835938
811,809.084228515625,794.981689453125,780.4761962890625,795.3846435546875
812,806.6666870117188,796.996337890625,781.2820434570312,795.7875366210938
813,803.040283203125,796.996337890625,780.4761962890625,801.025634765625
814,803.040283203125,796.5933837890625,781.2820434570312,798.6080322265625
815,804.6520385742188,792.5640869140625,782.087890625,794.981689453125
816,803.8461303710938,790.1465454101562,784.908447265625,794.1758422851562
817,801.025634765625,794.1758422851562,788.5347900390625,793.7728881835938
818,797.3992919921875,796.996337890625,787.7289428710938,792.967041015625
819,790.5494384765625,794.981689453125,782.087890625,789.3406372070312
820,790.952392578125,792.1611938476562,780.879150390625,787.3259887695312
821,797.3992919921875,792.1611938476562,785.7142944335938,789.3406372070312
822,797.3992919921875,788.937744140625,786.5201416015625,791.7582397460938
823,792.5640869140625,786.1171875,787.3259887695312,790.1465454101562
824,796.1904907226562,787.7289428710938,791.7582397460938,796.996337890625
825,798.2051391601562,788.1318969726562,788.5347900390625,801.8314819335938
826,802.2344360351562,792.5640869140625,791.3552856445312,801.8314819335938
827,805.054931640625,797.3992919921875,793.7728881835938,806.6666870117188
828,803.8461303710938,795.7875366210938,788.937744140625,805.054931640625
829,807.069580078125,799.4139404296875,793.7728881835938,805.8607788085938
830,811.5018310546875,797.3992919921875,794.981689453125,809.084228515625
831,811.5018310546875,795.7875366210938,789.3406372070312,808.2783813476562
832,799.8168334960938,798.6080322265625,787.7289428710938,805.4578857421875
833,796.996337890625,798.2051391601562,790.1465454101562,805.4578857421875
834,799.8168334960938,795.7875366210938,790.1465454101562,802.6373901367188
835,800.6226806640625,793.7728881835938,791.7582397460938,799.010986328125
836,804.2490844726562,794.5787353515625,794.1758422851562,804.6520385742188
837,803.040283203125,794.1758422851562,796.5933837890625,799.8168334960938
838,795.7875366210938,794.5787353515625,792.967041015625,795.3846435546875
839,796.996337890625,791.3552856445312,790.5494384765625,800.6226806640625
840,802.2344360351562,790.952392578125,791.7582397460938,805.8607788085938
841,806.6666870117188,795.3846435546875,790.952392578125,807.87548828125
842,805.8607788085938,792.967041015625,793.3699340820312,801.4285888671875
843,800.2197875976562,790.952392578125,792.5640869140625,795.3846435546875
844,801.4285888671875,790.952392578125,789.7435913085938,790.952392578125
845,806.6666870117188,788.937744140625,786.923095703125,795.7875366210938
846,812.7106323242188,792.5640869140625,784.5054931640625,803.8461303710938
847,812.7106323242188,794.5787353515625,784.5054931640625,803.4432373046875
848,814.3223266601562,793.7728881835938,785.7142944335938,803.4432373046875
849,822.3809814453125,794.981689453125,786.5201416015625,804.2490844726562
850,817.1428833007812,794.5787353515625,782.4908447265625,802.2344360351562
851,816.3369750976562,793.7728881835938,778.8644409179688,806.6666870117188
852,817.94873046875,793.3699340820312,780.0732421875,806.6666870117188
853,818.7545776367188,799.010986328125,781.6849975585938,806.6666870117188
854,820.7692260742188,803.8461303710938,784.5054931640625,812.7106323242188
855,821.1721801757812,803.040283203125,786.5201416015625,810.2930297851562
856,821.1721801757812,801.4285888671875,784.5054931640625,808.2783813476562
857,819.5604248046875,799.4139404296875,785.7142944335938,807.87548828125
858,819.96337890625,798.6080322265625,786.5201416015625,809.89013671875
859,817.1428833007812,797.3992919921875,781.2820434570312,805.054931640625
860,815.1282348632812,797.3992919921875,780.0732421875,803.040283203125
861,813.5164794921875,798.2051391601562,783.6996459960938,803.8461303710938
862,804.6520385742188,798.2051391601562,778.8644409179688,795.3846435546875
863,801.025634765625,800.6226806640625,776.8497924804688,801.8314819335938
864,800.2197875976562,797.8021850585938,784.5054931640625,805.8607788085938
865,803.040283203125,793.3699340820312,788.937744140625,801.4285888671875
866,811.098876953125,793.3699340820312,782.4908447265625,806.6666870117188
867,806.6666870117188,790.952392578125,780.0732421875,801.025634765625
868,798.2051391601562,790.952392578125,781.6849975585938,791.7582397460938
869,800.2197875976562,788.1318969726562,783.2966918945312,790.5494384765625
870,803.040283203125,787.7289428710938,785.3113403320312,790.5494384765625
871,803.8461303710938,786.923095703125,783.2966918945312,790.1465454101562
872,806.2637329101562,789.3406372070312,780.4761962890625,790.952392578125
873,800.6226806640625,797.3992919921875,783.2966918945312,790.952392578125
874,790.5494384765625,794.1758422851562,783.6996459960938,790.5494384765625
875,792.5640869140625,793.7728881835938,782.893798828125,792.5640869140625
876,798.6080322265625,795.7875366210938,787.3259887695312,792.5640869140625
877,803.8461303710938,795.7875366210938,783.2966918945312,797.8021850585938
878,807.87548828125,794.981689453125,783.2966918945312,800.6226806640625
879,805.4578857421875,798.2051391601562,787.7289428710938,796.996337890625
880,800.6226806640625,797.3992919921875,784.5054931640625,788.1318969726562
881,803.4432373046875,791.3552856445312,784.1025390625,790.1465454101562
882,800.6226806640625,786.923095703125,786.1171875,790.5494384765625
883,794.981689453125,784.908447265625,783.6996459960938,783.2966918945312
884,794.1758422851562,788.1318969726562,782.4908447265625,783.6996459960938
885,797.8021850585938,792.1611938476562,787.3259887695312,790.5494384765625
886,807.4725341796875,796.5933837890625,787.3259887695312,797.8021850585938
887,807.4725341796875,796.1904907226562,786.1171875,789.3406372070312
888,800.2197875976562,793.7728881835938,787.7289428710938,785.7142944335938
889,795.3846435546875,794.981689453125,790.5494384765625,794.1758422851562
890,797.8021850585938,798.2051391601562,794.981689453125,801.8314819335938
891,799.8168334960938,797.8021850585938,794.5787353515625,804.2490844726562
892,804.2490844726562,796.996337890625,793.3699340820312,805.4578857421875
893,807.87548828125,794.1758422851562,791.3552856445312,803.4432373046875
894,808.6813354492188,792.967041015625,789.7435913085938,804.6520385742188
895,805.054931640625,790.5494384765625,793.3699340820312,805.8607788085938
896,794.5787353515625,792.967041015625,796.996337890625,802.6373901367188
897,794.981689453125,797.3992919921875,794.5787353515625,807.87548828125
898,798.2051391601562,796.996337890625,791.7582397460938,805.054931640625
899,803.4432373046875,799.8168334960938,791.7582397460938,798.6080322265625
900,806.6666870117188,796.5933837890625,787.7289428710938,797.3992919921875
901,799.010986328125,795.7875366210938,787.3259887695312,790.5494384765625
902,801.8314819335938,799.4139404296875,786.5201416015625,790.5494384765625
903,802.6373901367188,795.7875366210938,785.3113403320312,788.5347900390625
904,801.025634765625,795.3846435546875,786.1171875,786.1171875
905,801.4285888671875,799.4139404296875,788.5347900390625,791.3552856445312
906,804.2490844726562,797.8021850585938,792.967041015625,795.3846435546875
907,809.084228515625,800.6226806640625,791.3552856445312,799.4139404296875
908,809.89013671875,801.4285888671875,792.1611938476562,802.6373901367188
909,801.8314819335938,799.8168334960938,788.937744140625,804.2490844726562
910,794.1758422851562,801.4285888671875,783.2966918945312,795.3846435546875
911,800.6226806640625,801.4285888671875,785.7142944335938,791.7582397460938
912,808.2783813476562,798.6080322265625,786.1171875,792.967041015625
913,806.6666870117188,799.010986328125,784.5054931640625,786.5201416015625
914,796.996337890625,798.6080322265625,784.1025390625,782.4908447265625
915,800.2197875976562,799.8168334960938,786.5201416015625,791.7582397460938
916,802.6373901367188,802.2344360351562,787.7289428710938,799.4139404296875
917,800.6226806640625,798.2051391601562,788.937744140625,797.8021850585938
918,798.2051391601562,799.4139404296875,785.7142944335938,791.3552856445312
919,790.952392578125,801.025634765625,784.5054931640625,787.3259887695312
920,788.5347900390625,798.6080322265625,787.7289428710938,795.3846435546875
921,790.952392578125,798.2051391601562,786.5201416015625,800.2197875976562
922,797.8021850585938,795.3846435546875,791.3552856445312,799.4139404296875
923,803.4432373046875,791.7582397460938,795.7875366210938,798.6080322265625
924,800.2197875976562,794.981689453125,794.1758422851562,798.2051391601562
925,798.2051391601562,799.010986328125,796.996337890625,797.3992919921875
926,799.8168334960938,798.2051391601562,796.1904907226562,794.1758422851562
927,804.6520385742188,797.3992919921875,792.1611938476562,794.981689453125
928,813.113525390625,803.4432373046875,794.5787353515625,803.8461303710938
929,813.5164794921875,807.069580078125,797.8021850585938,805.8607788085938
930,805.8607788085938,805.4578857421875,795.3846435546875,798.2051391601562
931,807.069580078125,806.2637329101562,798.6080322265625,799.4139404296875
932,805.054931640625,801.8314819335938,798.2051391601562,801.025634765625
933,801.4285888671875,799.4139404296875,792.1611938476562,793.3699340820312
934,801.4285888671875,799.010986328125,792.1611938476562,790.5494384765625
935,799.010986328125,797.3992919921875,790.952392578125,789.7435913085938
936,794.981689453125,799.8168334960938,788.1318969726562,789.3406372070312
937,798.2051391601562,805.4578857421875,793.7728881835938,795.7875366210938
938,803.8461303710938,807.87548828125,794.981689453125,797.3992919921875
939,801.025634765625,812.7106323242188,792.967041015625,797.3992919921875
940,797.8021850585938,817.5457763671875,795.3846435546875,798.6080322265625
941,797.3992919921875,812.7106323242188,789.7435913085938,795.7875366210938
942,800.2197875976562,805.4578857421875,781.6849975585938,794.1758422851562
943,800.6226806640625,803.4432373046875,781.6849975585938,792.1611938476562
944,800.2197875976562,802.2344360351562,784.1025390625,791.7582397460938
945,803.040283203125,805.054931640625,787.3259887695312,795.3846435546875
946,809.084228515625,810.6959838867188,790.1465454101562,799.4139404296875
947,812.3076782226562,812.3076782226562,791.7582397460938,803.040283203125
948,810.2930297851562,810.6959838867188,791.7582397460938,800.6226806640625
949,812.3076782226562,807.069580078125,791.3552856445312,794.981689453125
950,811.90478515625,805.8607788085938,794.981689453125,797.8021850585938
951,808.2783813476562,805.4578857421875,795.3846435546875,798.6080322265625
952,808.2783813476562,805.4578857421875,792.5640869140625,795.7875366210938
953,808.2783813476562,804.2490844726562,786.923095703125,793.3699340820312
954,810.6959838867188,805.8607788085938,789.7435913085938,796.1904907226562
955,806.6666870117188,805.8607788085938,791.3552856445312,799.010986328125
956,798.2051391601562,801.4285888671875,786.923095703125,791.7582397460938
957,803.040283203125,801.4285888671875,787.7289428710938,784.908447265625
958,806.6666870117188,800.2197875976562,787.7289428710938,788.1318969726562
959,799.8168334960938,796.996337890625,786.923095703125,786.1171875
960,794.5787353515625,799.4139404296875,784.5054931640625,780.0732421875
961,800.2197875976562,804.6520385742188,784.908447265625,783.6996459960938
962,800.2197875976562,800.6226806640625,784.5054931640625,792.5640869140625
963,798.2051391601562,795.3846435546875,789.3406372070312,798.6080322265625
964,802.2344360351562,792.5640869140625,794.5787353515625,796.5933837890625
965,801.4285888671875,791.7582397460938,790.1465454101562,788.937744140625
966,797.8021850585938,794.5787353515625,783.6996459960938,792.1611938476562
967,800.6226806640625,796.1904907226562,783.6996459960938,795.7875366210938
968,796.996337890625,796.1904907226562,791.3552856445312,788.937744140625
969,794.5787353515625,792.5640869140625,788.1318969726562,786.923095703125
970,794.1758422851562,793.7728881835938,782.893798828125,794.1758422851562
971,792.5640869140625,800.6226806640625,782.087890625,790.5494384765625
972,792.967041015625,801.025634765625,786.5201416015625,786.1171875
973,796.996337890625,800.6226806640625,787.3259887695312,790.5494384765625
974,799.8168334960938,799.8168334960938,783.6996459960938,792.967041015625
975,796.5933837890625,797.3992919921875,788.1318969726562,792.967041015625
976,797.3992919921875,796.5933837890625,790.5494384765625,794.5787353515625
977,797.8021850585938,795.3846435546875,792.1611938476562,792.967041015625
978,798.6080322265625,798.6080322265625,794.5787353515625,794.1758422851562
979,802.6373901367188,800.2197875976562,793.7728881835938,794.5787353515625
980,801.025634765625,799.010986328125,788.5347900390625,792.5640869140625
981,795.7875366210938,800.6226806640625,788.937744140625,796.1904907226562
982,798.2051391601562,798.6080322265625,792.967041015625,796.1904907226562
983,804.6520385742188,801.4285888671875,794.1758422851562,800.2197875976562
984,809.4871826171875,801.025634765625,794.981689453125,805.054931640625
985,811.90478515625,800.6226806640625,794.981689453125,802.6373901367188
986,806.6666870117188,801.8314819335938,797.8021850585938,804.2490844726562
987,801.4285888671875,803.4432373046875,796.996337890625,805.4578857421875
988,798.6080322265625,806.6666870117188,793.7728881835938,800.2197875976562
989,802.6373901367188,805.8607788085938,789.7435913085938,799.8168334960938
990,807.069580078125,805.054931640625,789.7435913085938,805.054931640625
991,803.4432373046875,805.054931640625,791.7582397460938,798.6080322265625
992,802.6373901367188,803.4432373046875,792.967041015625,794.1758422851562
993,803.4432373046875,799.010986328125,792.5640869140625,805.054931640625
994,802.6373901367188,796.1904907226562,791.3552856445312,805.4578857421875
995,805.4578857421875,800.2197875976562,790.952392578125,799.4139404296875
996,807.4725341796875,803.4432373046875,793.3699340820312,801.4285888671875
997,802.2344360351562,802.6373901367188,794.1758422851562,800.2197875976562
998,801.4285888671875,804.2490844726562,798.2051391601562,802.2344360351562
999,807.4725341796875,803.4432373046875,801.8314819335938,802.2344360351562
1000,805.8607788085938,807.069580078125,797.8021850585938,802.6373901367188
1001,798.6080322265625,805.054931640625,793.7728881835938,803.4432373046875
1002,800.2197875976562,801.4285888671875,796.996337890625,799.8168334960938
1003,800.2197875976562,800.2197875976562,799.4139404296875,799.8168334960938
1004,799.8168334960938,798.2051391601562,794.1758422851562,798.6080322265625
1005,804.2490844726562,797.8021850585938,792.967041015625,794.1758422851562
1006,800.2197875976562,799.010986328125,797.3992919921875,792.967041015625
1007,796.1904907226562,801.4285888671875,799.010986328125,790.1465454101562
1008,795.3846435546875,796.5933837890625,789.7435913085938,783.6996459960938
1009,798.6080322265625,799.010986328125,788.5347900390625,780.4761962890625
1010,800.2197875976562,805.054931640625,791.7582397460938,783.2966918945312
1011,802.2344360351562,802.6373901367188,794.5787353515625,782.4908447265625
1012,808.6813354492188,803.040283203125,795.7875366210938,786.5201416015625
1013,808.2783813476562,802.2344360351562,790.952392578125,795.3846435546875
1014,805.4578857421875,797.3992919921875,792.5640869140625,788.937744140625
1015,809.084228515625,800.2197875976562,794.1758422851562,783.6996459960938
1016,806.6666870117188,799.8168334960938,792.1611938476562,789.7435913085938
1017,796.5933837890625,798.6080322265625,792.5640869140625,789.7435913085938
1018,795.7875366210938,803.8461303710938,798.6080322265625,784.908447265625
1019,798.6080322265625,803.040283203125,799.010986328125,786.1171875
1020,803.040283203125,797.8021850585938,799.4139404296875,794.5787353515625
1021,805.4578857421875,797.8021850585938,798.6080322265625,797.8021850585938
1022,800.6226806640625,797.3992919921875,791.7582397460938,797.3992919921875
1023,799.4139404296875,798.2051391601562,787.3259887695312,799.8168334960938
1024,799.010986328125,798.6080322265625,788.937744140625,797.8021850585938
1025,795.7875366210938,797.8021850585938,792.967041015625,795.7875366210938
1026,793.7728881835938,794.981689453125,791.3552856445312,792.967041015625
1027,793.3699340820312,793.3699340820312,788.937744140625,799.010986328125
1028,794.5787353515625,797.8021850585938,793.7728881835938,805.054931640625
1029,790.1465454101562,797.3992919921875,797.3992919921875,796.1904907226562
1030,793.3699340820312,795.3846435546875,796.1904907226562,795.3846435546875
1031,798.6080322265625,798.2051391601562,794.5787353515625,797.8021850585938
1032,795.3846435546875,797.3992919921875,794.5787353515625,792.967041015625
1033,799.4139404296875,799.010986328125,796.996337890625,793.7728881835938
1034,805.4578857421875,801.4285888671875,797.3992919921875,793.7728881835938
1035,805.054931640625,802.2344360351562,797.3992919921875,795.7875366210938
1036,802.2344360351562,801.8314819335938,795.7875366210938,794.981689453125
1037,797.8021850585938,799.010986328125,792.967041015625,789.7435913085938
1038,794.1758422851562,796.996337890625,790.5494384765625,784.908447265625
1039,792.5640869140625,791.7582397460938,792.5640869140625,790.1465454101562
1040,799.010986328125,790.952392578125,794.1758422851562,800.2197875976562
1041,799.8168334960938,802.6373901367188,795.3846435546875,794.981689453125
1042,787.3259887695312,806.6666870117188,796.1904907226562,779.2673950195312
1043,784.1025390625,802.2344360351562,794.5787353515625,778.4615478515625
1044,790.1465454101562,802.6373901367188,792.1611938476562,790.952392578125
1045,791.3552856445312,805.054931640625,795.3846435546875,794.1758422851562
1046,792.1611938476562,803.040283203125,799.4139404296875,792.1611938476562
1047,790.1465454101562,799.8168334960938,797.8021850585938,790.5494384765625
1048,788.5347900390625,797.8021850585938,796.996337890625,788.5347900390625
1049,794.981689453125,795.3846435546875,794.1758422851562,788.5347900390625
1050,796.996337890625,792.967041015625,792.1611938476562,787.3259887695312
1051,803.040283203125,799.8168334960938,796.5933837890625,799.4139404296875
1052,801.8314819335938,807.87548828125,796.996337890625,799.4139404296875
1053,793.7728881835938,801.4285888671875,795.3846435546875,786.5201416015625
1054,795.3846435546875,795.7875366210938,794.5787353515625,786.923095703125
1055,798.6080322265625,795.7875366210938,792.1611938476562,792.967041015625
1056,802.6373901367188,797.3992919921875,789.7435913085938,797.3992919921875
1057,803.8461303710938,803.8461303710938,790.1465454101562,799.010986328125
1058,803.4432373046875,805.8607788085938,782.893798828125,795.7875366210938
1059,802.2344360351562,805.4578857421875,782.087890625,794.1758422851562
1060,802.6373901367188,803.4432373046875,786.1171875,792.967041015625
1061,799.8168334960938,802.6373901367188,783.6996459960938,789.3406372070312
1062,799.4139404296875,801.025634765625,785.7142944335938,789.3406372070312
1063,800.2197875976562,801.025634765625,790.5494384765625,786.5201416015625
1064,801.8314819335938,809.084228515625,795.3846435546875,787.7289428710938
1065,805.4578857421875,814.3223266601562,793.7728881835938,794.981689453125
1066,806.6666870117188,817.5457763671875,800.6226806640625,799.010986328125
1067,796.1904907226562,809.4871826171875,808.2783813476562,788.1318969726562
1068,792.967041015625,801.4285888671875,794.5787353515625,778.05859375
1069,783.6996459960938,792.1611938476562,795.7875366210938,771.2088012695312
1070,776.4468994140625,798.6080322265625,805.4578857421875,773.6264038085938
1071,790.1465454101562,817.5457763671875,819.1575317382812,788.937744140625
1072,769.5970458984375,802.6373901367188,806.2637329101562,772.8204956054688
1073,745.018310546875,785.3113403320312,798.2051391601562,757.106201171875
1074,751.062255859375,801.8314819335938,819.1575317382812,759.5238037109375
1075,741.7948608398438,813.5164794921875,826.4102783203125,749.4505615234375
1076,698.6813354492188,810.2930297851562,821.5750732421875,711.5750732421875
1077,676.923095703125,814.7252807617188,823.1868286132812,689.8168334960938
1078,680.952392578125,818.7545776367188,836.08056640625,696.6666870117188
1079,656.3735961914062,809.89013671875,841.3186645507812,675.3113403320312
1080,643.076904296875,808.6813354492188,843.7362670898438,662.8204956054688
1081,653.1502075195312,813.113525390625,851.7948608398438,665.6410522460938
1082,647.912109375,814.7252807617188,852.1978149414062,654.7619018554688
1083,639.8534545898438,811.90478515625,854.2124633789062,648.7179565429688
1084,635.8241577148438,811.098876953125,852.6007080078125,641.062255859375
1085,637.8388061523438,817.94873046875,849.3773193359375,637.032958984375
1086,652.7472534179688,820.3662719726562,850.989013671875,649.5238037109375
1087,659.5970458984375,816.3369750976562,848.974365234375,653.5531005859375
1088,658.3883056640625,815.5311279296875,845.7509155273438,655.970703125
1089,662.8204956054688,817.94873046875,842.930419921875,662.4176025390625
1090,670.879150390625,819.96337890625,840.10986328125,670.879150390625
1091,678.1318969726562,819.1575317382812,838.4981689453125,674.5054931640625
1092,685.3846435546875,817.1428833007812,836.4835205078125,682.967041015625
1093,686.1904907226562,813.113525390625,832.05126953125,689.8168334960938
1094,682.1611938476562,809.89013671875,830.8424682617188,687.8021850585938
1095,690.6226806640625,812.7106323242188,831.6483764648438,695.054931640625
1096,704.7252807617188,814.3223266601562,828.8278198242188,707.5457763671875
1097,709.96337890625,815.93408203125,830.8424682617188,712.7838745117188
1098,715.2014770507812,815.93408203125,834.4688720703125,722.05126953125
1099,724.06591796875,811.098876953125,828.8278198242188,737.3626098632812
1100,724.8717651367188,807.069580078125,827.2161254882812,738.974365234375
1101,727.2893676757812,806.6666870117188,827.6190185546875,740.989013671875
1102,740.1831665039062,803.040283203125,826.4102783203125,746.2271118164062
1103,748.6447143554688,800.2197875976562,822.7838745117188,751.4652099609375
1104,752.2710571289062,802.6373901367188,812.3076782226562,761.94140625
1105,763.1502075195312,797.3992919921875,811.098876953125,776.4468994140625
1106,775.6410522460938,791.3552856445312,813.91943359375,782.087890625
1107,779.6703491210938,794.981689453125,806.2637329101562,777.2527465820312
1108,782.087890625,792.5640869140625,800.6226806640625,777.2527465820312
1109,796.996337890625,789.3406372070312,802.2344360351562,787.3259887695312
1110,808.6813354492188,790.5494384765625,804.6520385742188,800.6226806640625
1111,809.4871826171875,789.7435913085938,797.3992919921875,803.040283203125
1112,818.7545776367188,790.952392578125,794.1758422851562,811.90478515625
1113,820.7692260742188,786.923095703125,785.7142944335938,817.94873046875
1114,833.2600708007812,784.5054931640625,777.6557006835938,821.1721801757812
1115,839.3040161132812,784.1025390625,778.8644409179688,821.1721801757812
1116,842.930419921875,782.087890625,773.6264038085938,820.3662719726562
1117,850.1831665039062,786.5201416015625,772.8204956054688,824.3956298828125
1118,846.1538696289062,791.3552856445312,769.1941528320312,824.7985229492188
1119,851.3919677734375,792.967041015625,765.5677490234375,832.05126953125
1120,853.4066162109375,793.7728881835938,768.7911987304688,840.10986328125
1121,856.2271118164062,797.3992919921875,772.0146484375,848.1685180664062
1122,863.076904296875,799.010986328125,770.0,844.945068359375
1123,864.6886596679688,797.3992919921875,767.1795043945312,846.1538696289062
1124,863.8828125,796.1904907226562,768.3883056640625,864.6886596679688
1125,863.8828125,799.8168334960938,769.1941528320312,864.2857055664062
1126,865.8974609375,802.2344360351562,768.7911987304688,854.6153564453125
1127,867.912109375,800.6226806640625,767.5823974609375,853.8095092773438
1128,864.2857055664062,799.8168334960938,771.2088012695312,849.7802124023438
1129,858.6447143554688,796.5933837890625,771.6116943359375,848.1685180664062
1130,854.6153564453125,794.1758422851562,774.8351440429688,844.945068359375
1131,853.4066162109375,792.5640869140625,777.2527465820312,846.959716796875
1132,853.003662109375,791.7582397460938,778.4615478515625,846.5567626953125
1133,851.7948608398438,794.981689453125,778.4615478515625,846.5567626953125
1134,849.7802124023438,792.1611938476562,778.4615478515625,844.1392211914062
1135,847.7655639648438,787.3259887695312,781.6849975585938,841.7216186523438
1136,847.3626098632812,794.1758422851562,783.6996459960938,842.930419921875
1137,847.3626098632812,794.5787353515625,783.6996459960938,840.10986328125
1138,845.3479614257812,792.1611938476562,780.0732421875,837.6923217773438
1139,844.1392211914062,795.7875366210938,779.6703491210938,838.09521484375
1140,842.12451171875,795.3846435546875,777.2527465820312,834.06591796875
1141,841.3186645507812,792.967041015625,775.2380981445312,823.99267578125
1142,846.5567626953125,794.981689453125,779.2673950195312,826.00732421875
1143,853.8095092773438,801.025634765625,783.2966918945312,833.2600708007812
1144,849.3773193359375,799.8168334960938,780.0732421875,827.2161254882812
1145,845.3479614257812,797.8021850585938,775.6410522460938,823.99267578125
1146,851.7948608398438,800.6226806640625,776.8497924804688,831.2454223632812
1147,851.7948608398438,801.025634765625,777.6557006835938,836.08056640625
1148,848.1685180664062,798.6080322265625,776.4468994140625,834.4688720703125
1149,842.5274658203125,796.5933837890625,777.6557006835938,830.4395751953125
1150,840.5128173828125,802.2344360351562,778.05859375,829.6337280273438
1151,840.5128173828125,807.069580078125,780.879150390625,836.08056640625
1152,835.6776733398438,802.2344360351562,785.7142944335938,833.2600708007812
1153,834.06591796875,799.4139404296875,783.2966918945312,830.8424682617188
1154,830.8424682617188,797.8021850585938,785.3113403320312,834.4688720703125
1155,829.2307739257812,799.010986328125,789.7435913085938,832.4542236328125
1156,827.6190185546875,799.010986328125,790.5494384765625,827.2161254882812
1157,819.5604248046875,793.7728881835938,792.5640869140625,825.2014770507812
1158,823.1868286132812,793.3699340820312,795.3846435546875,827.2161254882812
1159,826.00732421875,796.996337890625,794.981689453125,829.2307739257812
1160,818.3516235351562,797.8021850585938,790.1465454101562,823.5897216796875
1161,813.91943359375,796.5933837890625,790.5494384765625,813.91943359375
1162,819.5604248046875,799.010986328125,792.5640869140625,816.7399291992188
1163,827.2161254882812,804.2490844726562,791.7582397460938,813.91943359375
1164,827.6190185546875,803.040283203125,783.6996459960938,807.4725341796875
1165,826.00732421875,799.8168334960938,780.0732421875,801.025634765625
1166,821.1721801757812,799.4139404296875,784.908447265625,799.8168334960938
1167,820.7692260742188,799.4139404296875,785.7142944335938,802.6373901367188
1168,824.7985229492188,800.2197875976562,790.952392578125,803.040283203125
1169,824.7985229492188,800.2197875976562,794.5787353515625,802.2344360351562
1170,819.96337890625,797.3992919921875,790.1465454101562,796.996337890625
1171,809.084228515625,793.7728881835938,786.1171875,791.7582397460938
1172,803.8461303710938,794.5787353515625,785.7142944335938,790.1465454101562
1173,804.6520385742188,795.7875366210938,781.2820434570312,791.3552856445312
1174,807.87548828125,796.996337890625,780.0732421875,791.3552856445312
1175,807.87548828125,799.4139404296875,782.087890625,792.967041015625
1176,807.87548828125,799.010986328125,781.2820434570312,793.3699340820312
1177,812.7106323242188,799.4139404296875,786.1171875,799.4139404296875
1178,818.3516235351562,807.87548828125,792.5640869140625,804.2490844726562
1179,813.91943359375,807.4725341796875,789.7435913085938,801.8314819335938
1180,805.8607788085938,802.2344360351562,787.3259887695312,798.6080322265625
1181,805.4578857421875,801.4285888671875,789.3406372070312,802.6373901367188
1182,805.4578857421875,798.2051391601562,788.1318969726562,802.6373901367188
1183,801.025634765625,796.1904907226562,785.7142944335938,791.3552856445312
1184,803.4432373046875,794.1758422851562,787.7289428710938,789.7435913085938
1185,803.4432373046875,792.5640869140625,790.1465454101562,792.967041015625
1186,790.952392578125,794.1758422851562,792.967041015625,785.3113403320312
1187,787.7289428710938,794.1758422851562,796.1904907226562,787.3259887695312
1188,791.7582397460938,793.7728881835938,793.7728881835938,797.3992919921875
1189,793.7728881835938,792.967041015625,791.7582397460938,795.7875366210938
1190,799.4139404296875,792.967041015625,790.952392578125,790.5494384765625
1191,804.2490844726562,795.7875366210938,788.937744140625,788.1318969726562
1192,801.4285888671875,797.3992919921875,786.923095703125,786.1171875
1193,802.2344360351562,796.996337890625,786.5201416015625,784.1025390625
1194,804.2490844726562,795.3846435546875,783.6996459960938,780.0732421875
1195,806.6666870117188,790.952392578125,783.2966918945312,780.4761962890625
1196,804.2490844726562,792.1611938476562,786.5201416015625,780.879150390625
1197,794.981689453125,795.7875366210938,788.5347900390625,785.7142944335938
1198,794.5787353515625,794.1758422851562,786.923095703125,781.6849975585938
1199,799.010986328125,793.3699340820312,785.3113403320312,780.4761962890625
1200,795.3846435546875,792.5640869140625,788.937744140625,783.6996459960938
1201,792.1611938476562,789.7435913085938,791.7582397460938,783.2966918945312
1202,793.3699340820312,788.937744140625,789.7435913085938,784.1025390625
1203,788.937744140625,786.5201416015625,791.3552856445312,784.1025390625
1204,786.5201416015625,790.5494384765625,791.7582397460938,785.3113403320312
1205,786.1171875,790.5494384765625,793.3699340820312,786.1171875
1206,782.893798828125,788.937744140625,797.3992919921875,786.5201416015625
1207,778.8644409179688,790.952392578125,798.2051391601562,786.5201416015625
1208,783.2966918945312,791.7582397460938,799.4139404296875,793.7728881835938
1209,786.923095703125,790.952392578125,801.4285888671875,794.981689453125
1210,789.3406372070312,790.5494384765625,800.6226806640625,786.5201416015625
1211,789.7435913085938,794.1758422851562,801.025634765625,787.7289428710938
1212,789.7435913085938,792.967041015625,802.6373901367188,790.1465454101562
1213,791.7582397460938,790.952392578125,801.4285888671875,788.5347900390625
1214,795.3846435546875,792.967041015625,802.2344360351562,789.7435913085938
1215,799.010986328125,794.1758422851562,797.8021850585938,788.1318969726562
1216,796.996337890625,792.1611938476562,793.3699340820312,781.2820434570312
1217,798.2051391601562,792.967041015625,799.8168334960938,783.2966918945312
1218,799.4139404296875,797.3992919921875,801.4285888671875,790.1465454101562
1219,797.3992919921875,797.3992919921875,800.6226806640625,792.967041015625
1220,801.4285888671875,799.4139404296875,800.6226806640625,800.2197875976562
1221,804.6520385742188,804.2490844726562,799.4139404296875,797.8021850585938
1222,797.8021850585938,803.4432373046875,798.2051391601562,788.937744140625
1223,791.7582397460938,801.4285888671875,799.010986328125,784.908447265625
1224,797.3992919921875,800.6226806640625,799.010986328125,787.7289428710938
1225,802.6373901367188,799.4139404296875,798.6080322265625,791.3552856445312
1226,804.6520385742188,797.8021850585938,801.025634765625,792.967041015625
1227,805.4578857421875,796.996337890625,802.2344360351562,796.996337890625
1228,793.7728881835938,795.7875366210938,801.4285888671875,792.967041015625
1229,791.3552856445312,794.1758422851562,799.8168334960938,794.5787353515625
1230,800.6226806640625,793.7728881835938,799.8168334960938,791.3552856445312
1231,797.8021850585938,792.967041015625,794.5787353515625,783.2966918945312
1232,788.937744140625,792.1611938476562,796.5933837890625,786.1171875
1233,792.1611938476562,793.3699340820312,799.010986328125,785.7142944335938
1234,794.981689453125,792.1611938476562,791.7582397460938,781.2820434570312
1235,793.3699340820312,792.5640869140625,794.1758422851562,777.2527465820312
1236,794.1758422851562,792.1611938476562,793.7728881835938,778.05859375
1237,788.937744140625,784.908447265625,788.5347900390625,779.6703491210938
1238,790.1465454101562,786.923095703125,790.952392578125,779.2673950195312
1239,797.3992919921875,794.5787353515625,796.5933837890625,786.923095703125
1240,800.2197875976562,802.2344360351562,795.3846435546875,790.5494384765625
1241,801.4285888671875,798.6080322265625,792.5640869140625,788.937744140625
1242,799.010986328125,792.1611938476562,793.7728881835938,790.952392578125
1243,798.6080322265625,799.4139404296875,794.5787353515625,796.1904907226562
1244,802.2344360351562,802.2344360351562,796.996337890625,795.3846435546875
1245,804.6520385742188,798.6080322265625,793.3699340820312,793.3699340820312
1246,805.4578857421875,798.2051391601562,794.981689453125,795.3846435546875
1247,799.4139404296875,799.8168334960938,794.981689453125,793.7728881835938
1248,797.3992919921875,801.4285888671875,789.3406372070312,789.7435913085938
1249,796.996337890625,798.6080322265625,790.952392578125,785.3113403320312
1250,796.996337890625,800.2197875976562,790.952392578125,789.3406372070312
1251,801.8314819335938,803.8461303710938,792.1611938476562,792.5640869140625
1252,802.2344360351562,802.2344360351562,799.010986328125,792.1611938476562
1253,799.4139404296875,804.2490844726562,799.010986328125,794.1758422851562
1254,798.6080322265625,802.6373901367188,792.5640869140625,796.1904907226562
1255,797.3992919921875,797.3992919921875,792.1611938476562,796.5933837890625
1256,797.8021850585938,801.025634765625,796.996337890625,795.3846435546875
1257,799.010986328125,804.2490844726562,799.4139404296875,794.5787353515625
1258,795.7875366210938,801.8314819335938,797.3992919921875,802.6373901367188
1259,790.952392578125,796.996337890625,796.1904907226562,806.2637329101562
1260,786.5201416015625,792.5640869140625,800.2197875976562,798.2051391601562
1261,792.967041015625,795.7875366210938,799.8168334960938,796.1904907226562
1262,789.7435913085938,795.3846435546875,799.8168334960938,796.5933837890625
1263,782.893798828125,789.3406372070312,798.6080322265625,793.3699340820312
1264,786.923095703125,786.923095703125,797.3992919921875,792.5640869140625
1265,788.5347900390625,786.5201416015625,798.6080322265625,790.952392578125
1266,789.7435913085938,789.7435913085938,796.996337890625,790.952392578125
1267,794.1758422851562,791.7582397460938,797.3992919921875,793.7728881835938
1268,793.3699340820312,794.1758422851562,797.8021850585938,792.5640869140625
1269,792.967041015625,794.5787353515625,793.7728881835938,793.7728881835938
1270,796.1904907226562,794.981689453125,795.3846435546875,807.069580078125
1271,796.5933837890625,790.5494384765625,795.7875366210938,801.025634765625
1272,795.3846435546875,786.1171875,794.1758422851562,793.7728881835938
1273,793.7728881835938,789.7435913085938,797.3992919921875,792.5640869140625
1274,792.5640869140625,790.5494384765625,795.7875366210938,788.1318969726562
1275,792.5640869140625,788.937744140625,792.5640869140625,788.5347900390625
1276,798.2051391601562,792.5640869140625,794.5787353515625,791.3552856445312
1277,801.8314819335938,792.967041015625,797.8021850585938,802.2344360351562
1278,801.025634765625,794.981689453125,797.8021850585938,805.054931640625
1279,799.4139404296875,799.4139404296875,794.981689453125,792.967041015625
1280,806.6666870117188,798.2051391601562,795.7875366210938,785.3113403320312
1281,808.6813354492188,798.2051391601562,793.7728881835938,789.3406372070312
1282,796.5933837890625,795.7875366210938,792.967041015625,784.5054931640625
1283,793.7728881835938,792.5640869140625,790.1465454101562,780.0732421875
1284,800.2197875976562,793.3699340820312,787.3259887695312,788.1318969726562
1285,804.6520385742188,797.8021850585938,789.7435913085938,795.7875366210938
1286,795.3846435546875,792.967041015625,790.1465454101562,782.4908447265625
1287,787.7289428710938,786.1171875,789.7435913085938,771.2088012695312
1288,795.3846435546875,788.5347900390625,792.1611938476562,784.908447265625
1289,794.5787353515625,792.5640869140625,792.967041015625,796.1904907226562
1290,794.5787353515625,794.1758422851562,793.3699340820312,794.1758422851562
1291,799.010986328125,795.3846435546875,791.3552856445312,787.7289428710938
1292,797.3992919921875,796.1904907226562,789.3406372070312,783.2966918945312
1293,793.3699340820312,794.5787353515625,790.952392578125,778.05859375
1294,788.5347900390625,791.7582397460938,788.5347900390625,774.4322509765625
1295,790.1465454101562,799.010986328125,790.952392578125,778.8644409179688
1296,794.5787353515625,800.6226806640625,794.981689453125,788.937744140625
1297,793.3699340820312,792.1611938476562,793.7728881835938,796.5933837890625
1298,785.3113403320312,792.967041015625,788.5347900390625,784.5054931640625
1299,787.3259887695312,797.8021850585938,787.7289428710938,783.2966918945312
1300,789.3406372070312,792.967041015625,788.5347900390625,785.3113403320312
1301,792.1611938476562,790.5494384765625,793.3699340820312,783.6996459960938
1302,799.010986328125,797.3992919921875,795.7875366210938,788.1318969726562
1303,796.996337890625,799.010986328125,796.996337890625,784.5054931640625
1304,792.5640869140625,799.010986328125,796.1904907226562,788.1318969726562
1305,792.1611938476562,799.8168334960938,796.1904907226562,792.5640869140625
1306,796.1904907226562,803.4432373046875,797.3992919921875,786.1171875
1307,801.8314819335938,802.2344360351562,796.996337890625,790.5494384765625
1308,799.4139404296875,795.7875366210938,794.1758422851562,794.5787353515625
1309,793.7728881835938,797.8021850585938,795.7875366210938,791.7582397460938
1310,794.1758422851562,799.010986328125,799.010986328125,794.981689453125
1311,797.3992919921875,798.6080322265625,796.5933837890625,792.967041015625
1312,800.2197875976562,798.2051391601562,798.6080322265625,789.3406372070312
1313,801.4285888671875,799.010986328125,805.4578857421875,796.5933837890625
1314,799.010986328125,802.6373901367188,808.6813354492188,797.3992919921875
1315,794.981689453125,800.6226806640625,807.069580078125,795.7875366210938
1316,795.7875366210938,797.3992919921875,803.4432373046875,803.8461303710938
1317,794.5787353515625,796.5933837890625,801.8314819335938,798.2051391601562
1318,798.6080322265625,799.4139404296875,804.6520385742188,796.5933837890625
1319,797.8021850585938,797.8021850585938,804.6520385742188,800.6226806640625
1320,789.3406372070312,800.6226806640625,801.8314819335938,796.1904907226562
1321,790.5494384765625,802.6373901367188,800.2197875976562,790.5494384765625
1322,790.1465454101562,792.967041015625,794.5787353515625,784.908447265625
1323,790.5494384765625,791.3552856445312,794.1758422851562,786.923095703125
1324,792.1611938476562,796.5933837890625,793.7728881835938,788.5347900390625
1325,792.5640869140625,796.1904907226562,791.7582397460938,786.1171875
1326,796.5933837890625,797.8021850585938,792.5640869140625,792.5640869140625
1327,807.4725341796875,801.025634765625,796.1904907226562,808.6813354492188
1328,807.4725341796875,800.2197875976562,799.8168334960938,807.87548828125
1329,796.1904907226562,803.040283203125,797.3992919921875,790.5494384765625
1330,788.937744140625,797.8021850585938,797.8021850585938,786.5201416015625
1331,788.1318969726562,796.1904907226562,802.6373901367188,786.1171875
1332,793.7728881835938,801.4285888671875,805.8607788085938,792.967041015625
1333,791.7582397460938,795.7875366210938,802.6373901367188,793.7728881835938
1334,792.1611938476562,795.7875366210938,803.040283203125,790.952392578125
1335,793.3699340820312,803.040283203125,802.2344360351562,794.981689453125
1336,791.3552856445312,800.2197875976562,797.8021850585938,793.7728881835938
1337,790.5494384765625,795.7875366210938,799.4139404296875,791.7582397460938
1338,792.1611938476562,796.5933837890625,803.8461303710938,796.5933837890625
1339,790.1465454101562,797.8021850585938,799.4139404296875,799.8168334960938
1340,792.967041015625,798.2051391601562,796.5933837890625,794.1758422851562
1341,787.3259887695312,796.1904907226562,797.8021850585938,788.5347900390625
1342,782.4908447265625,793.3699340820312,795.3846435546875,784.1025390625
1343,786.923095703125,792.5640869140625,797.3992919921875,780.879150390625
1344,790.5494384765625,794.1758422851562,798.6080322265625,780.0732421875
1345,788.5347900390625,795.3846435546875,796.5933837890625,778.8644409179688
1346,784.1025390625,795.7875366210938,796.5933837890625,783.6996459960938
1347,794.1758422851562,798.2051391601562,800.2197875976562,790.1465454101562
1348,796.1904907226562,796.5933837890625,801.025634765625,792.5640869140625
1349,787.3259887695312,791.7582397460938,796.5933837890625,790.5494384765625
1350,786.5201416015625,789.3406372070312,792.967041015625,785.3113403320312
1351,787.7289428710938,785.3113403320312,795.7875366210938,786.5201416015625
1352,786.923095703125,786.923095703125,794.5787353515625,788.5347900390625
1353,791.3552856445312,792.967041015625,794.5787353515625,788.937744140625
1354,794.1758422851562,789.7435913085938,796.5933837890625,791.7582397460938
1355,794.5787353515625,791.3552856445312,792.967041015625,784.5054931640625
1356,789.7435913085938,788.937744140625,794.5787353515625,780.0732421875
1357,788.5347900390625,788.937744140625,795.7875366210938,786.5201416015625
1358,794.981689453125,791.3552856445312,796.1904907226562,789.7435913085938
1359,793.7728881835938,790.952392578125,797.3992919921875,794.981689453125
1360,789.7435913085938,790.5494384765625,796.996337890625,794.5787353515625
1361,789.7435913085938,792.967041015625,800.2197875976562,793.7728881835938
1362,788.5347900390625,794.1758422851562,799.4139404296875,796.996337890625
1363,791.3552856445312,794.981689453125,796.1904907226562,791.3552856445312
1364,795.3846435546875,797.3992919921875,795.3846435546875,782.893798828125
1365,790.5494384765625,796.996337890625,794.1758422851562,782.4908447265625
1366,786.923095703125,792.5640869140625,790.1465454101562,788.937744140625
1367,785.7142944335938,792.967041015625,789.3406372070312,786.1171875
1368,796.996337890625,801.025634765625,794.5787353515625,789.7435913085938
1369,804.6520385742188,805.4578857421875,797.8021850585938,797.3992919921875
1370,798.6080322265625,799.010986328125,799.4139404296875,794.981689453125
1371,799.010986328125,792.5640869140625,797.3992919921875,787.7289428710938
1372,799.8168334960938,792.967041015625,796.1904907226562,784.1025390625
1373,793.7728881835938,793.3699340820312,796.5933837890625,785.7142944335938
1374,795.7875366210938,794.1758422851562,797.8021850585938,786.923095703125
1375,800.6226806640625,794.981689453125,796.1904907226562,782.087890625
1376,788.5347900390625,795.3846435546875,793.7728881835938,775.6410522460938
1377,785.3113403320312,795.3846435546875,796.1904907226562,778.8644409179688
1378,792.1611938476562,795.7875366210938,796.5933837890625,789.7435913085938
1379,793.7728881835938,796.5933837890625,794.5787353515625,796.996337890625
1380,790.952392578125,795.3846435546875,794.1758422851562,792.1611938476562
1381,784.5054931640625,798.6080322265625,797.3992919921875,784.5054931640625
1382,783.6996459960938,796.5933837890625,797.3992919921875,782.4908447265625
1383,787.3259887695312,795.3846435546875,792.967041015625,780.4761962890625
1384,790.5494384765625,795.7875366210938,795.7875366210938,781.2820434570312
1385,791.7582397460938,792.967041015625,798.2051391601562,791.7582397460938
1386,790.5494384765625,797.8021850585938,794.5787353515625,792.967041015625
1387,790.952392578125,797.3992919921875,795.3846435546875,786.5201416015625
1388,796.5933837890625,792.967041015625,796.996337890625,789.3406372070312
1389,799.8168334960938,792.967041015625,799.8168334960938,796.996337890625
1390,796.5933837890625,792.5640869140625,801.025634765625,788.5347900390625
1391,792.967041015625,797.3992919921875,796.996337890625,778.4615478515625
1392,794.1758422851562,799.010986328125,797.8021850585938,786.1171875
1393,789.3406372070312,801.025634765625,796.996337890625,786.923095703125
1394,786.1171875,803.8461303710938,792.1611938476562,784.1025390625
1395,790.1465454101562,803.8461303710938,791.3552856445312,786.5201416015625
1396,786.5201416015625,797.3992919921875,789.7435913085938,780.0732421875
1397,787.7289428710938,790.1465454101562,793.7728881835938,780.879150390625
1398,799.010986328125,791.3552856445312,799.8168334960938,784.5054931640625
1399,797.8021850585938,793.3699340820312,796.1904907226562,782.4908447265625
1400,790.952392578125,792.967041015625,793.3699340820312,786.5201416015625
1401,791.7582397460938,792.1611938476562,793.3699340820312,784.908447265625
1402,791.7582397460938,790.5494384765625,795.7875366210938,778.8644409179688
1403,789.3406372070312,788.937744140625,798.6080322265625,780.4761962890625
1404,787.7289428710938,785.3113403320312,795.7875366210938,782.087890625
1405,789.7435913085938,789.7435913085938,794.981689453125,778.8644409179688
1406,790.952392578125,794.1758422851562,796.5933837890625,777.6557006835938
1407,785.7142944335938,792.1611938476562,792.1611938476562,781.2820434570312
1408,780.879150390625,789.3406372070312,790.952392578125,780.0732421875
1409,792.5640869140625,789.7435913085938,790.1465454101562,783.6996459960938
1410,796.996337890625,793.7728881835938,792.1611938476562,788.937744140625
1411,792.967041015625,789.3406372070312,794.981689453125,791.3552856445312
1412,792.967041015625,787.7289428710938,792.5640869140625,794.981689453125
1413,791.3552856445312,792.1611938476562,792.967041015625,789.7435913085938
1414,797.8021850585938,790.952392578125,798.2051391601562,794.1758422851562
1415,796.1904907226562,792.967041015625,799.8168334960938,792.5640869140625
1416,790.1465454101562,796.1904907226562,797.3992919921875,785.3113403320312
1417,789.7435913085938,792.5640869140625,795.7875366210938,781.2820434570312
1418,788.1318969726562,790.5494384765625,792.967041015625,779.2673950195312
1419,790.1465454101562,792.1611938476562,791.7582397460938,786.923095703125
1420,796.996337890625,792.967041015625,794.981689453125,793.7728881835938
1421,794.1758422851562,791.7582397460938,797.8021850585938,794.1758422851562
1422,786.5201416015625,789.7435913085938,794.981689453125,789.3406372070312
1423,787.3259887695312,786.923095703125,792.5640869140625,790.952392578125
1424,794.981689453125,786.923095703125,794.981689453125,789.7435913085938
1425,803.4432373046875,794.1758422851562,797.3992919921875,780.879150390625
1426,805.8607788085938,801.8314819335938,795.3846435546875,782.4908447265625
1427,799.8168334960938,799.8168334960938,795.7875366210938,784.5054931640625
1428,796.1904907226562,795.3846435546875,797.8021850585938,784.908447265625
1429,797.3992919921875,793.7728881835938,798.6080322265625,783.2966918945312
1430,798.2051391601562,792.1611938476562,796.996337890625,780.4761962890625
1431,793.3699340820312,790.1465454101562,796.5933837890625,781.6849975585938
1432,786.923095703125,787.7289428710938,793.7728881835938,776.4468994140625
1433,788.5347900390625,788.937744140625,790.952392578125,776.8497924804688
1434,788.5347900390625,791.7582397460938,790.5494384765625,779.6703491210938
1435,784.5054931640625,790.1465454101562,786.5201416015625,782.087890625
1436,781.2820434570312,788.1318969726562,788.937744140625,776.4468994140625
1437,779.2673950195312,787.3259887695312,794.1758422851562,771.6116943359375
1438,779.6703491210938,789.3406372070312,794.1758422851562,775.2380981445312
1439,780.879150390625,788.937744140625,795.3846435546875,776.8497924804688
1440,786.923095703125,787.3259887695312,792.1611938476562,777.2527465820312
1441,788.1318969726562,788.1318969726562,790.952392578125,774.4322509765625
1442,788.937744140625,790.5494384765625,797.3992919921875,778.4615478515625
1443,787.7289428710938,789.7435913085938,797.8021850585938,782.4908447265625
1444,786.5201416015625,794.5787353515625,794.981689453125,782.893798828125
1445,788.937744140625,793.7728881835938,792.967041015625,780.0732421875
1446,791.3552856445312,789.7435913085938,792.967041015625,781.6849975585938
1447,791.3552856445312,790.5494384765625,798.6080322265625,784.1025390625
1448,781.6849975585938,792.1611938476562,796.996337890625,778.8644409179688
1449,776.4468994140625,789.3406372070312,794.5787353515625,776.0439453125
1450,781.6849975585938,782.087890625,798.6080322265625,785.7142944335938
1451,787.3259887695312,785.3113403320312,799.010986328125,790.5494384765625
1452,794.981689453125,790.5494384765625,794.5787353515625,785.7142944335938
1453,794.981689453125,790.1465454101562,796.5933837890625,787.7289428710938
1454,790.1465454101562,793.3699340820312,801.8314819335938,794.5787353515625
1455,789.3406372070312,791.3552856445312,796.996337890625,795.3846435546875
1456,790.1465454101562,788.5347900390625,793.7728881835938,795.7875366210938
1457,784.908447265625,788.5347900390625,796.5933837890625,790.952392578125
1458,784.908447265625,790.952392578125,796.5933837890625,787.7289428710938
1459,788.1318969726562,789.3406372070312,796.996337890625,789.3406372070312
1460,791.3552856445312,788.5347900390625,796.996337890625,787.7289428710938
1461,796.1904907226562,792.5640869140625,799.010986328125,784.5054931640625
1462,790.5494384765625,794.981689453125,798.2051391601562,789.3406372070312
1463,788.937744140625,795.7875366210938,797.3992919921875,791.7582397460938
1464,787.3259887695312,794.1758422851562,796.5933837890625,784.1025390625
1465,789.7435913085938,796.1904907226562,794.981689453125,783.6996459960938
1466,793.7728881835938,795.7875366210938,792.967041015625,784.908447265625
1467,792.967041015625,790.1465454101562,794.5787353515625,780.0732421875
1468,790.952392578125,792.1611938476562,796.996337890625,778.4615478515625
1469,792.5640869140625,794.5787353515625,801.025634765625,785.7142944335938
1470,790.952392578125,791.7582397460938,801.025634765625,791.7582397460938
1471,788.5347900390625,789.7435913085938,799.8168334960938,787.3259887695312
1472,794.1758422851562,789.3406372070312,798.6080322265625,784.5054931640625
1473,792.1611938476562,784.1025390625,796.5933837890625,784.908447265625
1474,790.1465454101562,785.3113403320312,798.2051391601562,780.879150390625
1475,798.2051391601562,792.1611938476562,798.6080322265625,786.5201416015625
1476,801.4285888671875,794.1758422851562,796.996337890625,790.952392578125
1477,803.8461303710938,796.996337890625,793.3699340820312,789.3406372070312
1478,805.8607788085938,800.2197875976562,792.5640869140625,790.1465454101562
1479,800.6226806640625,799.010986328125,792.1611938476562,788.5347900390625
1480,798.2051391601562,796.1904907226562,789.3406372070312,790.1465454101562
1481,807.069580078125,796.1904907226562,789.7435913085938,792.5640869140625
1482,811.90478515625,798.2051391601562,791.3552856445312,795.7875366210938
1483,805.4578857421875,795.7875366210938,793.7728881835938,795.3846435546875
1484,799.010986328125,794.981689453125,793.3699340820312,790.1465454101562
1485,802.2344360351562,793.7728881835938,791.3552856445312,796.996337890625
1486,810.6959838867188,798.2051391601562,794.1758422851562,797.8021850585938
1487,808.6813354492188,798.6080322265625,793.3699340820312,787.3259887695312
1488,801.025634765625,794.1758422851562,794.5787353515625,782.4908447265625
1489,803.4432373046875,795.7875366210938,797.8021850585938,786.923095703125
1490,799.8168334960938,790.952392578125,798.2051391601562,791.3552856445312
1491,792.967041015625,787.3259887695312,796.996337890625,792.1611938476562
1492,794.1758422851562,792.5640869140625,795.7875366210938,792.967041015625
1493,794.5787353515625,793.3699340820312,796.5933837890625,791.3552856445312
1494,796.5933837890625,792.5640869140625,796.1904907226562,795.3846435546875
1495,799.4139404296875,790.5494384765625,797.3992919921875,793.7728881835938
1496,796.1904907226562,789.7435913085938,800.6226806640625,793.7728881835938
1497,788.5347900390625,789.3406372070312,802.2344360351562,796.5933837890625
1498,786.923095703125,784.908447265625,798.2051391601562,792.1611938476562
1499,790.5494384765625,788.5347900390625,796.1904907226562,795.3846435546875
1500,792.5640869140625,795.7875366210938,798.2051391601562,795.3846435546875
1501,794.981689453125,793.7728881835938,796.1904907226562,790.5494384765625
1502,793.3699340820312,793.7728881835938,793.7728881835938,792.1611938476562
1503,790.952392578125,796.1904907226562,794.981689453125,794.5787353515625
1504,790.5494384765625,796.996337890625,794.5787353515625,789.7435913085938
1505,792.5640869140625,800.6226806640625,791.7582397460938,784.5054931640625
1506,793.7728881835938,803.8461303710938,793.7728881835938,785.7142944335938
1507,802.2344360351562,803.040283203125,793.7728881835938,794.981689453125
1508,807.4725341796875,804.6520385742188,789.7435913085938,801.4285888671875
1509,800.2197875976562,805.054931640625,788.5347900390625,790.5494384765625
1510,797.3992919921875,801.4285888671875,789.7435913085938,783.6996459960938
1511,803.040283203125,798.6080322265625,792.1611938476562,787.7289428710938
1512,808.2783813476562,793.7728881835938,794.5787353515625,792.5640869140625
1513,812.7106323242188,794.5787353515625,794.1758422851562,795.3846435546875
1514,798.6080322265625,797.3992919921875,796.5933837890625,794.5787353515625
1515,792.1611938476562,796.996337890625,801.4285888671875,798.2051391601562
1516,798.6080322265625,798.6080322265625,801.4285888671875,797.8021850585938
1517,802.6373901367188,797.3992919921875,800.6226806640625,803.040283203125
1518,799.010986328125,791.3552856445312,801.025634765625,801.8314819335938
1519,794.5787353515625,790.952392578125,799.8168334960938,801.025634765625
1520,791.7582397460938,787.3259887695312,800.6226806640625,810.6959838867188
1521,783.6996459960938,784.5054931640625,801.4285888671875,806.6666870117188
1522,784.5054931640625,787.3259887695312,802.6373901367188,802.6373901367188
1523,780.0732421875,784.1025390625,804.6520385742188,801.8314819335938
1524,772.0146484375,786.923095703125,799.4139404296875,799.4139404296875
1525,770.0,788.1318969726562,801.8314819335938,797.3992919921875
1526,768.3883056640625,786.923095703125,806.2637329101562,796.996337890625
1527,771.6116943359375,790.5494384765625,803.4432373046875,797.8021850585938
1528,782.4908447265625,792.967041015625,807.4725341796875,804.6520385742188
1529,786.5201416015625,794.1758422851562,806.2637329101562,801.8314819335938
1530,784.1025390625,791.7582397460938,801.4285888671875,797.3992919921875
1531,786.923095703125,790.5494384765625,801.025634765625,795.7875366210938
1532,790.5494384765625,789.3406372070312,802.6373901367188,789.7435913085938
1533,790.952392578125,788.5347900390625,798.6080322265625,786.1171875
1534,792.5640869140625,790.1465454101562,797.8021850585938,792.5640869140625
1535,796.1904907226562,793.3699340820312,801.4285888671875,796.5933837890625
1536,798.6080322265625,795.3846435546875,798.2051391601562,792.1611938476562
1537,805.8607788085938,796.996337890625,795.3846435546875,796.5933837890625
1538,811.098876953125,797.3992919921875,795.3846435546875,798.2051391601562
1539,808.6813354492188,794.981689453125,794.981689453125,794.5787353515625
1540,808.6813354492188,799.8168334960938,790.1465454101562,788.5347900390625
1541,807.87548828125,799.8168334960938,789.7435913085938,789.7435913085938
1542,806.2637329101562,798.2051391601562,791.7582397460938,791.7582397460938
1543,813.113525390625,797.3992919921875,791.3552856445312,790.5494384765625
1544,815.1282348632812,797.3992919921875,794.981689453125,791.7582397460938
1545,810.2930297851562,800.2197875976562,799.010986328125,793.7728881835938
1546,807.069580078125,798.6080322265625,799.010986328125,802.2344360351562
1547,800.6226806640625,792.1611938476562,793.7728881835938,799.010986328125
1548,799.4139404296875,792.967041015625,792.967041015625,792.1611938476562
1549,803.040283203125,798.6080322265625,799.4139404296875,794.1758422851562
1550,796.5933837890625,796.5933837890625,801.025634765625,792.1611938476562
1551,789.3406372070312,790.952392578125,800.2197875976562,787.7289428710938
1552,787.7289428710938,791.3552856445312,801.025634765625,785.3113403320312
1553,790.952392578125,793.3699340820312,801.8314819335938,787.3259887695312
1554,791.3552856445312,794.5787353515625,801.4285888671875,788.5347900390625
1555,786.923095703125,794.1758422851562,797.8021850585938,786.5201416015625
1556,783.6996459960938,790.5494384765625,794.5787353515625,789.3406372070312
1557,792.5640869140625,792.5640869140625,793.3699340820312,789.7435913085938
1558,799.4139404296875,795.7875366210938,792.5640869140625,786.923095703125
1559,799.010986328125,792.1611938476562,788.1318969726562,781.6849975585938
1560,800.6226806640625,792.5640869140625,790.5494384765625,778.8644409179688
1561,794.981689453125,793.7728881835938,794.981689453125,784.5054931640625
1562,793.7728881835938,790.952392578125,792.1611938476562,785.7142944335938
1563,799.4139404296875,789.3406372070312,790.5494384765625,784.5054931640625
1564,801.025634765625,787.7289428710938,790.952392578125,784.908447265625
1565,803.4432373046875,790.5494384765625,790.5494384765625,789.7435913085938
1566,800.6226806640625,795.3846435546875,793.3699340820312,794.1758422851562
1567,792.967041015625,794.981689453125,794.981689453125,789.7435913085938
1568,796.5933837890625,795.3846435546875,790.5494384765625,784.5054931640625
1569,798.2051391601562,795.3846435546875,789.7435913085938,788.5347900390625
1570,796.996337890625,795.3846435546875,787.3259887695312,794.1758422851562
1571,800.6226806640625,795.7875366210938,788.1318969726562,794.1758422851562
1572,802.6373901367188,799.010986328125,790.952392578125,794.1758422851562
1573,797.3992919921875,805.054931640625,786.5201416015625,789.7435913085938
1574,797.3992919921875,803.8461303710938,787.3259887695312,785.7142944335938
1575,794.5787353515625,796.996337890625,788.1318969726562,781.6849975585938
1576,786.5201416015625,799.4139404296875,782.893798828125,778.4615478515625
1577,791.7582397460938,801.4285888671875,789.3406372070312,790.5494384765625
1578,799.8168334960938,802.6373901367188,794.981689453125,796.996337890625
1579,803.040283203125,803.4432373046875,792.5640869140625,791.3552856445312
1580,803.040283203125,798.2051391601562,791.3552856445312,791.3552856445312
1581,794.1758422851562,794.5787353515625,791.3552856445312,795.7875366210938
1582,786.5201416015625,795.3846435546875,789.7435913085938,789.3406372070312
1583,793.3699340820312,793.7728881835938,790.5494384765625,789.3406372070312
1584,796.5933837890625,792.967041015625,791.7582397460938,794.981689453125
1585,796.996337890625,794.1758422851562,792.1611938476562,790.5494384765625
1586,801.4285888671875,796.1904907226562,795.3846435546875,791.7582397460938
