timestamp,RAW_TP9,RAW_AF7,RAW_AF8,RAW_TP10
1,800.2197875976562,783.2966918945312,792.5640869140625,813.5164794921875
2,796.5933837890625,786.5201416015625,790.5494384765625,808.6813354492188
3,786.923095703125,780.0732421875,792.1611938476562,791.7582397460938
4,785.3113403320312,778.4615478515625,790.5494384765625,798.2051391601562
5,782.893798828125,783.6996459960938,790.952392578125,803.4432373046875
6,783.2966918945312,792.5640869140625,799.4139404296875,790.1465454101562
7,786.5201416015625,790.952392578125,792.5640869140625,777.6557006835938
8,787.3259887695312,788.1318969726562,790.5494384765625,774.4322509765625
9,793.7728881835938,791.7582397460938,798.6080322265625,783.2966918945312
10,789.7435913085938,785.3113403320312,797.3992919921875,788.1318969726562
11,788.937744140625,783.2966918945312,798.6080322265625,789.7435913085938
12,788.5347900390625,790.1465454101562,793.3699340820312,792.967041015625
13,785.7142944335938,796.1904907226562,792.5640869140625,792.1611938476562
14,779.2673950195312,795.3846435546875,792.967041015625,784.5054931640625
15,776.4468994140625,791.3552856445312,790.1465454101562,783.2966918945312
16,783.2966918945312,788.1318969726562,793.3699340820312,794.981689453125
17,783.2966918945312,789.3406372070312,794.1758422851562,795.7875366210938
18,780.879150390625,792.1611938476562,793.7728881835938,790.952392578125
19,782.4908447265625,791.3552856445312,789.3406372070312,792.1611938476562
20,781.2820434570312,794.1758422851562,789.3406372070312,799.8168334960938
21,783.2966918945312,798.6080322265625,794.981689453125,805.4578857421875
22,792.5640869140625,800.6226806640625,791.7582397460938,800.2197875976562
23,790.5494384765625,801.4285888671875,788.5347900390625,793.7728881835938
24,789.3406372070312,801.4285888671875,794.5787353515625,793.3699340820312
25,789.3406372070312,805.054931640625,794.981689453125,798.6080322265625
26,789.7435913085938,803.8461303710938,792.5640869140625,804.2490844726562
27,789.7435913085938,794.981689453125,790.1465454101562,802.6373901367188
28,790.1465454101562,790.5494384765625,790.1465454101562,803.040283203125
29,793.7728881835938,790.952392578125,793.3699340820312,793.3699340820312
30,790.5494384765625,786.923095703125,789.7435913085938,782.4908447265625
31,794.981689453125,790.952392578125,788.937744140625,790.5494384765625
32,788.5347900390625,793.7728881835938,787.3259887695312,793.3699340820312
33,780.0732421875,791.7582397460938,784.908447265625,786.923095703125
34,785.3113403320312,790.5494384765625,788.5347900390625,789.3406372070312
35,784.5054931640625,789.7435913085938,794.981689453125,792.967041015625
36,783.2966918945312,790.5494384765625,795.3846435546875,787.3259887695312
37,782.893798828125,788.1318969726562,797.8021850585938,782.4908447265625
38,786.1171875,786.923095703125,798.2051391601562,784.908447265625
39,788.5347900390625,780.879150390625,792.967041015625,791.7582397460938
40,785.3113403320312,777.6557006835938,797.3992919921875,792.5640869140625
41,785.7142944335938,797.8021850585938,796.1904907226562,790.5494384765625
42,791.3552856445312,805.054931640625,789.3406372070312,796.5933837890625
43,792.1611938476562,794.1758422851562,795.3846435546875,800.6226806640625
44,796.1904907226562,794.5787353515625,796.5933837890625,795.3846435546875
45,798.6080322265625,795.3846435546875,792.5640869140625,788.5347900390625
46,798.6080322265625,789.7435913085938,794.1758422851562,787.3259887695312
47,799.8168334960938,791.3552856445312,793.7728881835938,790.5494384765625
48,796.996337890625,793.7728881835938,792.967041015625,786.1171875
49,796.996337890625,793.7728881835938,795.7875366210938,786.923095703125
50,798.2051391601562,792.1611938476562,797.3992919921875,794.981689453125
51,794.1758422851562,788.937744140625,793.7728881835938,799.8168334960938
52,793.7728881835938,789.7435913085938,790.5494384765625,798.2051391601562
53,795.7875366210938,790.1465454101562,790.5494384765625,790.5494384765625
54,790.952392578125,796.5933837890625,790.5494384765625,786.1171875
55,785.7142944335938,801.025634765625,791.3552856445312,782.4908447265625
56,787.7289428710938,795.7875366210938,791.3552856445312,783.2966918945312
57,785.3113403320312,794.1758422851562,790.5494384765625,787.3259887695312
58,782.4908447265625,793.7728881835938,787.3259887695312,792.967041015625
59,787.7289428710938,792.1611938476562,790.1465454101562,803.040283203125
60,785.3113403320312,789.7435913085938,794.981689453125,798.6080322265625
61,780.4761962890625,787.7289428710938,794.1758422851562,792.1611938476562
62,785.3113403320312,786.1171875,793.3699340820312,792.967041015625
63,791.3552856445312,785.3113403320312,797.3992919921875,796.5933837890625
64,791.3552856445312,790.952392578125,794.5787353515625,793.3699340820312
65,788.1318969726562,794.981689453125,790.5494384765625,792.5640869140625
66,791.3552856445312,790.5494384765625,791.7582397460938,794.5787353515625
67,792.5640869140625,789.3406372070312,794.5787353515625,785.7142944335938
68,791.3552856445312,795.7875366210938,795.7875366210938,784.1025390625
69,792.5640869140625,796.996337890625,796.5933837890625,789.7435913085938
70,794.1758422851562,796.996337890625,788.1318969726562,790.952392578125
71,790.5494384765625,794.981689453125,789.7435913085938,790.952392578125
72,791.3552856445312,788.937744140625,796.1904907226562,788.937744140625
73,795.7875366210938,788.5347900390625,793.3699340820312,788.5347900390625
74,796.996337890625,786.923095703125,795.7875366210938,788.5347900390625
75,793.7728881835938,782.4908447265625,795.7875366210938,787.3259887695312
76,788.5347900390625,789.3406372070312,791.7582397460938,790.952392578125
77,788.937744140625,791.7582397460938,789.7435913085938,794.1758422851562
78,787.7289428710938,789.3406372070312,786.923095703125,792.967041015625
79,785.3113403320312,792.1611938476562,787.3259887695312,799.8168334960938
80,789.3406372070312,792.5640869140625,793.3699340820312,805.4578857421875
81,792.1611938476562,791.3552856445312,796.996337890625,807.4725341796875
82,784.1025390625,783.2966918945312,794.981689453125,809.4871826171875
83,782.893798828125,781.6849975585938,799.010986328125,803.8461303710938
84,788.937744140625,786.923095703125,796.5933837890625,798.2051391601562
85,788.937744140625,784.908447265625,792.967041015625,787.7289428710938
86,787.7289428710938,788.5347900390625,794.5787353515625,779.2673950195312
87,788.1318969726562,792.5640869140625,793.7728881835938,780.879150390625
88,788.1318969726562,790.952392578125,798.2051391601562,781.2820434570312
89,794.1758422851562,791.7582397460938,799.4139404296875,786.1171875
90,795.7875366210938,793.3699340820312,799.8168334960938,790.1465454101562
91,788.937744140625,791.3552856445312,797.8021850585938,785.7142944335938
92,786.1171875,791.7582397460938,794.981689453125,780.4761962890625
93,787.3259887695312,788.1318969726562,799.4139404296875,784.1025390625
94,788.937744140625,787.3259887695312,798.6080322265625,782.4908447265625
95,789.3406372070312,796.5933837890625,796.1904907226562,782.893798828125
96,792.1611938476562,798.2051391601562,795.7875366210938,794.1758422851562
97,786.1171875,796.5933837890625,796.1904907226562,799.8168334960938
98,786.5201416015625,796.5933837890625,798.6080322265625,798.6080322265625
99,795.7875366210938,792.1611938476562,797.8021850585938,800.2197875976562
100,795.7875366210938,790.1465454101562,799.4139404296875,808.2783813476562
101,792.1611938476562,791.3552856445312,801.025634765625,807.87548828125
102,784.908447265625,789.3406372070312,801.025634765625,798.6080322265625
103,782.893798828125,788.937744140625,800.6226806640625,797.3992919921875
104,784.5054931640625,787.7289428710938,796.996337890625,798.2051391601562
105,787.7289428710938,786.5201416015625,800.2197875976562,798.2051391601562
106,793.7728881835938,794.1758422851562,803.4432373046875,794.5787353515625
107,789.7435913085938,800.2197875976562,798.2051391601562,792.1611938476562
108,789.3406372070312,796.996337890625,796.1904907226562,796.996337890625
109,787.7289428710938,795.7875366210938,797.3992919921875,795.3846435546875
110,782.4908447265625,799.010986328125,796.1904907226562,793.7728881835938
111,789.3406372070312,797.3992919921875,796.1904907226562,798.6080322265625
112,793.3699340820312,794.981689453125,797.3992919921875,806.2637329101562
113,790.952392578125,792.5640869140625,796.5933837890625,800.2197875976562
114,790.5494384765625,795.7875366210938,798.6080322265625,788.1318969726562
115,790.5494384765625,795.3846435546875,800.2197875976562,789.3406372070312
116,785.3113403320312,797.8021850585938,794.5787353515625,786.5201416015625
117,783.2966918945312,803.4432373046875,791.3552856445312,786.5201416015625
118,789.7435913085938,800.6226806640625,792.967041015625,792.5640869140625
119,794.1758422851562,794.1758422851562,795.3846435546875,792.1611938476562
120,789.3406372070312,793.3699340820312,796.1904907226562,797.8021850585938
121,785.3113403320312,796.5933837890625,794.1758422851562,800.2197875976562
122,778.8644409179688,794.5787353515625,796.5933837890625,791.3552856445312
123,778.05859375,790.952392578125,803.4432373046875,795.3846435546875
124,786.923095703125,786.923095703125,804.6520385742188,803.040283203125
125,788.937744140625,784.5054931640625,800.2197875976562,793.7728881835938
126,788.1318969726562,791.7582397460938,797.8021850585938,786.5201416015625
127,792.967041015625,796.996337890625,798.2051391601562,792.5640869140625
128,794.1758422851562,790.5494384765625,797.3992919921875,799.010986328125
129,791.7582397460938,792.1611938476562,799.4139404296875,791.3552856445312
130,792.5640869140625,800.2197875976562,797.3992919921875,790.5494384765625
131,790.1465454101562,794.5787353515625,792.1611938476562,794.981689453125
132,787.7289428710938,792.1611938476562,793.7728881835938,785.3113403320312
133,783.6996459960938,794.981689453125,792.1611938476562,778.4615478515625
134,780.0732421875,792.967041015625,790.5494384765625,776.0439453125
135,782.4908447265625,794.1758422851562,786.5201416015625,776.4468994140625
136,786.5201416015625,791.3552856445312,788.937744140625,786.923095703125
137,790.952392578125,791.3552856445312,796.996337890625,793.3699340820312
138,792.967041015625,792.967041015625,798.2051391601562,798.2051391601562
139,788.937744140625,792.5640869140625,794.981689453125,799.010986328125
140,787.7289428710938,798.6080322265625,792.967041015625,794.1758422851562
141,789.3406372070312,800.6226806640625,790.1465454101562,784.5054931640625
142,787.7289428710938,801.025634765625,788.1318969726562,780.4761962890625
143,786.923095703125,801.8314819335938,792.967041015625,784.5054931640625
144,788.5347900390625,793.3699340820312,794.5787353515625,789.7435913085938
145,789.3406372070312,792.1611938476562,791.7582397460938,788.5347900390625
146,792.1611938476562,790.5494384765625,792.967041015625,792.5640869140625
147,791.7582397460938,784.5054931640625,789.3406372070312,792.5640869140625
148,784.1025390625,787.3259887695312,790.1465454101562,784.908447265625
149,786.1171875,785.3113403320312,796.996337890625,787.7289428710938
150,791.3552856445312,781.2820434570312,795.7875366210938,785.7142944335938
151,792.1611938476562,784.908447265625,792.1611938476562,778.05859375
152,795.3846435546875,787.7289428710938,793.3699340820312,783.2966918945312
153,796.5933837890625,792.1611938476562,796.5933837890625,794.5787353515625
154,789.3406372070312,789.7435913085938,794.1758422851562,792.967041015625
155,785.3113403320312,784.908447265625,792.967041015625,795.3846435546875
156,790.5494384765625,791.3552856445312,799.010986328125,797.3992919921875
157,787.7289428710938,790.952392578125,801.4285888671875,786.1171875
158,788.1318969726562,784.5054931640625,790.5494384765625,792.5640869140625
159,795.3846435546875,781.2820434570312,792.5640869140625,800.2197875976562
160,795.7875366210938,786.923095703125,803.4432373046875,794.981689453125
161,795.3846435546875,794.1758422851562,798.2051391601562,800.2197875976562
162,795.3846435546875,792.967041015625,794.5787353515625,810.2930297851562
163,792.967041015625,790.5494384765625,797.8021850585938,804.2490844726562
164,788.5347900390625,794.981689453125,799.4139404296875,792.1611938476562
165,791.7582397460938,795.3846435546875,799.8168334960938,787.3259887695312
166,797.8021850585938,792.967041015625,796.1904907226562,789.7435913085938
167,792.5640869140625,790.1465454101562,797.8021850585938,790.952392578125
168,788.1318969726562,790.1465454101562,798.2051391601562,788.5347900390625
169,784.5054931640625,791.7582397460938,791.7582397460938,783.2966918945312
170,781.6849975585938,791.3552856445312,790.5494384765625,780.0732421875
171,782.4908447265625,792.967041015625,793.7728881835938,785.3113403320312
172,782.087890625,791.7582397460938,795.7875366210938,786.5201416015625
173,780.879150390625,791.3552856445312,794.981689453125,783.6996459960938
174,787.7289428710938,788.937744140625,791.3552856445312,788.1318969726562
175,788.937744140625,788.1318969726562,786.923095703125,782.893798828125
176,787.7289428710938,793.7728881835938,790.1465454101562,784.5054931640625
177,793.3699340820312,796.996337890625,796.996337890625,796.5933837890625
178,793.7728881835938,793.7728881835938,798.2051391601562,792.967041015625
179,791.7582397460938,793.7728881835938,791.7582397460938,786.5201416015625
180,789.7435913085938,795.3846435546875,788.937744140625,784.908447265625
181,797.8021850585938,790.1465454101562,789.7435913085938,787.7289428710938
182,809.084228515625,788.937744140625,792.967041015625,797.3992919921875
183,805.4578857421875,794.981689453125,792.967041015625,796.996337890625
184,798.2051391601562,792.1611938476562,789.3406372070312,790.952392578125
185,804.6520385742188,790.1465454101562,792.1611938476562,798.6080322265625
186,803.8461303710938,797.8021850585938,796.1904907226562,801.025634765625
187,799.010986328125,795.3846435546875,795.7875366210938,797.8021850585938
188,792.967041015625,791.7582397460938,788.5347900390625,795.3846435546875
189,788.937744140625,797.3992919921875,786.5201416015625,787.7289428710938
190,794.1758422851562,799.8168334960938,792.1611938476562,792.967041015625
191,795.3846435546875,792.967041015625,792.1611938476562,794.1758422851562
192,794.1758422851562,792.1611938476562,792.5640869140625,790.1465454101562
193,792.5640869140625,794.1758422851562,796.996337890625,790.5494384765625
194,789.7435913085938,795.3846435546875,796.1904907226562,800.2197875976562
195,788.1318969726562,799.010986328125,789.7435913085938,800.6226806640625
196,785.3113403320312,796.996337890625,792.5640869140625,794.5787353515625
197,786.1171875,797.8021850585938,797.3992919921875,801.8314819335938
198,785.7142944335938,802.2344360351562,797.3992919921875,795.7875366210938
199,779.2673950195312,792.967041015625,798.2051391601562,784.1025390625
200,785.7142944335938,788.1318969726562,797.3992919921875,786.5201416015625
201,794.1758422851562,794.981689453125,796.5933837890625,791.7582397460938
202,793.3699340820312,795.7875366210938,798.2051391601562,796.1904907226562
203,791.7582397460938,792.5640869140625,800.6226806640625,797.8021850585938
204,796.5933837890625,793.7728881835938,797.8021850585938,797.3992919921875
205,804.6520385742188,796.996337890625,796.5933837890625,795.7875366210938
206,802.6373901367188,794.981689453125,800.2197875976562,799.8168334960938
207,800.2197875976562,793.3699340820312,801.8314819335938,808.6813354492188
208,798.6080322265625,796.996337890625,792.1611938476562,817.94873046875
209,793.7728881835938,793.3699340820312,788.1318969726562,807.87548828125
210,790.952392578125,788.937744140625,794.1758422851562,792.1611938476562
211,794.5787353515625,792.5640869140625,795.3846435546875,790.5494384765625
212,799.4139404296875,792.5640869140625,792.5640869140625,793.7728881835938
213,801.8314819335938,791.7582397460938,791.3552856445312,791.7582397460938
214,798.2051391601562,795.7875366210938,791.7582397460938,787.7289428710938
215,801.4285888671875,799.8168334960938,791.3552856445312,787.7289428710938
216,806.6666870117188,793.7728881835938,787.3259887695312,787.7289428710938
217,803.4432373046875,792.967041015625,788.5347900390625,784.5054931640625
218,797.8021850585938,794.5787353515625,788.937744140625,782.087890625
219,791.3552856445312,790.5494384765625,788.5347900390625,789.3406372070312
220,784.908447265625,787.7289428710938,791.3552856445312,794.981689453125
221,786.5201416015625,784.5054931640625,792.967041015625,788.5347900390625
222,789.3406372070312,785.7142944335938,790.952392578125,785.7142944335938
223,789.7435913085938,792.967041015625,787.3259887695312,795.3846435546875
224,796.5933837890625,794.5787353515625,797.3992919921875,804.6520385742188
225,795.3846435546875,792.967041015625,800.2197875976562,799.010986328125
226,791.3552856445312,794.5787353515625,792.967041015625,796.996337890625
227,796.1904907226562,788.1318969726562,794.1758422851562,798.2051391601562
228,796.5933837890625,781.2820434570312,796.5933837890625,791.3552856445312
229,790.1465454101562,788.937744140625,791.7582397460938,784.908447265625
230,785.3113403320312,790.952392578125,784.5054931640625,784.908447265625
231,786.1171875,788.937744140625,789.3406372070312,794.1758422851562
232,780.4761962890625,787.7289428710938,795.7875366210938,790.952392578125
233,778.4615478515625,782.893798828125,794.5787353515625,786.1171875
234,779.2673950195312,788.5347900390625,794.1758422851562,785.3113403320312
235,784.1025390625,797.8021850585938,790.952392578125,790.1465454101562
236,791.3552856445312,796.1904907226562,799.010986328125,791.3552856445312
237,791.7582397460938,794.5787353515625,801.8314819335938,780.4761962890625
238,794.5787353515625,796.996337890625,791.3552856445312,780.0732421875
239,791.7582397460938,793.3699340820312,792.5640869140625,789.3406372070312
240,785.3113403320312,786.923095703125,795.3846435546875,790.5494384765625
241,788.1318969726562,787.3259887695312,796.1904907226562,792.1611938476562
242,788.1318969726562,788.1318969726562,796.996337890625,790.952392578125
243,788.937744140625,786.1171875,793.3699340820312,789.7435913085938
244,794.5787353515625,788.1318969726562,791.3552856445312,793.7728881835938
245,791.7582397460938,791.3552856445312,792.967041015625,790.5494384765625
246,789.7435913085938,789.3406372070312,791.7582397460938,794.5787353515625
247,790.1465454101562,790.952392578125,792.967041015625,803.4432373046875
248,785.7142944335938,789.7435913085938,793.7728881835938,789.7435913085938
249,791.3552856445312,785.3113403320312,786.923095703125,779.6703491210938
250,799.010986328125,789.7435913085938,789.3406372070312,791.7582397460938
251,800.2197875976562,789.3406372070312,797.8021850585938,802.6373901367188
252,796.996337890625,794.5787353515625,797.3992919921875,802.2344360351562
253,793.3699340820312,792.1611938476562,794.981689453125,807.069580078125
254,798.6080322265625,789.3406372070312,792.967041015625,809.89013671875
255,799.4139404296875,799.8168334960938,796.5933837890625,792.967041015625
256,799.010986328125,793.3699340820312,798.2051391601562,789.3406372070312
257,801.025634765625,788.937744140625,795.7875366210938,795.7875366210938
258,800.6226806640625,795.3846435546875,796.5933837890625,799.010986328125
259,796.5933837890625,800.6226806640625,801.4285888671875,793.7728881835938
260,789.7435913085938,798.2051391601562,802.2344360351562,786.5201416015625
261,792.1611938476562,791.7582397460938,799.4139404296875,787.7289428710938
262,794.5787353515625,792.1611938476562,802.6373901367188,787.3259887695312
263,796.1904907226562,792.5640869140625,805.8607788085938,790.1465454101562
264,796.5933837890625,790.5494384765625,800.2197875976562,788.937744140625
265,787.7289428710938,790.5494384765625,792.967041015625,786.923095703125
266,786.5201416015625,788.937744140625,792.5640869140625,788.937744140625
267,791.7582397460938,790.952392578125,794.981689453125,792.1611938476562
268,790.1465454101562,792.5640869140625,796.1904907226562,796.996337890625
269,792.1611938476562,791.7582397460938,795.7875366210938,799.8168334960938
270,792.5640869140625,789.7435913085938,794.5787353515625,803.8461303710938
271,788.5347900390625,786.923095703125,793.3699340820312,792.967041015625
272,791.7582397460938,790.952392578125,795.3846435546875,791.7582397460938
273,794.5787353515625,794.981689453125,795.3846435546875,801.8314819335938
274,796.996337890625,792.5640869140625,794.981689453125,798.6080322265625
275,798.2051391601562,788.937744140625,796.996337890625,794.1758422851562
276,792.967041015625,794.1758422851562,797.3992919921875,796.1904907226562
277,786.1171875,794.1758422851562,796.1904907226562,794.1758422851562
278,792.1611938476562,788.5347900390625,789.7435913085938,796.996337890625
279,796.996337890625,784.1025390625,783.2966918945312,798.2051391601562
280,790.5494384765625,780.879150390625,789.3406372070312,793.7728881835938
281,790.952392578125,784.1025390625,792.967041015625,801.8314819335938
282,791.7582397460938,791.3552856445312,792.1611938476562,801.025634765625
283,789.3406372070312,797.8021850585938,791.7582397460938,793.3699340820312
284,785.3113403320312,794.1758422851562,790.952392578125,795.3846435546875
285,780.879150390625,788.1318969726562,791.3552856445312,786.923095703125
286,790.1465454101562,793.3699340820312,791.3552856445312,789.3406372070312
287,791.3552856445312,793.3699340820312,796.1904907226562,795.3846435546875
288,787.3259887695312,792.5640869140625,802.6373901367188,788.5347900390625
289,788.937744140625,796.996337890625,801.4285888671875,790.952392578125
290,794.5787353515625,792.967041015625,800.6226806640625,801.025634765625
291,793.7728881835938,790.952392578125,803.040283203125,808.6813354492188
292,794.5787353515625,794.1758422851562,802.2344360351562,806.6666870117188
293,801.025634765625,795.3846435546875,800.6226806640625,806.2637329101562
294,797.8021850585938,801.025634765625,803.4432373046875,801.025634765625
295,798.6080322265625,800.6226806640625,804.2490844726562,795.7875366210938
296,802.2344360351562,795.7875366210938,801.025634765625,797.3992919921875
297,804.6520385742188,793.3699340820312,802.6373901367188,797.8021850585938
298,808.2783813476562,789.7435913085938,803.040283203125,794.981689453125
299,804.6520385742188,794.1758422851562,799.8168334960938,800.6226806640625
300,799.010986328125,796.996337890625,797.8021850585938,805.054931640625
301,791.3552856445312,792.967041015625,802.2344360351562,799.4139404296875
302,786.1171875,789.7435913085938,799.010986328125,792.967041015625
303,790.952392578125,786.923095703125,794.1758422851562,788.1318969726562
304,796.996337890625,785.3113403320312,794.5787353515625,786.1171875
305,788.5347900390625,788.1318969726562,795.7875366210938,785.3113403320312
306,783.2966918945312,789.3406372070312,795.3846435546875,783.2966918945312
307,788.1318969726562,788.5347900390625,796.1904907226562,787.7289428710938
308,787.3259887695312,785.7142944335938,798.2051391601562,790.952392578125
309,780.879150390625,787.3259887695312,791.7582397460938,788.1318969726562
310,777.6557006835938,786.5201416015625,790.1465454101562,790.952392578125
311,782.087890625,784.1025390625,788.5347900390625,793.7728881835938
312,791.7582397460938,788.1318969726562,790.952392578125,796.1904907226562
313,789.3406372070312,794.1758422851562,797.8021850585938,789.7435913085938
314,786.5201416015625,796.996337890625,799.4139404296875,781.6849975585938
315,796.5933837890625,794.981689453125,802.2344360351562,783.2966918945312
316,798.2051391601562,792.5640869140625,802.6373901367188,791.3552856445312
317,797.8021850585938,796.996337890625,799.8168334960938,794.981689453125
318,794.1758422851562,799.4139404296875,794.5787353515625,789.3406372070312
319,792.1611938476562,800.2197875976562,792.1611938476562,784.5054931640625
320,791.7582397460938,796.5933837890625,789.3406372070312,789.3406372070312
321,790.1465454101562,792.1611938476562,788.937744140625,794.1758422851562
322,794.1758422851562,796.996337890625,794.981689453125,797.8021850585938
323,796.1904907226562,792.5640869140625,798.2051391601562,806.6666870117188
324,797.3992919921875,793.3699340820312,793.7728881835938,808.2783813476562
325,799.4139404296875,794.1758422851562,789.3406372070312,801.025634765625
326,798.6080322265625,793.7728881835938,792.1611938476562,796.996337890625
327,799.8168334960938,792.5640869140625,793.7728881835938,796.5933837890625
328,796.5933837890625,791.3552856445312,793.7728881835938,790.1465454101562
329,788.5347900390625,795.7875366210938,798.6080322265625,789.7435913085938
330,787.3259887695312,792.1611938476562,796.996337890625,798.2051391601562
331,793.7728881835938,788.1318969726562,794.5787353515625,805.054931640625
332,790.5494384765625,786.923095703125,795.7875366210938,800.2197875976562
333,788.937744140625,789.3406372070312,797.3992919921875,792.967041015625
334,799.8168334960938,788.1318969726562,794.1758422851562,793.7728881835938
335,802.6373901367188,786.5201416015625,790.1465454101562,795.3846435546875
336,796.5933837890625,787.7289428710938,792.5640869140625,795.3846435546875
337,800.2197875976562,783.6996459960938,794.981689453125,797.8021850585938
338,800.2197875976562,784.5054931640625,797.3992919921875,799.4139404296875
339,793.3699340820312,786.5201416015625,794.5787353515625,796.996337890625
340,793.7728881835938,782.893798828125,793.7728881835938,797.3992919921875
341,789.7435913085938,782.087890625,796.1904907226562,787.3259887695312
342,792.5640869140625,785.7142944335938,793.3699340820312,790.952392578125
343,797.3992919921875,787.3259887695312,789.7435913085938,797.3992919921875
344,792.967041015625,788.5347900390625,794.1758422851562,788.1318969726562
345,786.1171875,790.952392578125,792.1611938476562,784.1025390625
346,784.1025390625,792.5640869140625,788.5347900390625,782.893798828125
347,786.1171875,791.7582397460938,790.5494384765625,788.937744140625
348,777.6557006835938,788.1318969726562,792.967041015625,788.937744140625
349,773.2234497070312,788.1318969726562,794.5787353515625,790.5494384765625
350,780.0732421875,787.7289428710938,792.967041015625,797.8021850585938
351,784.5054931640625,786.1171875,793.3699340820312,795.3846435546875
352,782.893798828125,786.923095703125,797.8021850585938,794.1758422851562
353,781.6849975585938,787.7289428710938,796.5933837890625,791.3552856445312
354,788.1318969726562,796.5933837890625,793.7728881835938,798.6080322265625
355,790.5494384765625,803.8461303710938,794.5787353515625,804.2490844726562
356,796.1904907226562,801.025634765625,792.967041015625,800.2197875976562
357,807.069580078125,800.2197875976562,792.5640869140625,801.8314819335938
358,811.5018310546875,797.8021850585938,795.3846435546875,803.4432373046875
359,811.5018310546875,796.996337890625,794.5787353515625,806.2637329101562
360,810.2930297851562,801.8314819335938,796.1904907226562,805.8607788085938
361,809.084228515625,801.4285888671875,797.3992919921875,805.054931640625
362,805.8607788085938,794.981689453125,792.967041015625,804.6520385742188
363,807.4725341796875,799.4139404296875,796.1904907226562,805.4578857421875
364,807.4725341796875,803.040283203125,800.6226806640625,801.4285888671875
365,800.2197875976562,797.8021850585938,796.996337890625,796.996337890625
366,798.6080322265625,798.2051391601562,796.996337890625,795.7875366210938
367,796.5933837890625,803.040283203125,801.4285888671875,786.1171875
368,790.952392578125,796.5933837890625,798.6080322265625,782.893798828125
369,789.3406372070312,789.7435913085938,793.3699340820312,782.4908447265625
370,786.1171875,789.7435913085938,792.967041015625,780.4761962890625
371,787.7289428710938,788.1318969726562,793.3699340820312,782.893798828125
372,786.5201416015625,786.5201416015625,794.981689453125,785.3113403320312
373,781.6849975585938,790.1465454101562,790.5494384765625,782.087890625
374,776.8497924804688,791.3552856445312,791.3552856445312,782.087890625
375,777.6557006835938,786.5201416015625,796.996337890625,791.7582397460938
376,782.893798828125,787.3259887695312,799.010986328125,794.1758422851562
377,780.879150390625,788.937744140625,796.5933837890625,797.3992919921875
378,779.2673950195312,786.1171875,794.5787353515625,798.2051391601562
379,780.0732421875,791.3552856445312,796.1904907226562,794.1758422851562
380,784.5054931640625,796.996337890625,798.2051391601562,796.5933837890625
381,790.5494384765625,792.5640869140625,794.981689453125,795.3846435546875
382,794.981689453125,791.7582397460938,791.7582397460938,797.8021850585938
383,799.8168334960938,791.7582397460938,794.981689453125,803.040283203125
384,799.8168334960938,791.7582397460938,795.7875366210938,805.8607788085938
385,801.025634765625,793.7728881835938,796.1904907226562,802.2344360351562
386,807.069580078125,793.3699340820312,795.3846435546875,793.7728881835938
387,812.7106323242188,792.1611938476562,794.981689453125,796.1904907226562
388,813.5164794921875,792.5640869140625,801.025634765625,802.6373901367188
389,807.4725341796875,793.7728881835938,803.8461303710938,804.6520385742188
390,794.981689453125,795.7875366210938,803.4432373046875,795.7875366210938
391,792.1611938476562,791.3552856445312,803.8461303710938,788.937744140625
392,787.7289428710938,790.952392578125,803.040283203125,792.967041015625
393,778.8644409179688,794.1758422851562,797.8021850585938,792.1611938476562
394,781.2820434570312,795.3846435546875,798.2051391601562,787.3259887695312
395,790.1465454101562,794.1758422851562,802.2344360351562,789.3406372070312
396,790.1465454101562,784.1025390625,796.996337890625,788.937744140625
397,788.1318969726562,788.1318969726562,795.7875366210938,779.6703491210938
398,782.4908447265625,795.7875366210938,801.4285888671875,780.4761962890625
399,777.2527465820312,791.7582397460938,802.2344360351562,784.5054931640625
400,781.6849975585938,794.981689453125,794.981689453125,791.7582397460938
401,778.8644409179688,791.7582397460938,792.967041015625,789.3406372070312
402,769.1941528320312,787.3259887695312,796.996337890625,779.6703491210938
403,774.8351440429688,789.7435913085938,796.996337890625,788.937744140625
404,778.05859375,782.893798828125,798.2051391601562,792.5640869140625
405,774.029296875,783.6996459960938,800.2197875976562,792.967041015625
406,778.8644409179688,790.5494384765625,796.5933837890625,797.3992919921875
407,786.1171875,792.967041015625,797.3992919921875,801.025634765625
408,793.7728881835938,794.981689453125,798.2051391601562,804.2490844726562
409,794.5787353515625,791.3552856445312,792.967041015625,794.1758422851562
410,795.3846435546875,787.7289428710938,789.7435913085938,793.3699340820312
411,797.3992919921875,791.3552856445312,793.7728881835938,798.6080322265625
412,800.2197875976562,790.1465454101562,792.1611938476562,795.7875366210938
413,803.4432373046875,788.1318969726562,784.908447265625,788.937744140625
414,801.4285888671875,790.1465454101562,788.5347900390625,788.1318969726562
415,797.8021850585938,788.1318969726562,794.1758422851562,797.3992919921875
416,797.3992919921875,791.7582397460938,792.5640869140625,796.5933837890625
417,796.996337890625,791.3552856445312,788.5347900390625,786.5201416015625
418,798.6080322265625,786.1171875,781.6849975585938,785.3113403320312
419,794.981689453125,790.5494384765625,777.6557006835938,781.2820434570312
420,787.3259887695312,795.7875366210938,782.087890625,776.8497924804688
421,782.087890625,794.981689453125,788.5347900390625,782.4908447265625
422,786.1171875,792.5640869140625,786.5201416015625,784.1025390625
423,788.5347900390625,792.967041015625,786.923095703125,792.1611938476562
424,781.2820434570312,794.5787353515625,789.7435913085938,794.5787353515625
425,776.4468994140625,790.1465454101562,791.3552856445312,783.6996459960938
426,784.1025390625,790.1465454101562,792.1611938476562,787.7289428710938
427,790.5494384765625,789.3406372070312,791.7582397460938,801.025634765625
428,782.893798828125,787.3259887695312,796.1904907226562,797.3992919921875
429,780.4761962890625,785.3113403320312,794.5787353515625,789.7435913085938
430,781.6849975585938,786.923095703125,795.7875366210938,789.3406372070312
431,780.0732421875,790.952392578125,801.8314819335938,789.7435913085938
432,777.6557006835938,791.7582397460938,801.4285888671875,786.1171875
433,781.6849975585938,796.5933837890625,797.8021850585938,786.5201416015625
434,785.3113403320312,797.8021850585938,794.1758422851562,790.1465454101562
435,782.4908447265625,790.5494384765625,793.7728881835938,789.7435913085938
436,789.7435913085938,789.7435913085938,794.981689453125,787.7289428710938
437,794.5787353515625,793.3699340820312,794.981689453125,784.1025390625
438,797.8021850585938,793.3699340820312,793.3699340820312,785.7142944335938
439,799.8168334960938,789.3406372070312,792.5640869140625,794.1758422851562
440,792.967041015625,790.952392578125,791.7582397460938,788.937744140625
441,792.5640869140625,794.981689453125,795.3846435546875,790.5494384765625
442,795.7875366210938,796.1904907226562,799.010986328125,799.8168334960938
443,796.1904907226562,797.8021850585938,798.6080322265625,801.4285888671875
444,794.1758422851562,788.5347900390625,799.8168334960938,794.5787353515625
445,788.937744140625,783.6996459960938,800.6226806640625,792.967041015625
446,788.5347900390625,792.5640869140625,801.025634765625,796.996337890625
447,784.908447265625,798.2051391601562,800.2197875976562,794.981689453125
448,786.923095703125,797.8021850585938,799.4139404296875,798.6080322265625
449,790.5494384765625,796.5933837890625,801.025634765625,797.3992919921875
450,792.5640869140625,795.7875366210938,801.025634765625,802.6373901367188
451,787.3259887695312,795.3846435546875,795.3846435546875,802.6373901367188
452,777.6557006835938,794.1758422851562,796.996337890625,796.5933837890625
453,783.6996459960938,796.1904907226562,801.025634765625,809.084228515625
454,792.5640869140625,797.3992919921875,802.6373901367188,808.2783813476562
455,790.1465454101562,798.2051391601562,796.5933837890625,798.2051391601562
456,788.5347900390625,798.2051391601562,786.5201416015625,792.967041015625
457,792.5640869140625,791.7582397460938,786.923095703125,793.7728881835938
458,796.5933837890625,792.967041015625,790.1465454101562,798.2051391601562
459,792.967041015625,796.996337890625,788.937744140625,794.5787353515625
460,787.7289428710938,797.8021850585938,788.5347900390625,790.952392578125
461,788.937744140625,798.6080322265625,791.3552856445312,794.5787353515625
462,788.937744140625,796.5933837890625,794.1758422851562,798.2051391601562
463,789.3406372070312,798.6080322265625,791.7582397460938,788.1318969726562
464,793.7728881835938,799.8168334960938,791.3552856445312,786.5201416015625
465,794.5787353515625,799.8168334960938,798.2051391601562,795.3846435546875
466,789.3406372070312,801.4285888671875,800.6226806640625,791.3552856445312
467,787.3259887695312,802.2344360351562,798.2051391601562,788.937744140625
468,793.7728881835938,804.6520385742188,797.3992919921875,789.3406372070312
469,787.3259887695312,797.3992919921875,796.5933837890625,781.6849975585938
470,781.6849975585938,788.937744140625,794.1758422851562,779.6703491210938
471,784.908447265625,787.3259887695312,795.3846435546875,781.2820434570312
472,785.7142944335938,787.3259887695312,797.8021850585938,782.087890625
473,790.952392578125,783.2966918945312,796.996337890625,792.5640869140625
474,784.908447265625,788.1318969726562,790.1465454101562,793.7728881835938
475,770.4029541015625,788.937744140625,784.5054931640625,781.2820434570312
476,768.7911987304688,788.5347900390625,786.923095703125,779.2673950195312
477,771.2088012695312,790.5494384765625,790.952392578125,783.6996459960938
478,768.7911987304688,790.5494384765625,790.1465454101562,782.087890625
479,773.2234497070312,792.5640869140625,789.3406372070312,788.937744140625
480,782.087890625,788.1318969726562,791.3552856445312,794.5787353515625
481,783.2966918945312,784.1025390625,795.7875366210938,796.996337890625
482,782.4908447265625,789.3406372070312,797.3992919921875,793.3699340820312
483,779.2673950195312,789.3406372070312,790.5494384765625,788.5347900390625
484,782.893798828125,782.893798828125,787.7289428710938,794.1758422851562
485,788.1318969726562,779.2673950195312,790.1465454101562,802.2344360351562
486,784.5054931640625,784.1025390625,790.952392578125,786.1171875
487,788.1318969726562,789.3406372070312,788.5347900390625,785.7142944335938
488,791.3552856445312,792.1611938476562,790.952392578125,794.5787353515625
489,789.3406372070312,799.4139404296875,796.1904907226562,792.1611938476562
490,790.5494384765625,800.2197875976562,799.010986328125,794.5787353515625
491,793.3699340820312,799.010986328125,799.8168334960938,793.7728881835938
492,788.5347900390625,797.8021850585938,796.5933837890625,787.3259887695312
493,786.1171875,796.996337890625,791.7582397460938,784.1025390625
494,791.3552856445312,792.1611938476562,788.5347900390625,784.5054931640625
495,792.5640869140625,789.7435913085938,787.7289428710938,784.908447265625
496,785.7142944335938,798.2051391601562,786.923095703125,790.1465454101562
497,783.6996459960938,800.2197875976562,787.3259887695312,788.1318969726562
498,792.1611938476562,800.6226806640625,790.1465454101562,783.2966918945312
499,799.010986328125,795.7875366210938,793.7728881835938,788.1318969726562
500,797.3992919921875,790.5494384765625,797.3992919921875,790.1465454101562
501,792.1611938476562,796.1904907226562,798.2051391601562,786.923095703125
502,789.3406372070312,803.040283203125,795.7875366210938,785.7142944335938
503,789.7435913085938,799.4139404296875,795.3846435546875,786.923095703125
504,794.1758422851562,795.3846435546875,792.967041015625,787.7289428710938
505,798.6080322265625,790.5494384765625,790.952392578125,788.1318969726562
506,796.1904907226562,792.1611938476562,791.7582397460938,791.3552856445312
507,789.3406372070312,794.5787353515625,791.3552856445312,793.3699340820312
508,786.923095703125,789.7435913085938,792.5640869140625,802.6373901367188
509,784.5054931640625,790.5494384765625,792.5640869140625,801.025634765625
510,784.908447265625,792.5640869140625,790.5494384765625,790.5494384765625
511,787.3259887695312,785.3113403320312,784.5054931640625,792.967041015625
512,787.3259887695312,779.2673950195312,785.7142944335938,796.996337890625
513,781.2820434570312,782.893798828125,792.1611938476562,788.1318969726562
514,782.087890625,786.5201416015625,790.5494384765625,791.7582397460938
515,783.2966918945312,787.3259887695312,792.967041015625,795.7875366210938
516,779.2673950195312,791.7582397460938,796.996337890625,791.3552856445312
517,781.6849975585938,792.967041015625,795.7875366210938,788.5347900390625
518,780.0732421875,792.5640869140625,791.7582397460938,785.7142944335938
519,776.8497924804688,791.3552856445312,789.3406372070312,787.3259887695312
520,780.879150390625,790.952392578125,795.7875366210938,792.1611938476562
521,775.6410522460938,789.3406372070312,801.025634765625,790.1465454101562
522,772.8204956054688,790.5494384765625,796.1904907226562,787.7289428710938
523,783.2966918945312,790.5494384765625,787.7289428710938,792.5640869140625
524,786.1171875,783.2966918945312,788.937744140625,785.7142944335938
525,784.5054931640625,784.1025390625,792.5640869140625,778.05859375
526,779.6703491210938,788.5347900390625,792.1611938476562,778.05859375
527,778.05859375,783.2966918945312,792.1611938476562,783.2966918945312
528,783.6996459960938,787.3259887695312,790.1465454101562,789.3406372070312
529,787.3259887695312,793.7728881835938,789.7435913085938,792.5640869140625
530,787.3259887695312,796.5933837890625,793.7728881835938,794.5787353515625
531,785.3113403320312,795.7875366210938,795.3846435546875,792.5640869140625
532,788.1318969726562,793.3699340820312,795.3846435546875,790.952392578125
533,789.7435913085938,791.7582397460938,796.996337890625,789.7435913085938
534,787.3259887695312,787.3259887695312,797.3992919921875,791.7582397460938
535,788.5347900390625,787.7289428710938,794.5787353515625,798.2051391601562
536,786.5201416015625,792.5640869140625,792.5640869140625,795.7875366210938
537,784.5054931640625,788.5347900390625,791.7582397460938,799.4139404296875
538,782.893798828125,786.923095703125,790.5494384765625,796.996337890625
539,786.5201416015625,790.1465454101562,793.3699340820312,790.5494384765625
540,793.3699340820312,784.5054931640625,796.1904907226562,800.6226806640625
541,791.7582397460938,782.893798828125,798.2051391601562,798.6080322265625
542,786.923095703125,788.937744140625,792.967041015625,794.5787353515625
543,784.5054931640625,785.7142944335938,788.5347900390625,802.2344360351562
544,776.8497924804688,789.7435913085938,791.7582397460938,790.5494384765625
545,779.6703491210938,796.996337890625,790.1465454101562,777.2527465820312
546,783.6996459960938,798.2051391601562,789.3406372070312,786.1171875
547,780.879150390625,801.025634765625,793.7728881835938,787.3259887695312
548,780.0732421875,798.2051391601562,788.1318969726562,782.4908447265625
549,783.6996459960938,793.3699340820312,785.7142944335938,786.1171875
550,791.7582397460938,796.1904907226562,785.7142944335938,792.967041015625
551,793.3699340820312,791.3552856445312,787.3259887695312,786.923095703125
552,792.967041015625,788.1318969726562,794.1758422851562,787.3259887695312
553,792.5640869140625,796.5933837890625,793.3699340820312,791.3552856445312
554,795.3846435546875,803.4432373046875,792.5640869140625,787.3259887695312
555,795.3846435546875,799.4139404296875,794.1758422851562,782.4908447265625
556,796.5933837890625,795.7875366210938,792.5640869140625,778.05859375
557,800.2197875976562,795.7875366210938,790.1465454101562,779.2673950195312
558,798.6080322265625,794.5787353515625,792.1611938476562,789.3406372070312
559,797.3992919921875,796.5933837890625,791.7582397460938,786.5201416015625
560,798.6080322265625,797.3992919921875,789.7435913085938,783.6996459960938
561,798.2051391601562,795.7875366210938,791.3552856445312,792.5640869140625
562,794.5787353515625,793.3699340820312,794.5787353515625,792.967041015625
563,791.7582397460938,794.1758422851562,794.5787353515625,788.1318969726562
564,785.7142944335938,796.5933837890625,794.1758422851562,786.5201416015625
565,783.6996459960938,792.967041015625,794.5787353515625,795.7875366210938
566,788.937744140625,793.3699340820312,791.7582397460938,801.8314819335938
567,789.3406372070312,798.2051391601562,795.3846435546875,794.1758422851562
568,785.3113403320312,795.7875366210938,797.3992919921875,786.1171875
569,790.1465454101562,797.3992919921875,800.2197875976562,796.1904907226562
570,782.893798828125,798.6080322265625,795.7875366210938,790.952392578125
571,786.923095703125,798.2051391601562,790.1465454101562,788.937744140625
572,803.040283203125,801.025634765625,793.7728881835938,803.040283203125
573,792.967041015625,798.2051391601562,797.3992919921875,796.1904907226562
574,784.1025390625,793.7728881835938,796.5933837890625,788.5347900390625
575,789.3406372070312,796.5933837890625,793.7728881835938,791.3552856445312
576,792.967041015625,791.3552856445312,792.1611938476562,791.3552856445312
577,794.1758422851562,784.908447265625,794.1758422851562,794.981689453125
578,798.6080322265625,794.5787353515625,791.3552856445312,796.5933837890625
579,803.4432373046875,798.6080322265625,790.1465454101562,793.3699340820312
580,804.6520385742188,796.996337890625,793.3699340820312,793.3699340820312
581,803.040283203125,793.7728881835938,792.967041015625,800.6226806640625
582,794.5787353515625,793.3699340820312,792.1611938476562,791.3552856445312
583,786.923095703125,791.7582397460938,794.5787353515625,786.5201416015625
584,787.7289428710938,789.3406372070312,793.7728881835938,789.7435913085938
585,787.7289428710938,792.1611938476562,792.1611938476562,788.5347900390625
586,787.7289428710938,801.025634765625,794.981689453125,796.5933837890625
587,788.1318969726562,794.1758422851562,790.952392578125,795.7875366210938
588,786.5201416015625,783.6996459960938,786.5201416015625,791.3552856445312
589,781.2820434570312,790.5494384765625,785.3113403320312,792.967041015625
590,779.2673950195312,790.1465454101562,786.1171875,790.952392578125
591,786.5201416015625,786.1171875,790.5494384765625,792.1611938476562
592,788.937744140625,789.7435913085938,791.3552856445312,797.8021850585938
593,786.923095703125,789.3406372070312,792.967041015625,798.6080322265625
594,788.5347900390625,786.5201416015625,796.5933837890625,796.1904907226562
595,789.3406372070312,782.087890625,786.1171875,788.937744140625
596,799.4139404296875,783.6996459960938,781.2820434570312,793.7728881835938
597,802.2344360351562,789.3406372070312,790.952392578125,788.5347900390625
598,792.5640869140625,789.3406372070312,790.1465454101562,782.893798828125
599,785.3113403320312,789.7435913085938,788.1318969726562,789.3406372070312
600,780.4761962890625,790.5494384765625,794.5787353515625,791.7582397460938
601,786.5201416015625,794.981689453125,792.5640869140625,792.1611938476562
602,788.937744140625,794.5787353515625,790.1465454101562,793.3699340820312
603,788.937744140625,793.3699340820312,789.7435913085938,797.3992919921875
604,782.893798828125,792.1611938476562,789.7435913085938,798.2051391601562
605,776.4468994140625,781.2820434570312,790.952392578125,794.5787353515625
606,781.6849975585938,777.6557006835938,792.1611938476562,795.3846435546875
607,786.923095703125,784.5054931640625,791.3552856445312,799.8168334960938
608,784.1025390625,789.7435913085938,788.1318969726562,805.8607788085938
609,783.6996459960938,792.5640869140625,787.3259887695312,798.2051391601562
610,782.893798828125,792.1611938476562,790.1465454101562,788.1318969726562
611,778.05859375,788.937744140625,790.1465454101562,781.2820434570312
612,780.4761962890625,785.3113403320312,783.2966918945312,780.4761962890625
613,786.5201416015625,788.937744140625,788.937744140625,784.5054931640625
614,788.1318969726562,791.3552856445312,790.5494384765625,783.2966918945312
615,790.952392578125,789.7435913085938,789.7435913085938,790.1465454101562
616,795.7875366210938,792.5640869140625,798.2051391601562,794.1758422851562
617,797.3992919921875,798.2051391601562,802.2344360351562,791.3552856445312
618,793.3699340820312,796.5933837890625,800.6226806640625,792.1611938476562
619,791.7582397460938,793.3699340820312,798.2051391601562,805.8607788085938
620,794.5787353515625,796.5933837890625,798.2051391601562,810.2930297851562
621,794.5787353515625,799.010986328125,797.8021850585938,801.025634765625
622,794.1758422851562,802.2344360351562,792.967041015625,797.8021850585938
623,794.981689453125,803.4432373046875,794.5787353515625,799.4139404296875
624,796.5933837890625,796.1904907226562,797.3992919921875,803.4432373046875
625,794.981689453125,792.5640869140625,792.5640869140625,796.1904907226562
626,800.6226806640625,795.3846435546875,790.952392578125,792.1611938476562
627,799.010986328125,795.3846435546875,793.3699340820312,797.3992919921875
628,788.937744140625,796.1904907226562,786.5201416015625,792.967041015625
629,785.7142944335938,796.1904907226562,782.4908447265625,783.6996459960938
630,789.3406372070312,796.996337890625,788.1318969726562,790.952392578125
631,801.4285888671875,796.996337890625,794.5787353515625,807.4725341796875
632,810.2930297851562,794.1758422851562,793.3699340820312,807.87548828125
633,799.8168334960938,793.3699340820312,792.967041015625,800.6226806640625
634,799.8168334960938,796.996337890625,793.3699340820312,807.4725341796875
635,804.6520385742188,799.010986328125,796.996337890625,808.6813354492188
636,793.3699340820312,790.952392578125,797.3992919921875,798.6080322265625
637,792.1611938476562,792.1611938476562,792.1611938476562,802.2344360351562
638,795.3846435546875,793.7728881835938,794.981689453125,805.8607788085938
639,790.1465454101562,788.937744140625,796.5933837890625,797.8021850585938
640,787.7289428710938,792.967041015625,796.1904907226562,799.8168334960938
641,793.7728881835938,796.996337890625,799.8168334960938,808.6813354492188
642,796.1904907226562,790.5494384765625,794.1758422851562,810.2930297851562
643,790.5494384765625,790.1465454101562,797.8021850585938,805.054931640625
644,791.3552856445312,792.967041015625,799.4139404296875,796.996337890625
645,796.996337890625,792.5640869140625,792.1611938476562,794.5787353515625
646,798.6080322265625,792.5640869140625,790.1465454101562,785.7142944335938
647,796.1904907226562,791.3552856445312,794.5787353515625,785.3113403320312
648,792.967041015625,792.967041015625,792.1611938476562,787.3259887695312
649,796.996337890625,792.5640869140625,784.908447265625,783.2966918945312
650,791.3552856445312,788.5347900390625,783.2966918945312,781.6849975585938
651,788.5347900390625,794.5787353515625,790.5494384765625,785.3113403320312
652,791.3552856445312,799.4139404296875,796.1904907226562,789.3406372070312
653,786.923095703125,793.7728881835938,790.1465454101562,789.3406372070312
654,790.1465454101562,790.5494384765625,788.937744140625,801.025634765625
655,790.5494384765625,794.1758422851562,790.952392578125,801.4285888671875
656,787.7289428710938,791.7582397460938,795.3846435546875,794.981689453125
657,787.7289428710938,786.1171875,795.3846435546875,794.981689453125
658,789.3406372070312,788.1318969726562,792.1611938476562,793.7728881835938
659,787.3259887695312,788.937744140625,798.6080322265625,790.1465454101562
660,787.7289428710938,787.7289428710938,801.025634765625,794.981689453125
661,798.6080322265625,790.952392578125,798.2051391601562,804.6520385742188
662,796.5933837890625,792.5640869140625,799.4139404296875,792.1611938476562
663,789.7435913085938,791.3552856445312,799.8168334960938,778.05859375
664,793.7728881835938,791.3552856445312,798.2051391601562,781.6849975585938
665,795.7875366210938,793.3699340820312,798.2051391601562,792.1611938476562
666,791.7582397460938,794.5787353515625,796.996337890625,797.3992919921875
667,788.937744140625,796.5933837890625,801.025634765625,790.952392578125
668,792.967041015625,797.8021850585938,802.6373901367188,794.981689453125
669,796.5933837890625,796.5933837890625,801.4285888671875,802.2344360351562
670,798.2051391601562,795.7875366210938,801.4285888671875,802.2344360351562
671,798.2051391601562,791.7582397460938,797.8021850585938,801.4285888671875
672,799.010986328125,789.3406372070312,795.7875366210938,801.025634765625
673,797.8021850585938,795.3846435546875,795.7875366210938,800.2197875976562
674,794.5787353515625,797.3992919921875,801.4285888671875,793.7728881835938
675,793.3699340820312,789.7435913085938,803.4432373046875,788.937744140625
676,794.1758422851562,796.1904907226562,797.3992919921875,788.5347900390625
677,789.3406372070312,799.010986328125,804.6520385742188,793.7728881835938
678,786.923095703125,794.981689453125,808.2783813476562,803.4432373046875
679,792.1611938476562,790.5494384765625,802.6373901367188,801.8314819335938
680,793.7728881835938,789.7435913085938,803.040283203125,801.4285888671875
681,790.1465454101562,790.1465454101562,801.4285888671875,807.87548828125
682,788.5347900390625,794.1758422851562,800.6226806640625,793.7728881835938
683,790.5494384765625,791.7582397460938,798.6080322265625,786.1171875
684,788.1318969726562,786.1171875,795.7875366210938,791.3552856445312
685,788.937744140625,790.5494384765625,797.3992919921875,797.8021850585938
686,789.3406372070312,792.1611938476562,796.5933837890625,794.981689453125
687,787.3259887695312,793.7728881835938,796.5933837890625,789.7435913085938
688,788.937744140625,795.3846435546875,791.7582397460938,799.8168334960938
689,792.967041015625,796.5933837890625,788.937744140625,801.4285888671875
690,793.3699340820312,796.1904907226562,796.1904907226562,794.1758422851562
691,788.937744140625,790.1465454101562,797.3992919921875,794.5787353515625
692,787.7289428710938,790.952392578125,793.7728881835938,793.3699340820312
693,786.5201416015625,795.7875366210938,789.3406372070312,790.952392578125
694,792.1611938476562,797.8021850585938,790.952392578125,794.5787353515625
695,786.5201416015625,796.996337890625,792.5640869140625,788.1318969726562
696,782.087890625,795.3846435546875,790.5494384765625,782.893798828125
697,788.937744140625,793.3699340820312,796.1904907226562,785.7142944335938
698,789.3406372070312,791.3552856445312,795.7875366210938,786.923095703125
699,782.893798828125,787.7289428710938,785.3113403320312,789.3406372070312
700,787.3259887695312,788.5347900390625,786.923095703125,788.937744140625
701,793.3699340820312,792.5640869140625,791.3552856445312,784.1025390625
702,789.3406372070312,796.5933837890625,794.1758422851562,786.5201416015625
703,786.923095703125,790.952392578125,798.6080322265625,794.5787353515625
704,786.5201416015625,783.6996459960938,791.7582397460938,801.4285888671875
705,788.1318969726562,794.5787353515625,789.3406372070312,796.5933837890625
706,786.5201416015625,797.8021850585938,798.2051391601562,793.7728881835938
707,780.0732421875,788.5347900390625,798.2051391601562,795.7875366210938
708,779.2673950195312,784.908447265625,794.5787353515625,790.952392578125
709,785.7142944335938,788.937744140625,796.5933837890625,788.1318969726562
710,795.7875366210938,790.952392578125,795.7875366210938,791.7582397460938
711,800.2197875976562,789.7435913085938,793.3699340820312,793.7728881835938
712,796.1904907226562,788.1318969726562,795.3846435546875,792.1611938476562
713,792.967041015625,788.937744140625,796.5933837890625,801.4285888671875
714,791.3552856445312,791.7582397460938,795.3846435546875,805.054931640625
715,790.5494384765625,788.937744140625,792.1611938476562,798.6080322265625
716,793.3699340820312,794.981689453125,790.952392578125,794.981689453125
717,798.2051391601562,797.8021850585938,794.5787353515625,796.996337890625
718,800.2197875976562,793.3699340820312,797.3992919921875,796.1904907226562
719,793.3699340820312,791.7582397460938,796.1904907226562,794.5787353515625
720,792.1611938476562,789.3406372070312,793.7728881835938,799.4139404296875
721,798.2051391601562,786.1171875,793.3699340820312,801.4285888671875
722,800.2197875976562,789.7435913085938,794.5787353515625,793.3699340820312
723,794.5787353515625,794.981689453125,793.7728881835938,789.7435913085938
724,788.1318969726562,791.7582397460938,794.1758422851562,790.952392578125
725,787.7289428710938,785.7142944335938,792.967041015625,784.908447265625
726,790.952392578125,789.7435913085938,788.5347900390625,786.923095703125
727,786.1171875,792.967041015625,787.3259887695312,789.7435913085938
728,781.2820434570312,794.5787353515625,792.967041015625,782.4908447265625
729,786.923095703125,796.996337890625,793.3699340820312,785.7142944335938
730,792.5640869140625,794.981689453125,793.3699340820312,790.952392578125
731,794.5787353515625,791.3552856445312,792.1611938476562,786.923095703125
732,785.7142944335938,790.952392578125,790.5494384765625,784.908447265625
733,774.8351440429688,790.1465454101562,788.5347900390625,789.7435913085938
734,779.2673950195312,786.923095703125,788.5347900390625,792.5640869140625
735,785.3113403320312,788.937744140625,789.3406372070312,790.952392578125
736,786.923095703125,792.5640869140625,786.1171875,787.7289428710938
737,788.5347900390625,792.1611938476562,786.923095703125,793.3699340820312
738,789.7435913085938,789.7435913085938,789.7435913085938,801.4285888671875
739,786.1171875,792.967041015625,788.1318969726562,795.3846435546875
740,788.5347900390625,795.7875366210938,788.1318969726562,787.3259887695312
741,794.1758422851562,792.967041015625,790.952392578125,785.3113403320312
742,797.3992919921875,790.5494384765625,788.1318969726562,784.1025390625
743,795.3846435546875,792.967041015625,785.3113403320312,784.5054931640625
744,795.7875366210938,795.3846435546875,787.7289428710938,785.3113403320312
745,794.1758422851562,790.952392578125,788.5347900390625,791.7582397460938
746,792.5640869140625,793.7728881835938,788.937744140625,790.952392578125
747,787.3259887695312,800.2197875976562,789.3406372070312,791.7582397460938
748,780.0732421875,796.1904907226562,791.7582397460938,792.967041015625
749,779.2673950195312,788.937744140625,792.1611938476562,794.981689453125
750,785.3113403320312,788.5347900390625,790.1465454101562,803.040283203125
751,790.5494384765625,797.3992919921875,792.1611938476562,796.5933837890625
752,789.7435913085938,798.6080322265625,792.967041015625,790.1465454101562
753,790.5494384765625,797.8021850585938,790.5494384765625,790.1465454101562
754,786.1171875,800.2197875976562,792.1611938476562,785.7142944335938
755,782.4908447265625,800.6226806640625,793.7728881835938,788.5347900390625
756,790.5494384765625,795.3846435546875,796.996337890625,802.6373901367188
757,789.7435913085938,793.3699340820312,792.967041015625,801.8314819335938
758,780.4761962890625,793.3699340820312,790.1465454101562,790.1465454101562
759,780.879150390625,788.5347900390625,792.967041015625,789.3406372070312
760,786.923095703125,787.7289428710938,796.996337890625,798.6080322265625
761,789.3406372070312,790.5494384765625,798.6080322265625,813.91943359375
762,790.1465454101562,795.7875366210938,800.6226806640625,819.1575317382812
763,790.5494384765625,799.010986328125,803.4432373046875,809.4871826171875
764,789.3406372070312,792.5640869140625,799.8168334960938,805.8607788085938
765,790.952392578125,787.3259887695312,799.4139404296875,801.8314819335938
766,788.937744140625,794.1758422851562,796.996337890625,791.3552856445312
767,788.937744140625,795.3846435546875,794.1758422851562,784.908447265625
768,789.3406372070312,793.3699340820312,796.1904907226562,785.7142944335938
769,785.7142944335938,796.5933837890625,795.7875366210938,784.1025390625
770,784.908447265625,790.5494384765625,795.7875366210938,782.4908447265625
771,789.3406372070312,787.7289428710938,792.967041015625,788.1318969726562
772,790.5494384765625,794.5787353515625,792.967041015625,792.5640869140625
773,787.3259887695312,796.1904907226562,792.1611938476562,800.6226806640625
774,782.893798828125,796.5933837890625,794.1758422851562,791.7582397460938
775,783.6996459960938,798.6080322265625,797.3992919921875,786.5201416015625
776,792.967041015625,796.1904907226562,794.1758422851562,794.981689453125
777,794.981689453125,797.3992919921875,794.5787353515625,791.7582397460938
778,788.5347900390625,798.6080322265625,792.1611938476562,783.6996459960938
779,788.1318969726562,794.981689453125,786.1171875,790.5494384765625
780,796.5933837890625,793.7728881835938,789.7435913085938,794.5787353515625
781,796.1904907226562,797.3992919921875,792.1611938476562,786.1171875
782,794.5787353515625,799.8168334960938,787.3259887695312,789.3406372070312
783,801.025634765625,799.8168334960938,789.7435913085938,796.1904907226562
784,801.8314819335938,794.1758422851562,794.1758422851562,803.040283203125
785,799.8168334960938,794.981689453125,799.8168334960938,807.069580078125
786,803.4432373046875,799.4139404296875,801.4285888671875,802.2344360351562
787,805.054931640625,795.3846435546875,800.2197875976562,799.4139404296875
788,801.025634765625,791.3552856445312,801.4285888671875,800.6226806640625
789,799.4139404296875,794.981689453125,802.6373901367188,808.2783813476562
790,796.996337890625,805.054931640625,802.2344360351562,813.113525390625
791,797.3992919921875,806.6666870117188,800.2197875976562,806.2637329101562
792,801.4285888671875,799.4139404296875,798.2051391601562,805.4578857421875
793,793.7728881835938,798.2051391601562,796.1904907226562,796.996337890625
794,789.7435913085938,797.3992919921875,793.7728881835938,786.923095703125
795,793.7728881835938,795.3846435546875,793.3699340820312,789.7435913085938
796,796.1904907226562,795.7875366210938,793.3699340820312,791.7582397460938
797,796.1904907226562,798.6080322265625,796.5933837890625,790.1465454101562
798,792.5640869140625,796.1904907226562,795.7875366210938,794.1758422851562
799,786.5201416015625,790.5494384765625,793.3699340820312,802.6373901367188
800,788.5347900390625,792.967041015625,796.1904907226562,800.6226806640625
801,797.8021850585938,794.5787353515625,792.5640869140625,793.3699340820312
802,800.2197875976562,793.7728881835938,787.3259887695312,794.5787353515625
803,794.5787353515625,787.7289428710938,790.952392578125,796.996337890625
804,788.937744140625,794.5787353515625,792.5640869140625,791.3552856445312
805,788.5347900390625,800.6226806640625,792.1611938476562,782.087890625
806,792.5640869140625,795.7875366210938,792.5640869140625,789.3406372070312
807,801.025634765625,796.996337890625,792.1611938476562,806.6666870117188
808,802.2344360351562,799.4139404296875,794.5787353515625,803.8461303710938
809,794.981689453125,792.967041015625,792.967041015625,790.5494384765625
810,796.1904907226562,791.7582397460938,790.5494384765625,790.952392578125
811,799.4139404296875,795.7875366210938,790.5494384765625,793.7728881835938
812,794.1758422851562,794.1758422851562,796.5933837890625,788.937744140625
813,787.7289428710938,793.7728881835938,799.010986328125,793.7728881835938
814,788.1318969726562,792.1611938476562,797.3992919921875,801.4285888671875
815,790.952392578125,786.5201416015625,797.8021850585938,798.6080322265625
816,786.923095703125,788.937744140625,797.8021850585938,795.3846435546875
817,786.5201416015625,797.3992919921875,797.8021850585938,794.5787353515625
818,788.937744140625,799.8168334960938,794.981689453125,792.1611938476562
819,786.923095703125,795.3846435546875,793.3699340820312,793.7728881835938
820,787.3259887695312,791.3552856445312,792.5640869140625,790.1465454101562
821,785.7142944335938,791.3552856445312,792.967041015625,786.1171875
822,790.1465454101562,794.1758422851562,792.967041015625,794.5787353515625
823,792.967041015625,794.5787353515625,789.7435913085938,797.3992919921875
824,787.3259887695312,797.8021850585938,791.7582397460938,785.7142944335938
825,786.923095703125,794.981689453125,795.3846435546875,786.5201416015625
826,791.7582397460938,792.1611938476562,794.981689453125,790.952392578125
827,795.3846435546875,791.7582397460938,791.7582397460938,787.7289428710938
828,792.1611938476562,784.5054931640625,791.3552856445312,787.7289428710938
829,797.3992919921875,792.1611938476562,794.1758422851562,796.5933837890625
830,797.8021850585938,795.7875366210938,794.1758422851562,801.8314819335938
831,787.7289428710938,792.967041015625,791.3552856445312,795.3846435546875
832,787.3259887695312,791.3552856445312,791.3552856445312,791.3552856445312
833,788.937744140625,790.952392578125,792.1611938476562,785.3113403320312
834,787.3259887695312,791.7582397460938,789.7435913085938,788.1318969726562
835,779.6703491210938,790.1465454101562,786.5201416015625,791.7582397460938
836,779.2673950195312,789.7435913085938,790.1465454101562,782.4908447265625
837,784.908447265625,787.7289428710938,792.967041015625,781.6849975585938
838,786.1171875,790.952392578125,798.6080322265625,790.952392578125
839,784.908447265625,791.3552856445312,800.6226806640625,797.3992919921875
840,780.0732421875,784.5054931640625,799.8168334960938,793.3699340820312
841,781.6849975585938,788.1318969726562,801.025634765625,794.1758422851562
842,782.893798828125,794.981689453125,802.2344360351562,794.5787353515625
843,785.3113403320312,792.5640869140625,796.996337890625,790.1465454101562
844,787.3259887695312,790.5494384765625,794.5787353515625,785.7142944335938
845,784.5054931640625,792.5640869140625,792.5640869140625,783.2966918945312
846,781.2820434570312,788.5347900390625,787.3259887695312,786.1171875
847,780.4761962890625,786.1171875,787.7289428710938,778.8644409179688
848,785.7142944335938,786.923095703125,790.952392578125,784.5054931640625
849,787.3259887695312,783.2966918945312,794.5787353515625,792.1611938476562
850,784.1025390625,785.7142944335938,794.1758422851562,792.5640869140625
851,788.937744140625,788.1318969726562,795.3846435546875,799.8168334960938
852,795.7875366210938,784.908447265625,791.7582397460938,794.5787353515625
853,790.5494384765625,786.5201416015625,788.1318969726562,789.7435913085938
854,788.1318969726562,788.937744140625,796.1904907226562,791.7582397460938
855,788.937744140625,786.5201416015625,797.8021850585938,789.7435913085938
856,791.7582397460938,788.1318969726562,790.5494384765625,791.3552856445312
857,792.5640869140625,794.981689453125,786.1171875,795.7875366210938
858,789.7435913085938,798.6080322265625,789.7435913085938,790.5494384765625
859,782.893798828125,794.5787353515625,792.967041015625,780.0732421875
860,778.4615478515625,791.7582397460938,791.7582397460938,780.4761962890625
861,783.2966918945312,788.937744140625,792.967041015625,785.3113403320312
862,787.7289428710938,790.5494384765625,798.6080322265625,786.5201416015625
863,787.3259887695312,791.7582397460938,794.5787353515625,788.5347900390625
864,790.952392578125,788.5347900390625,792.967041015625,789.3406372070312
865,792.5640869140625,793.3699340820312,795.7875366210938,789.3406372070312
866,792.5640869140625,796.5933837890625,793.7728881835938,789.3406372070312
867,794.1758422851562,790.952392578125,792.1611938476562,787.7289428710938
868,795.3846435546875,789.3406372070312,787.3259887695312,784.1025390625
869,792.967041015625,791.3552856445312,788.1318969726562,790.952392578125
870,788.937744140625,794.5787353515625,788.5347900390625,795.3846435546875
871,786.5201416015625,795.7875366210938,785.7142944335938,784.5054931640625
872,786.1171875,796.5933837890625,789.7435913085938,786.923095703125
873,788.1318969726562,797.8021850585938,790.952392578125,794.1758422851562
874,786.5201416015625,799.4139404296875,789.7435913085938,788.1318969726562
875,786.923095703125,794.1758422851562,791.7582397460938,784.908447265625
876,787.3259887695312,788.937744140625,796.1904907226562,793.3699340820312
877,782.893798828125,794.1758422851562,797.8021850585938,791.7582397460938
878,782.087890625,790.5494384765625,794.5787353515625,782.893798828125
879,789.3406372070312,789.7435913085938,794.5787353515625,785.7142944335938
880,785.7142944335938,792.5640869140625,793.3699340820312,795.3846435546875
881,778.8644409179688,792.1611938476562,793.3699340820312,796.996337890625
882,784.5054931640625,790.1465454101562,796.1904907226562,790.1465454101562
883,786.5201416015625,788.937744140625,794.981689453125,788.5347900390625
884,788.1318969726562,793.3699340820312,790.5494384765625,793.3699340820312
885,785.7142944335938,797.8021850585938,793.7728881835938,791.3552856445312
886,782.4908447265625,797.8021850585938,796.996337890625,784.908447265625
887,786.5201416015625,796.1904907226562,794.1758422851562,781.2820434570312
888,788.1318969726562,794.1758422851562,790.1465454101562,784.908447265625
889,788.5347900390625,796.1904907226562,794.5787353515625,786.5201416015625
890,785.3113403320312,798.6080322265625,798.6080322265625,775.6410522460938
891,784.908447265625,796.5933837890625,790.1465454101562,780.4761962890625
892,784.908447265625,789.7435913085938,788.937744140625,788.937744140625
893,784.5054931640625,790.1465454101562,796.5933837890625,786.1171875
894,788.937744140625,791.7582397460938,794.981689453125,790.1465454101562
895,792.1611938476562,792.5640869140625,791.3552856445312,790.1465454101562
896,785.3113403320312,793.7728881835938,790.952392578125,794.5787353515625
897,776.4468994140625,792.1611938476562,788.5347900390625,803.4432373046875
898,780.4761962890625,789.7435913085938,788.5347900390625,792.967041015625
899,786.1171875,788.1318969726562,790.5494384765625,792.5640869140625
900,780.0732421875,788.937744140625,793.7728881835938,802.6373901367188
901,774.029296875,793.3699340820312,794.5787353515625,790.1465454101562
902,774.4322509765625,792.1611938476562,794.981689453125,786.923095703125
903,781.2820434570312,794.1758422851562,799.010986328125,798.6080322265625
904,781.2820434570312,793.3699340820312,794.5787353515625,793.7728881835938
905,778.8644409179688,786.923095703125,788.937744140625,776.4468994140625
906,783.6996459960938,790.5494384765625,790.5494384765625,773.6264038085938
907,784.5054931640625,791.3552856445312,792.5640869140625,789.3406372070312
908,775.2380981445312,788.1318969726562,787.3259887695312,789.7435913085938
909,774.4322509765625,788.937744140625,790.1465454101562,781.6849975585938
910,776.4468994140625,786.923095703125,796.1904907226562,785.7142944335938
911,781.2820434570312,787.7289428710938,790.5494384765625,785.3113403320312
912,779.6703491210938,790.5494384765625,786.1171875,782.4908447265625
913,775.6410522460938,790.1465454101562,787.7289428710938,779.2673950195312
914,785.3113403320312,785.3113403320312,787.7289428710938,778.05859375
915,791.3552856445312,786.1171875,789.7435913085938,782.4908447265625
916,788.5347900390625,791.7582397460938,788.937744140625,789.3406372070312
917,787.7289428710938,794.5787353515625,786.923095703125,789.7435913085938
918,789.7435913085938,787.7289428710938,788.5347900390625,792.1611938476562
919,792.1611938476562,788.1318969726562,794.5787353515625,799.4139404296875
920,792.5640869140625,798.2051391601562,794.5787353515625,804.2490844726562
921,792.1611938476562,796.996337890625,794.5787353515625,810.6959838867188
922,792.1611938476562,792.967041015625,796.1904907226562,810.2930297851562
923,792.1611938476562,791.3552856445312,794.1758422851562,801.025634765625
924,791.7582397460938,787.7289428710938,790.952392578125,796.996337890625
925,794.1758422851562,791.7582397460938,790.1465454101562,799.4139404296875
926,803.040283203125,799.4139404296875,788.5347900390625,802.6373901367188
927,803.4432373046875,796.996337890625,787.3259887695312,803.040283203125
928,803.4432373046875,797.3992919921875,790.1465454101562,802.2344360351562
929,797.8021850585938,798.6080322265625,794.5787353515625,794.5787353515625
930,791.3552856445312,795.7875366210938,796.1904907226562,786.1171875
931,790.5494384765625,787.3259887695312,795.7875366210938,784.5054931640625
932,790.1465454101562,785.7142944335938,794.981689453125,789.3406372070312
933,783.6996459960938,785.3113403320312,792.5640869140625,791.7582397460938
934,789.7435913085938,784.5054931640625,793.7728881835938,798.6080322265625
935,799.8168334960938,793.7728881835938,797.8021850585938,799.8168334960938
936,802.2344360351562,794.981689453125,796.5933837890625,793.7728881835938
937,806.2637329101562,795.3846435546875,796.1904907226562,792.5640869140625
938,804.2490844726562,797.8021850585938,796.1904907226562,799.4139404296875
939,793.7728881835938,793.3699340820312,794.1758422851562,795.7875366210938
940,796.996337890625,788.5347900390625,799.4139404296875,788.1318969726562
941,804.2490844726562,792.967041015625,799.8168334960938,796.1904907226562
942,805.4578857421875,796.1904907226562,794.981689453125,806.2637329101562
943,801.025634765625,794.1758422851562,795.3846435546875,800.6226806640625
944,796.5933837890625,794.1758422851562,796.1904907226562,794.981689453125
945,797.3992919921875,795.3846435546875,797.3992919921875,800.2197875976562
946,797.3992919921875,795.3846435546875,801.025634765625,804.2490844726562
947,794.1758422851562,794.1758422851562,799.8168334960938,802.6373901367188
948,796.5933837890625,798.6080322265625,796.5933837890625,799.010986328125
949,798.6080322265625,802.6373901367188,800.2197875976562,800.2197875976562
950,795.3846435546875,802.2344360351562,799.010986328125,801.025634765625
951,799.8168334960938,799.010986328125,795.7875366210938,794.5787353515625
952,803.4432373046875,800.6226806640625,793.7728881835938,798.2051391601562
953,796.5933837890625,801.4285888671875,792.967041015625,805.8607788085938
954,787.3259887695312,799.4139404296875,797.3992919921875,797.8021850585938
955,788.5347900390625,798.2051391601562,801.025634765625,787.7289428710938
956,792.5640869140625,796.5933837890625,794.5787353515625,782.893798828125
957,783.6996459960938,794.981689453125,792.1611938476562,786.1171875
958,774.8351440429688,789.7435913085938,797.8021850585938,792.1611938476562
959,777.6557006835938,786.5201416015625,794.1758422851562,786.923095703125
960,786.5201416015625,796.1904907226562,787.7289428710938,789.3406372070312
961,792.1611938476562,801.4285888671875,788.5347900390625,796.5933837890625
962,783.2966918945312,797.8021850585938,791.7582397460938,787.3259887695312
963,780.4761962890625,793.7728881835938,793.3699340820312,791.3552856445312
964,789.3406372070312,792.5640869140625,792.967041015625,803.4432373046875
965,793.7728881835938,792.1611938476562,794.981689453125,810.2930297851562
966,792.5640869140625,797.3992919921875,799.4139404296875,803.8461303710938
967,786.923095703125,799.8168334960938,802.6373901367188,797.3992919921875
968,788.5347900390625,794.981689453125,802.6373901367188,799.4139404296875
969,787.7289428710938,790.952392578125,799.4139404296875,801.025634765625
970,787.3259887695312,794.1758422851562,795.7875366210938,797.8021850585938
971,793.7728881835938,796.5933837890625,796.996337890625,796.1904907226562
972,790.5494384765625,794.1758422851562,796.5933837890625,801.025634765625
973,788.937744140625,789.7435913085938,796.5933837890625,801.8314819335938
974,786.5201416015625,784.5054931640625,798.2051391601562,798.2051391601562
975,784.5054931640625,788.937744140625,796.5933837890625,790.1465454101562
976,792.1611938476562,794.5787353515625,795.3846435546875,792.1611938476562
977,793.3699340820312,790.5494384765625,794.5787353515625,799.010986328125
978,789.3406372070312,789.3406372070312,799.4139404296875,796.1904907226562
979,787.7289428710938,793.3699340820312,798.6080322265625,799.4139404296875
980,786.923095703125,790.5494384765625,791.7582397460938,799.4139404296875
981,793.7728881835938,793.7728881835938,793.3699340820312,799.4139404296875
982,799.8168334960938,792.967041015625,793.7728881835938,793.3699340820312
983,796.1904907226562,789.7435913085938,793.7728881835938,791.3552856445312
984,795.3846435546875,791.3552856445312,792.967041015625,797.8021850585938
985,793.3699340820312,790.5494384765625,790.1465454101562,793.7728881835938
986,784.908447265625,791.3552856445312,791.3552856445312,786.5201416015625
987,787.3259887695312,788.937744140625,790.1465454101562,788.937744140625
988,793.7728881835938,789.3406372070312,790.952392578125,795.7875366210938
989,784.908447265625,794.981689453125,790.1465454101562,790.1465454101562
990,780.879150390625,795.3846435546875,783.2966918945312,784.1025390625
991,788.937744140625,791.7582397460938,785.7142944335938,791.3552856445312
992,797.8021850585938,792.967041015625,790.1465454101562,797.8021850585938
993,795.7875366210938,790.1465454101562,788.937744140625,791.7582397460938
994,791.3552856445312,786.923095703125,792.1611938476562,791.7582397460938
995,790.952392578125,785.3113403320312,789.3406372070312,788.937744140625
996,789.3406372070312,780.0732421875,789.7435913085938,786.923095703125
997,792.5640869140625,786.1171875,799.010986328125,796.996337890625
998,794.981689453125,793.3699340820312,798.6080322265625,800.2197875976562
999,791.3552856445312,788.937744140625,796.1904907226562,799.4139404296875
1000,788.937744140625,790.1465454101562,794.1758422851562,786.923095703125
1001,792.5640869140625,792.1611938476562,793.7728881835938,779.6703491210938
1002,793.3699340820312,788.1318969726562,794.1758422851562,786.5201416015625
1003,791.3552856445312,783.2966918945312,789.3406372070312,798.2051391601562
1004,793.3699340820312,792.5640869140625,790.5494384765625,798.2051391601562
1005,795.7875366210938,794.5787353515625,796.1904907226562,790.5494384765625
1006,796.5933837890625,789.3406372070312,796.1904907226562,792.1611938476562
1007,796.996337890625,792.967041015625,794.981689453125,794.981689453125
1008,795.3846435546875,797.8021850585938,796.996337890625,793.3699340820312
1009,790.1465454101562,799.010986328125,797.3992919921875,790.5494384765625
1010,790.5494384765625,794.981689453125,796.1904907226562,800.6226806640625
1011,790.1465454101562,795.3846435546875,795.3846435546875,800.2197875976562
1012,787.7289428710938,798.6080322265625,794.1758422851562,793.3699340820312
1013,792.1611938476562,795.7875366210938,793.7728881835938,793.7728881835938
1014,790.5494384765625,788.5347900390625,792.5640869140625,796.1904907226562
1015,794.1758422851562,789.7435913085938,794.981689453125,799.8168334960938
1016,790.5494384765625,792.967041015625,796.1904907226562,795.3846435546875
1017,786.923095703125,786.5201416015625,791.7582397460938,794.5787353515625
1018,794.981689453125,788.1318969726562,790.1465454101562,796.996337890625
1019,793.7728881835938,794.5787353515625,794.981689453125,792.967041015625
1020,786.5201416015625,795.7875366210938,792.967041015625,792.5640869140625
1021,785.7142944335938,796.996337890625,790.952392578125,800.2197875976562
1022,785.3113403320312,796.5933837890625,790.1465454101562,797.3992919921875
1023,785.7142944335938,796.1904907226562,787.3259887695312,793.3699340820312
1024,791.7582397460938,796.996337890625,789.3406372070312,789.3406372070312
1025,795.7875366210938,799.010986328125,790.952392578125,788.937744140625
1026,792.5640869140625,794.5787353515625,788.1318969726562,792.967041015625
1027,787.3259887695312,790.1465454101562,790.1465454101562,793.7728881835938
1028,785.7142944335938,790.1465454101562,793.7728881835938,791.3552856445312
1029,784.1025390625,793.7728881835938,795.3846435546875,793.7728881835938
1030,780.0732421875,789.7435913085938,796.996337890625,795.7875366210938
1031,785.3113403320312,787.7289428710938,793.7728881835938,801.4285888671875
1032,791.7582397460938,791.7582397460938,796.5933837890625,799.010986328125
1033,788.937744140625,787.7289428710938,797.3992919921875,794.981689453125
1034,787.7289428710938,793.3699340820312,793.7728881835938,797.3992919921875
1035,789.7435913085938,801.4285888671875,792.967041015625,793.7728881835938
1036,786.5201416015625,797.3992919921875,791.7582397460938,790.1465454101562
1037,786.1171875,795.3846435546875,791.7582397460938,792.1611938476562
1038,788.1318969726562,796.5933837890625,794.5787353515625,799.010986328125
1039,788.5347900390625,797.3992919921875,797.3992919921875,795.3846435546875
1040,786.923095703125,799.4139404296875,796.1904907226562,796.5933837890625
1041,789.7435913085938,794.5787353515625,795.3846435546875,802.2344360351562
1042,791.7582397460938,786.5201416015625,796.1904907226562,792.5640869140625
1043,792.967041015625,792.1611938476562,790.1465454101562,786.1171875
1044,795.7875366210938,795.3846435546875,786.923095703125,787.7289428710938
1045,795.7875366210938,794.1758422851562,788.5347900390625,789.3406372070312
1046,795.7875366210938,790.1465454101562,788.937744140625,786.923095703125
1047,794.1758422851562,792.5640869140625,787.7289428710938,786.923095703125
1048,794.1758422851562,798.2051391601562,784.1025390625,790.1465454101562
1049,794.5787353515625,799.4139404296875,786.5201416015625,801.4285888671875
1050,790.1465454101562,797.3992919921875,787.7289428710938,808.2783813476562
1051,789.7435913085938,792.967041015625,788.5347900390625,801.025634765625
1052,791.7582397460938,791.3552856445312,786.5201416015625,797.3992919921875
1053,789.3406372070312,791.7582397460938,788.5347900390625,802.6373901367188
1054,786.923095703125,793.7728881835938,788.1318969726562,804.6520385742188
1055,785.7142944335938,792.5640869140625,781.2820434570312,804.2490844726562
1056,786.1171875,786.5201416015625,788.937744140625,805.054931640625
1057,785.7142944335938,786.5201416015625,796.1904907226562,798.6080322265625
1058,784.5054931640625,791.7582397460938,793.3699340820312,791.7582397460938
1059,786.1171875,792.967041015625,792.1611938476562,791.7582397460938
1060,786.923095703125,795.3846435546875,786.5201416015625,794.981689453125
1061,785.3113403320312,796.996337890625,792.1611938476562,797.8021850585938
1062,784.1025390625,801.025634765625,794.5787353515625,799.010986328125
1063,787.3259887695312,804.2490844726562,793.7728881835938,797.8021850585938
1064,793.7728881835938,799.010986328125,796.1904907226562,794.1758422851562
1065,789.7435913085938,794.981689453125,792.1611938476562,794.981689453125
1066,783.6996459960938,801.025634765625,794.981689453125,788.5347900390625
1067,788.937744140625,801.025634765625,800.6226806640625,777.6557006835938
1068,796.5933837890625,799.8168334960938,802.2344360351562,779.6703491210938
1069,794.981689453125,802.2344360351562,794.1758422851562,776.0439453125
1070,794.1758422851562,800.2197875976562,792.1611938476562,770.8058471679688
1071,799.8168334960938,798.6080322265625,796.1904907226562,776.8497924804688
1072,801.4285888671875,794.981689453125,790.5494384765625,788.1318969726562
1073,797.3992919921875,795.3846435546875,790.952392578125,788.5347900390625
1074,791.7582397460938,796.5933837890625,792.1611938476562,783.2966918945312
1075,787.3259887695312,792.1611938476562,789.3406372070312,787.3259887695312
1076,792.5640869140625,790.1465454101562,792.5640869140625,798.2051391601562
1077,795.3846435546875,798.2051391601562,796.1904907226562,802.6373901367188
1078,794.981689453125,800.6226806640625,792.967041015625,795.3846435546875
1079,796.996337890625,796.5933837890625,793.3699340820312,792.967041015625
1080,798.2051391601562,792.967041015625,795.3846435546875,797.8021850585938
1081,788.5347900390625,789.3406372070312,791.3552856445312,799.010986328125
1082,781.6849975585938,792.1611938476562,794.1758422851562,804.2490844726562
1083,789.3406372070312,791.7582397460938,802.2344360351562,807.4725341796875
1084,794.981689453125,789.3406372070312,801.8314819335938,809.084228515625
1085,792.1611938476562,791.7582397460938,800.2197875976562,803.8461303710938
1086,792.5640869140625,794.1758422851562,799.4139404296875,796.1904907226562
1087,799.4139404296875,792.5640869140625,795.7875366210938,800.2197875976562
1088,799.010986328125,796.1904907226562,793.7728881835938,801.025634765625
1089,796.1904907226562,799.4139404296875,794.1758422851562,792.967041015625
1090,800.6226806640625,800.2197875976562,796.5933837890625,793.7728881835938
1091,801.4285888671875,797.8021850585938,796.996337890625,794.5787353515625
1092,796.1904907226562,796.1904907226562,797.3992919921875,789.3406372070312
1093,788.5347900390625,796.996337890625,794.1758422851562,787.7289428710938
1094,783.2966918945312,794.5787353515625,788.1318969726562,783.6996459960938
1095,788.5347900390625,794.5787353515625,786.923095703125,788.5347900390625
1096,790.1465454101562,798.2051391601562,788.5347900390625,790.5494384765625
1097,784.5054931640625,798.6080322265625,792.967041015625,789.7435913085938
1098,785.7142944335938,799.010986328125,796.1904907226562,796.5933837890625
1099,790.952392578125,792.967041015625,791.7582397460938,796.1904907226562
1100,788.1318969726562,791.7582397460938,788.1318969726562,794.5787353515625
1101,788.1318969726562,794.981689453125,794.981689453125,804.2490844726562
1102,787.7289428710938,790.952392578125,798.6080322265625,803.040283203125
1103,780.0732421875,787.7289428710938,798.6080322265625,795.3846435546875
1104,780.0732421875,790.5494384765625,799.010986328125,791.7582397460938
1105,784.5054931640625,786.1171875,790.952392578125,793.3699340820312
1106,789.3406372070312,784.1025390625,790.952392578125,796.996337890625
1107,794.1758422851562,790.1465454101562,797.3992919921875,793.7728881835938
1108,792.967041015625,790.1465454101562,794.981689453125,789.3406372070312
1109,790.1465454101562,788.1318969726562,792.967041015625,789.3406372070312
1110,797.3992919921875,789.7435913085938,796.1904907226562,799.4139404296875
1111,799.4139404296875,790.1465454101562,793.7728881835938,805.8607788085938
1112,788.937744140625,791.3552856445312,789.7435913085938,796.1904907226562
1113,784.1025390625,789.7435913085938,790.1465454101562,785.3113403320312
1114,791.7582397460938,792.967041015625,790.5494384765625,790.1465454101562
1115,798.2051391601562,795.3846435546875,789.3406372070312,797.8021850585938
1116,791.7582397460938,792.1611938476562,794.5787353515625,788.5347900390625
1117,788.1318969726562,792.967041015625,797.3992919921875,788.5347900390625
1118,794.1758422851562,794.981689453125,795.3846435546875,798.6080322265625
1119,797.8021850585938,792.5640869140625,794.1758422851562,793.3699340820312
1120,794.981689453125,786.1171875,792.1611938476562,784.908447265625
1121,795.7875366210938,792.5640869140625,794.5787353515625,790.5494384765625
1122,794.1758422851562,795.3846435546875,795.3846435546875,803.040283203125
1123,792.1611938476562,792.967041015625,796.5933837890625,803.8461303710938
1124,794.1758422851562,794.5787353515625,796.5933837890625,798.6080322265625
1125,794.981689453125,799.010986328125,796.996337890625,802.2344360351562
1126,792.5640869140625,799.4139404296875,797.8021850585938,801.025634765625
1127,790.1465454101562,796.5933837890625,796.5933837890625,795.3846435546875
1128,788.1318969726562,792.1611938476562,797.8021850585938,792.967041015625
1129,788.937744140625,783.2966918945312,796.996337890625,799.8168334960938
1130,790.5494384765625,786.923095703125,794.1758422851562,809.4871826171875
1131,793.7728881835938,789.3406372070312,791.3552856445312,800.2197875976562
1132,795.3846435546875,791.7582397460938,792.5640869140625,792.5640869140625
1133,792.967041015625,797.3992919921875,796.1904907226562,798.6080322265625
1134,795.7875366210938,797.3992919921875,796.1904907226562,802.6373901367188
1135,791.3552856445312,800.2197875976562,796.1904907226562,790.1465454101562
1136,790.952392578125,802.6373901367188,796.5933837890625,789.7435913085938
1137,794.1758422851562,801.025634765625,794.5787353515625,798.2051391601562
1138,790.952392578125,795.3846435546875,792.5640869140625,792.1611938476562
1139,794.5787353515625,794.1758422851562,790.952392578125,793.7728881835938
1140,793.7728881835938,798.6080322265625,790.5494384765625,793.7728881835938
1141,792.5640869140625,793.7728881835938,793.3699340820312,792.5640869140625
1142,794.1758422851562,792.1611938476562,789.7435913085938,796.996337890625
1143,786.5201416015625,791.7582397460938,790.1465454101562,796.996337890625
1144,781.6849975585938,792.967041015625,792.967041015625,791.3552856445312
1145,786.923095703125,791.3552856445312,791.3552856445312,793.3699340820312
1146,790.5494384765625,790.952392578125,794.1758422851562,795.3846435546875
1147,792.1611938476562,798.6080322265625,797.3992919921875,791.7582397460938
1148,795.7875366210938,797.8021850585938,796.1904907226562,798.2051391601562
1149,792.5640869140625,792.967041015625,794.981689453125,791.7582397460938
1150,788.937744140625,793.3699340820312,794.1758422851562,782.087890625
1151,791.3552856445312,792.967041015625,795.7875366210938,786.923095703125
1152,796.1904907226562,792.1611938476562,799.010986328125,788.937744140625
1153,794.5787353515625,793.7728881835938,796.996337890625,781.6849975585938
1154,789.3406372070312,796.5933837890625,790.1465454101562,783.2966918945312
1155,793.3699340820312,793.3699340820312,792.967041015625,788.5347900390625
1156,797.8021850585938,792.1611938476562,797.8021850585938,789.7435913085938
1157,795.3846435546875,785.7142944335938,792.1611938476562,794.5787353515625
1158,790.1465454101562,782.087890625,793.3699340820312,788.1318969726562
1159,787.7289428710938,788.1318969726562,796.5933837890625,788.1318969726562
1160,792.1611938476562,794.981689453125,792.967041015625,795.3846435546875
1161,798.2051391601562,796.5933837890625,794.5787353515625,796.1904907226562
1162,795.7875366210938,793.7728881835938,796.5933837890625,797.3992919921875
1163,790.952392578125,791.3552856445312,793.3699340820312,798.2051391601562
1164,788.937744140625,786.923095703125,790.5494384765625,798.6080322265625
1165,785.3113403320312,787.7289428710938,794.981689453125,798.2051391601562
1166,786.1171875,793.3699340820312,797.3992919921875,798.2051391601562
1167,790.1465454101562,788.937744140625,799.010986328125,799.8168334960938
1168,790.952392578125,786.1171875,796.5933837890625,799.4139404296875
1169,783.6996459960938,789.3406372070312,792.967041015625,796.996337890625
1170,781.2820434570312,788.937744140625,797.3992919921875,798.2051391601562
1171,787.7289428710938,790.1465454101562,799.010986328125,796.1904907226562
1172,794.1758422851562,788.1318969726562,794.1758422851562,795.3846435546875
1173,789.7435913085938,788.937744140625,794.981689453125,794.981689453125
1174,786.923095703125,795.3846435546875,801.025634765625,797.3992919921875
1175,785.3113403320312,794.981689453125,799.4139404296875,799.8168334960938
1176,785.3113403320312,790.952392578125,796.5933837890625,796.1904907226562
1177,790.952392578125,789.7435913085938,795.3846435546875,793.3699340820312
1178,796.1904907226562,794.981689453125,798.2051391601562,795.3846435546875
1179,798.6080322265625,793.7728881835938,803.4432373046875,800.2197875976562
1180,799.4139404296875,792.5640869140625,801.8314819335938,805.054931640625
1181,799.4139404296875,798.6080322265625,801.025634765625,808.2783813476562
1182,796.996337890625,800.6226806640625,803.4432373046875,801.025634765625
1183,795.7875366210938,803.4432373046875,801.4285888671875,800.2197875976562
1184,796.1904907226562,797.3992919921875,802.2344360351562,805.4578857421875
1185,792.967041015625,782.893798828125,805.8607788085938,800.6226806640625
1186,787.7289428710938,782.4908447265625,803.8461303710938,799.010986328125
1187,790.1465454101562,792.5640869140625,804.2490844726562,802.2344360351562
1188,795.3846435546875,798.2051391601562,802.2344360351562,799.010986328125
1189,794.1758422851562,795.7875366210938,795.3846435546875,792.967041015625
1190,792.967041015625,790.5494384765625,797.8021850585938,791.7582397460938
1191,790.5494384765625,792.1611938476562,800.2197875976562,796.1904907226562
1192,792.1611938476562,796.996337890625,801.025634765625,797.8021850585938
1193,790.952392578125,802.2344360351562,802.2344360351562,797.8021850585938
1194,785.7142944335938,796.5933837890625,799.010986328125,802.2344360351562
1195,788.937744140625,790.5494384765625,792.5640869140625,809.89013671875
1196,790.1465454101562,798.2051391601562,795.3846435546875,809.084228515625
1197,790.952392578125,798.2051391601562,801.4285888671875,803.040283203125
1198,792.1611938476562,793.7728881835938,795.7875366210938,796.5933837890625
1199,790.952392578125,796.996337890625,792.1611938476562,790.952392578125
1200,792.967041015625,790.952392578125,794.981689453125,788.1318969726562
1201,792.967041015625,789.7435913085938,796.5933837890625,790.1465454101562
1202,788.5347900390625,790.952392578125,798.6080322265625,792.1611938476562
1203,789.7435913085938,792.5640869140625,793.7728881835938,793.3699340820312
1204,790.952392578125,794.1758422851562,785.7142944335938,796.996337890625
1205,794.1758422851562,797.8021850585938,791.3552856445312,794.5787353515625
1206,795.3846435546875,799.8168334960938,794.981689453125,788.5347900390625
1207,799.010986328125,796.1904907226562,795.7875366210938,794.5787353515625
1208,804.2490844726562,795.7875366210938,799.010986328125,794.5787353515625
1209,799.010986328125,794.981689453125,799.4139404296875,794.981689453125
1210,790.5494384765625,791.3552856445312,795.3846435546875,790.1465454101562
1211,796.5933837890625,788.937744140625,796.5933837890625,786.5201416015625
1212,799.4139404296875,788.5347900390625,797.3992919921875,787.7289428710938
1213,792.1611938476562,786.5201416015625,796.5933837890625,784.908447265625
1214,786.1171875,782.4908447265625,796.996337890625,788.5347900390625
1215,778.05859375,789.3406372070312,797.3992919921875,791.7582397460938
1216,779.2673950195312,790.952392578125,801.025634765625,795.7875366210938
1217,786.1171875,792.1611938476562,804.2490844726562,798.2051391601562
1218,788.1318969726562,791.7582397460938,797.8021850585938,801.8314819335938
1219,787.3259887695312,790.1465454101562,799.010986328125,807.87548828125
1220,787.7289428710938,799.4139404296875,804.6520385742188,797.8021850585938
1221,792.5640869140625,801.4285888671875,801.4285888671875,792.5640869140625
1222,794.5787353515625,793.7728881835938,801.4285888671875,791.7582397460938
1223,796.1904907226562,791.3552856445312,800.6226806640625,792.5640869140625
1224,792.5640869140625,790.952392578125,799.4139404296875,791.3552856445312
1225,785.3113403320312,788.5347900390625,793.7728881835938,784.908447265625
1226,785.7142944335938,788.937744140625,790.952392578125,795.7875366210938
1227,786.1171875,788.5347900390625,795.7875366210938,801.4285888671875
1228,786.5201416015625,787.7289428710938,797.8021850585938,790.952392578125
1229,783.6996459960938,790.952392578125,794.5787353515625,791.7582397460938
1230,785.7142944335938,794.981689453125,797.8021850585938,805.054931640625
1231,791.3552856445312,796.996337890625,796.1904907226562,794.981689453125
1232,788.5347900390625,795.3846435546875,790.952392578125,779.6703491210938
1233,787.7289428710938,797.8021850585938,794.981689453125,791.3552856445312
1234,788.1318969726562,798.2051391601562,800.2197875976562,801.8314819335938
1235,788.1318969726562,793.3699340820312,797.8021850585938,795.3846435546875
1236,791.7582397460938,790.1465454101562,798.2051391601562,793.3699340820312
1237,795.3846435546875,788.937744140625,799.4139404296875,797.3992919921875
1238,790.5494384765625,791.3552856445312,795.7875366210938,789.7435913085938
1239,782.893798828125,791.3552856445312,794.1758422851562,784.5054931640625
1240,779.6703491210938,782.893798828125,795.3846435546875,786.923095703125
1241,781.6849975585938,781.6849975585938,791.7582397460938,792.967041015625
1242,781.2820434570312,796.1904907226562,790.1465454101562,798.2051391601562
1243,777.6557006835938,801.8314819335938,790.1465454101562,789.7435913085938
1244,784.5054931640625,799.4139404296875,791.3552856445312,788.5347900390625
1245,788.5347900390625,799.4139404296875,790.5494384765625,797.3992919921875
1246,784.5054931640625,798.6080322265625,789.3406372070312,796.5933837890625
1247,783.2966918945312,794.981689453125,790.952392578125,788.1318969726562
1248,785.7142944335938,792.967041015625,790.5494384765625,783.6996459960938
1249,789.7435913085938,792.1611938476562,792.5640869140625,785.3113403320312
1250,788.937744140625,786.1171875,792.5640869140625,787.3259887695312
1251,791.3552856445312,786.1171875,791.7582397460938,797.8021850585938
1252,800.6226806640625,793.3699340820312,798.6080322265625,804.6520385742188
1253,804.6520385742188,801.025634765625,799.010986328125,805.8607788085938
1254,803.4432373046875,811.098876953125,795.7875366210938,805.054931640625
1255,798.2051391601562,807.069580078125,794.5787353515625,801.8314819335938
1256,786.5201416015625,794.1758422851562,794.1758422851562,795.3846435546875
1257,779.6703491210938,790.1465454101562,795.7875366210938,790.952392578125
1258,780.879150390625,794.1758422851562,793.7728881835938,790.1465454101562
1259,784.908447265625,800.2197875976562,796.1904907226562,798.2051391601562
1260,788.5347900390625,795.3846435546875,797.8021850585938,800.6226806640625
1261,792.5640869140625,791.3552856445312,793.7728881835938,799.8168334960938
1262,792.967041015625,796.1904907226562,792.5640869140625,800.6226806640625
1263,792.967041015625,799.8168334960938,795.7875366210938,797.8021850585938
1264,790.5494384765625,796.1904907226562,794.981689453125,796.5933837890625
1265,787.7289428710938,793.7728881835938,791.3552856445312,790.1465454101562
1266,784.1025390625,795.3846435546875,794.1758422851562,783.2966918945312
1267,784.908447265625,795.7875366210938,795.7875366210938,788.937744140625
1268,791.3552856445312,790.5494384765625,791.7582397460938,789.7435913085938
1269,789.3406372070312,790.5494384765625,792.967041015625,781.6849975585938
1270,788.5347900390625,796.1904907226562,794.1758422851562,781.6849975585938
1271,793.7728881835938,795.7875366210938,798.2051391601562,789.3406372070312
1272,792.1611938476562,792.5640869140625,796.5933837890625,795.7875366210938
1273,788.937744140625,795.7875366210938,791.7582397460938,792.1611938476562
1274,789.3406372070312,800.6226806640625,794.981689453125,787.3259887695312
1275,794.1758422851562,800.6226806640625,800.6226806640625,793.7728881835938
1276,796.5933837890625,798.6080322265625,803.040283203125,805.054931640625
1277,794.1758422851562,794.1758422851562,799.4139404296875,803.040283203125
1278,792.5640869140625,792.1611938476562,796.5933837890625,799.010986328125
1279,792.5640869140625,798.2051391601562,796.1904907226562,800.6226806640625
1280,795.7875366210938,803.040283203125,799.4139404296875,802.6373901367188
1281,792.1611938476562,792.967041015625,801.025634765625,796.5933837890625
1282,786.923095703125,790.1465454101562,794.981689453125,792.5640869140625
1283,791.3552856445312,795.7875366210938,794.5787353515625,789.3406372070312
1284,788.937744140625,798.2051391601562,795.3846435546875,787.3259887695312
1285,789.7435913085938,800.2197875976562,792.967041015625,792.5640869140625
1286,793.7728881835938,796.1904907226562,790.1465454101562,791.7582397460938
1287,792.1611938476562,795.3846435546875,790.952392578125,796.5933837890625
1288,789.7435913085938,797.3992919921875,791.3552856445312,793.3699340820312
1289,791.3552856445312,799.010986328125,794.981689453125,785.3113403320312
1290,801.025634765625,799.8168334960938,798.6080322265625,793.3699340820312
1291,798.6080322265625,793.7728881835938,794.1758422851562,801.8314819335938
1292,787.7289428710938,793.3699340820312,790.5494384765625,799.4139404296875
1293,784.5054931640625,794.1758422851562,792.967041015625,790.5494384765625
1294,786.1171875,793.7728881835938,792.967041015625,788.5347900390625
1295,790.5494384765625,790.5494384765625,788.1318969726562,789.7435913085938
1296,793.3699340820312,793.7728881835938,790.5494384765625,792.5640869140625
1297,787.3259887695312,794.1758422851562,792.967041015625,797.3992919921875
1298,786.5201416015625,792.967041015625,789.7435913085938,794.1758422851562
1299,790.952392578125,795.3846435546875,785.7142944335938,799.010986328125
1300,787.7289428710938,798.6080322265625,787.7289428710938,801.4285888671875
1301,789.3406372070312,800.2197875976562,793.7728881835938,800.2197875976562
1302,794.5787353515625,794.5787353515625,796.1904907226562,803.4432373046875
1303,792.967041015625,794.1758422851562,796.5933837890625,804.2490844726562
1304,790.952392578125,800.2197875976562,796.5933837890625,793.3699340820312
1305,788.937744140625,797.3992919921875,796.1904907226562,787.7289428710938
1306,784.1025390625,796.5933837890625,796.5933837890625,786.5201416015625
1307,785.3113403320312,796.996337890625,793.7728881835938,782.087890625
1308,784.5054931640625,788.1318969726562,794.1758422851562,779.2673950195312
1309,782.4908447265625,789.7435913085938,795.3846435546875,778.05859375
1310,790.952392578125,794.981689453125,794.5787353515625,782.4908447265625
1311,788.5347900390625,793.7728881835938,790.1465454101562,785.7142944335938
1312,780.0732421875,792.5640869140625,790.5494384765625,787.3259887695312
1313,783.2966918945312,793.7728881835938,795.7875366210938,789.3406372070312
1314,791.7582397460938,791.3552856445312,793.3699340820312,796.996337890625
1315,793.3699340820312,794.1758422851562,793.7728881835938,799.8168334960938
1316,790.952392578125,796.996337890625,799.010986328125,788.937744140625
1317,794.5787353515625,793.7728881835938,800.6226806640625,790.1465454101562
1318,796.5933837890625,790.1465454101562,800.6226806640625,792.967041015625
1319,799.010986328125,790.952392578125,798.2051391601562,794.1758422851562
1320,801.025634765625,790.5494384765625,796.5933837890625,796.1904907226562
1321,798.6080322265625,787.3259887695312,792.5640869140625,793.7728881835938
1322,790.1465454101562,791.7582397460938,790.952392578125,794.1758422851562
1323,783.2966918945312,796.996337890625,789.7435913085938,791.7582397460938
1324,782.087890625,801.025634765625,790.1465454101562,790.5494384765625
1325,788.5347900390625,798.6080322265625,795.3846435546875,797.8021850585938
1326,788.5347900390625,791.3552856445312,794.981689453125,802.2344360351562
1327,785.3113403320312,791.7582397460938,795.3846435546875,793.7728881835938
1328,789.3406372070312,793.3699340820312,796.996337890625,791.3552856445312
1329,791.3552856445312,790.1465454101562,800.6226806640625,792.5640869140625
1330,784.1025390625,789.7435913085938,795.3846435546875,786.923095703125
1331,786.923095703125,798.6080322265625,790.952392578125,788.5347900390625
1332,796.1904907226562,796.5933837890625,795.7875366210938,788.1318969726562
1333,788.5347900390625,789.7435913085938,795.3846435546875,784.908447265625
1334,784.908447265625,794.5787353515625,796.1904907226562,783.6996459960938
1335,792.967041015625,799.8168334960938,793.7728881835938,783.6996459960938
1336,794.981689453125,797.3992919921875,794.1758422851562,786.923095703125
1337,794.1758422851562,796.5933837890625,795.3846435546875,797.8021850585938
1338,794.1758422851562,802.2344360351562,797.3992919921875,801.8314819335938
1339,794.981689453125,798.2051391601562,798.2051391601562,796.1904907226562
1340,796.1904907226562,790.1465454101562,797.8021850585938,800.2197875976562
1341,792.967041015625,791.3552856445312,798.2051391601562,801.8314819335938
1342,793.7728881835938,797.8021850585938,795.3846435546875,799.8168334960938
1343,794.5787353515625,801.025634765625,794.5787353515625,790.5494384765625
1344,796.1904907226562,798.2051391601562,797.8021850585938,789.3406372070312
1345,797.8021850585938,798.2051391601562,797.8021850585938,794.5787353515625
1346,799.4139404296875,796.5933837890625,792.5640869140625,796.996337890625
1347,797.8021850585938,791.7582397460938,792.967041015625,802.6373901367188
1348,794.5787353515625,789.3406372070312,796.1904907226562,805.8607788085938
1349,798.2051391601562,790.952392578125,793.3699340820312,809.084228515625
1350,802.2344360351562,795.3846435546875,790.952392578125,796.5933837890625
1351,803.040283203125,797.3992919921875,792.967041015625,792.1611938476562
1352,796.996337890625,789.3406372070312,795.7875366210938,793.3699340820312
1353,788.937744140625,783.6996459960938,796.5933837890625,793.7728881835938
1354,788.1318969726562,790.1465454101562,794.1758422851562,798.2051391601562
1355,795.7875366210938,794.1758422851562,790.5494384765625,797.8021850585938
1356,801.8314819335938,796.5933837890625,792.5640869140625,795.7875366210938
1357,800.6226806640625,794.981689453125,790.1465454101562,794.1758422851562
1358,793.3699340820312,789.3406372070312,788.1318969726562,790.5494384765625
1359,791.3552856445312,789.7435913085938,788.5347900390625,787.3259887695312
1360,790.5494384765625,785.3113403320312,784.1025390625,788.937744140625
1361,788.1318969726562,786.5201416015625,786.923095703125,800.2197875976562
1362,790.1465454101562,791.3552856445312,792.1611938476562,799.4139404296875
1363,786.923095703125,787.7289428710938,792.967041015625,789.7435913085938
1364,787.7289428710938,789.3406372070312,796.5933837890625,791.3552856445312
1365,787.7289428710938,790.1465454101562,799.4139404296875,796.1904907226562
1366,789.7435913085938,788.1318969726562,793.7728881835938,795.7875366210938
1367,793.7728881835938,794.5787353515625,790.5494384765625,796.1904907226562
1368,792.967041015625,795.3846435546875,794.1758422851562,798.2051391601562
1369,788.1318969726562,794.981689453125,796.5933837890625,795.3846435546875
1370,781.2820434570312,798.2051391601562,792.5640869140625,789.3406372070312
1371,782.4908447265625,795.7875366210938,786.1171875,792.5640869140625
1372,788.1318969726562,789.3406372070312,788.5347900390625,803.040283203125
1373,788.937744140625,792.967041015625,792.5640869140625,804.6520385742188
1374,791.3552856445312,796.5933837890625,790.1465454101562,799.010986328125
1375,795.7875366210938,792.5640869140625,792.1611938476562,795.3846435546875
1376,791.7582397460938,792.1611938476562,791.3552856445312,795.7875366210938
1377,789.3406372070312,794.981689453125,786.923095703125,784.5054931640625
1378,787.7289428710938,792.1611938476562,786.923095703125,783.6996459960938
1379,786.923095703125,788.937744140625,786.923095703125,788.1318969726562
1380,786.1171875,786.5201416015625,786.923095703125,786.5201416015625
1381,784.1025390625,786.5201416015625,788.937744140625,784.1025390625
1382,784.5054931640625,786.1171875,787.3259887695312,780.4761962890625
1383,790.952392578125,788.1318969726562,789.3406372070312,786.1171875
1384,792.5640869140625,791.3552856445312,793.7728881835938,789.7435913085938
1385,790.952392578125,790.952392578125,793.3699340820312,790.952392578125
1386,789.3406372070312,790.952392578125,792.1611938476562,790.1465454101562
1387,793.3699340820312,794.5787353515625,793.3699340820312,790.952392578125
1388,801.025634765625,793.3699340820312,794.5787353515625,794.981689453125
1389,801.025634765625,795.7875366210938,795.7875366210938,794.1758422851562
1390,801.8314819335938,796.5933837890625,795.7875366210938,797.3992919921875
1391,799.4139404296875,791.3552856445312,793.3699340820312,802.2344360351562
1392,794.1758422851562,790.5494384765625,797.8021850585938,796.5933837890625
1393,787.3259887695312,787.3259887695312,790.5494384765625,792.1611938476562
1394,780.4761962890625,783.6996459960938,785.3113403320312,788.5347900390625
1395,785.7142944335938,789.3406372070312,787.7289428710938,785.3113403320312
1396,792.1611938476562,792.5640869140625,786.1171875,791.7582397460938
1397,791.3552856445312,790.5494384765625,791.3552856445312,792.967041015625
1398,793.3699340820312,788.937744140625,794.5787353515625,792.967041015625
1399,787.7289428710938,790.5494384765625,793.3699340820312,799.010986328125
1400,784.908447265625,795.3846435546875,792.5640869140625,789.7435913085938
1401,790.952392578125,797.8021850585938,794.1758422851562,789.3406372070312
1402,793.3699340820312,792.1611938476562,789.7435913085938,793.3699340820312
1403,796.996337890625,792.5640869140625,783.6996459960938,795.3846435546875
1404,800.6226806640625,794.1758422851562,784.1025390625,797.8021850585938
1405,800.2197875976562,788.5347900390625,788.5347900390625,792.967041015625
1406,792.1611938476562,782.087890625,787.7289428710938,786.923095703125
1407,788.937744140625,787.7289428710938,786.1171875,790.952392578125
1408,790.952392578125,795.3846435546875,790.952392578125,793.3699340820312
1409,791.3552856445312,793.3699340820312,793.3699340820312,794.981689453125
1410,788.5347900390625,788.1318969726562,790.1465454101562,792.5640869140625
1411,789.7435913085938,789.3406372070312,795.7875366210938,784.5054931640625
1412,790.952392578125,792.1611938476562,801.025634765625,783.6996459960938
1413,792.5640869140625,790.1465454101562,799.8168334960938,780.879150390625
1414,793.7728881835938,792.967041015625,793.3699340820312,784.908447265625
1415,786.5201416015625,802.6373901367188,791.7582397460938,787.3259887695312
1416,784.5054931640625,801.4285888671875,797.8021850585938,784.1025390625
1417,792.5640869140625,798.2051391601562,797.3992919921875,789.7435913085938
1418,792.1611938476562,795.7875366210938,793.7728881835938,791.7582397460938
1419,784.5054931640625,793.3699340820312,795.7875366210938,793.3699340820312
1420,779.2673950195312,794.981689453125,794.1758422851562,791.7582397460938
1421,780.879150390625,794.1758422851562,792.5640869140625,793.7728881835938
1422,788.937744140625,793.7728881835938,797.8021850585938,806.2637329101562
1423,789.7435913085938,794.1758422851562,803.040283203125,795.7875366210938
1424,783.2966918945312,796.1904907226562,797.3992919921875,786.1171875
1425,784.908447265625,796.996337890625,790.5494384765625,792.967041015625
1426,783.2966918945312,799.8168334960938,795.3846435546875,792.5640869140625
1427,783.6996459960938,794.5787353515625,797.8021850585938,786.1171875
1428,788.1318969726562,791.3552856445312,794.5787353515625,791.3552856445312
1429,788.1318969726562,796.996337890625,792.967041015625,800.2197875976562
1430,788.1318969726562,789.7435913085938,795.3846435546875,793.3699340820312
1431,783.6996459960938,788.1318969726562,793.7728881835938,788.5347900390625
1432,778.8644409179688,790.1465454101562,790.952392578125,791.3552856445312
1433,782.087890625,787.3259887695312,788.937744140625,794.981689453125
1434,784.1025390625,794.5787353515625,794.1758422851562,799.010986328125
1435,784.1025390625,796.5933837890625,797.3992919921875,795.7875366210938
1436,783.2966918945312,787.3259887695312,792.5640869140625,795.3846435546875
1437,778.4615478515625,786.923095703125,794.1758422851562,796.1904907226562
1438,773.6264038085938,790.5494384765625,796.996337890625,793.7728881835938
1439,781.6849975585938,794.1758422851562,795.7875366210938,794.5787353515625
1440,787.7289428710938,793.7728881835938,792.5640869140625,790.952392578125
1441,789.7435913085938,793.3699340820312,792.5640869140625,779.6703491210938
1442,786.923095703125,794.5787353515625,788.1318969726562,777.2527465820312
1443,782.4908447265625,786.5201416015625,787.7289428710938,781.2820434570312
1444,786.923095703125,778.8644409179688,786.923095703125,781.2820434570312
1445,786.5201416015625,786.5201416015625,785.3113403320312,786.1171875
1446,783.2966918945312,794.1758422851562,790.1465454101562,777.6557006835938
1447,785.7142944335938,793.7728881835938,794.981689453125,774.029296875
1448,787.7289428710938,790.952392578125,799.010986328125,781.6849975585938
1449,786.923095703125,788.5347900390625,792.5640869140625,782.087890625
1450,788.937744140625,790.952392578125,794.1758422851562,785.3113403320312
1451,790.1465454101562,791.7582397460938,796.996337890625,781.2820434570312
1452,792.967041015625,787.7289428710938,792.967041015625,782.893798828125
1453,794.981689453125,786.5201416015625,798.6080322265625,793.3699340820312
1454,800.2197875976562,788.937744140625,800.2197875976562,800.6226806640625
1455,807.87548828125,788.1318969726562,796.996337890625,805.4578857421875
1456,805.4578857421875,785.7142944335938,797.3992919921875,801.025634765625
1457,801.4285888671875,789.7435913085938,796.5933837890625,797.3992919921875
1458,806.2637329101562,791.3552856445312,792.967041015625,803.040283203125
1459,805.8607788085938,790.1465454101562,797.8021850585938,800.2197875976562
1460,797.8021850585938,790.1465454101562,801.4285888671875,794.5787353515625
1461,795.7875366210938,791.7582397460938,799.4139404296875,791.7582397460938
1462,793.7728881835938,792.1611938476562,801.4285888671875,792.967041015625
1463,796.996337890625,799.4139404296875,803.040283203125,799.4139404296875
1464,807.4725341796875,803.8461303710938,801.025634765625,810.6959838867188
1465,805.054931640625,798.2051391601562,799.010986328125,804.6520385742188
1466,797.3992919921875,795.3846435546875,798.2051391601562,785.3113403320312
1467,800.6226806640625,795.3846435546875,800.2197875976562,782.4908447265625
1468,805.054931640625,796.996337890625,801.8314819335938,784.5054931640625
1469,800.6226806640625,798.2051391601562,800.2197875976562,786.1171875
1470,800.6226806640625,796.1904907226562,801.8314819335938,790.1465454101562
1471,796.1904907226562,794.1758422851562,800.2197875976562,798.2051391601562
1472,790.5494384765625,791.3552856445312,798.2051391601562,808.6813354492188
1473,797.8021850585938,795.7875366210938,799.010986328125,808.2783813476562
1474,801.8314819335938,802.2344360351562,797.8021850585938,805.054931640625
1475,788.937744140625,796.996337890625,795.3846435546875,800.6226806640625
1476,784.1025390625,795.7875366210938,799.8168334960938,802.6373901367188
1477,786.923095703125,797.8021850585938,802.2344360351562,803.4432373046875
1478,788.5347900390625,797.8021850585938,798.2051391601562,797.3992919921875
1479,794.5787353515625,801.025634765625,798.2051391601562,803.4432373046875
1480,797.8021850585938,799.8168334960938,800.6226806640625,807.069580078125
1481,798.2051391601562,802.2344360351562,800.2197875976562,802.6373901367188
1482,791.3552856445312,805.4578857421875,799.8168334960938,796.996337890625
1483,790.1465454101562,798.6080322265625,797.8021850585938,796.1904907226562
1484,790.952392578125,794.1758422851562,799.010986328125,794.981689453125
1485,785.7142944335938,796.5933837890625,798.2051391601562,795.3846435546875
1486,790.1465454101562,798.6080322265625,799.8168334960938,797.3992919921875
1487,790.952392578125,797.3992919921875,797.8021850585938,799.8168334960938
1488,787.7289428710938,798.6080322265625,790.952392578125,789.3406372070312
1489,785.3113403320312,797.8021850585938,790.952392578125,784.5054931640625
1490,791.3552856445312,796.1904907226562,794.981689453125,796.996337890625
1491,796.5933837890625,796.996337890625,796.996337890625,797.8021850585938
1492,788.937744140625,796.5933837890625,795.7875366210938,789.7435913085938
1493,785.7142944335938,795.3846435546875,793.3699340820312,787.3259887695312
1494,791.7582397460938,793.3699340820312,791.3552856445312,789.7435913085938
1495,792.1611938476562,787.7289428710938,788.937744140625,793.3699340820312
1496,785.7142944335938,790.1465454101562,790.5494384765625,783.2966918945312
1497,785.3113403320312,793.3699340820312,791.7582397460938,780.4761962890625
1498,794.5787353515625,793.7728881835938,794.5787353515625,791.3552856445312
1499,800.2197875976562,797.8021850585938,794.981689453125,794.981689453125
1500,796.5933837890625,798.2051391601562,792.5640869140625,784.908447265625
1501,792.5640869140625,795.7875366210938,795.3846435546875,788.5347900390625
1502,794.5787353515625,796.996337890625,798.2051391601562,800.6226806640625
1503,796.996337890625,792.967041015625,789.7435913085938,793.3699340820312
1504,798.2051391601562,792.5640869140625,790.5494384765625,794.1758422851562
1505,799.4139404296875,785.3113403320312,793.7728881835938,797.3992919921875
1506,792.1611938476562,780.4761962890625,799.010986328125,798.6080322265625
1507,775.2380981445312,788.5347900390625,803.8461303710938,789.3406372070312
1508,776.8497924804688,790.5494384765625,797.3992919921875,783.6996459960938
1509,789.3406372070312,789.7435913085938,794.1758422851562,792.5640869140625
1510,787.7289428710938,789.7435913085938,793.7728881835938,794.981689453125
1511,785.7142944335938,785.3113403320312,792.5640869140625,789.3406372070312
1512,791.7582397460938,788.1318969726562,794.1758422851562,789.7435913085938
1513,788.5347900390625,791.3552856445312,791.3552856445312,789.7435913085938
1514,789.3406372070312,789.7435913085938,792.1611938476562,789.7435913085938
1515,790.5494384765625,787.3259887695312,788.937744140625,789.3406372070312
1516,790.1465454101562,788.937744140625,789.3406372070312,787.3259887695312
1517,794.981689453125,792.1611938476562,793.3699340820312,792.967041015625
1518,796.5933837890625,785.3113403320312,791.7582397460938,803.8461303710938
1519,792.5640869140625,782.893798828125,795.7875366210938,797.8021850585938
1520,792.967041015625,791.7582397460938,797.8021850585938,789.3406372070312
1521,790.5494384765625,796.996337890625,796.996337890625,788.1318969726562
1522,784.908447265625,794.1758422851562,796.5933837890625,784.908447265625
1523,787.7289428710938,790.5494384765625,791.3552856445312,791.7582397460938
1524,794.5787353515625,784.908447265625,794.5787353515625,792.967041015625
1525,793.7728881835938,786.1171875,795.7875366210938,793.7728881835938
1526,792.967041015625,788.1318969726562,791.3552856445312,794.981689453125
1527,794.5787353515625,787.7289428710938,794.981689453125,787.3259887695312
1528,788.937744140625,786.923095703125,792.967041015625,782.893798828125
1529,791.7582397460938,782.4908447265625,790.5494384765625,794.1758422851562
1530,791.3552856445312,786.1171875,798.2051391601562,801.8314819335938
1531,786.1171875,795.7875366210938,796.5933837890625,792.967041015625
1532,794.1758422851562,799.4139404296875,792.1611938476562,792.967041015625
1533,795.7875366210938,794.981689453125,790.952392578125,787.7289428710938
1534,790.952392578125,792.1611938476562,792.5640869140625,787.7289428710938
1535,794.5787353515625,793.3699340820312,794.981689453125,794.5787353515625
1536,796.5933837890625,794.1758422851562,795.3846435546875,794.5787353515625
1537,788.937744140625,790.1465454101562,796.5933837890625,798.2051391601562
1538,782.087890625,785.3113403320312,794.5787353515625,797.3992919921875
1539,780.879150390625,786.1171875,790.1465454101562,789.7435913085938
1540,784.5054931640625,787.7289428710938,788.5347900390625,792.5640869140625
1541,788.937744140625,783.6996459960938,791.3552856445312,802.6373901367188
1542,786.5201416015625,791.7582397460938,794.5787353515625,798.2051391601562
1543,787.7289428710938,798.6080322265625,792.1611938476562,791.3552856445312
1544,794.5787353515625,797.8021850585938,794.981689453125,796.5933837890625
1545,800.2197875976562,796.996337890625,794.1758422851562,793.7728881835938
1546,806.6666870117188,798.2051391601562,790.952392578125,792.967041015625
1547,810.6959838867188,796.1904907226562,796.996337890625,802.6373901367188
1548,803.4432373046875,789.7435913085938,797.3992919921875,803.8461303710938
1549,797.8021850585938,791.3552856445312,795.7875366210938,799.4139404296875
1550,805.054931640625,794.5787353515625,792.1611938476562,793.3699340820312
1551,805.4578857421875,792.1611938476562,794.5787353515625,792.1611938476562
1552,801.4285888671875,789.7435913085938,796.5933837890625,799.010986328125
1553,797.3992919921875,792.967041015625,796.996337890625,795.7875366210938
1554,790.1465454101562,789.7435913085938,798.2051391601562,783.2966918945312
1555,793.7728881835938,793.7728881835938,799.010986328125,790.952392578125
1556,798.6080322265625,799.4139404296875,799.8168334960938,801.025634765625
1557,791.7582397460938,792.5640869140625,796.996337890625,795.3846435546875
1558,789.7435913085938,794.1758422851562,792.5640869140625,785.7142944335938
1559,794.1758422851562,797.8021850585938,796.1904907226562,787.7289428710938
1560,791.7582397460938,791.3552856445312,796.996337890625,794.981689453125
1561,790.1465454101562,794.1758422851562,792.1611938476562,790.952392578125
1562,792.5640869140625,799.4139404296875,794.1758422851562,792.1611938476562
1563,790.5494384765625,796.996337890625,796.1904907226562,795.3846435546875
1564,781.2820434570312,794.5787353515625,788.5347900390625,792.1611938476562
1565,780.0732421875,789.7435913085938,784.1025390625,787.7289428710938
1566,786.923095703125,787.7289428710938,788.937744140625,795.3846435546875
1567,787.7289428710938,790.5494384765625,792.967041015625,799.4139404296875
1568,790.5494384765625,796.996337890625,792.1611938476562,795.7875366210938
1569,790.952392578125,796.5933837890625,789.3406372070312,790.952392578125
1570,788.5347900390625,794.5787353515625,794.1758422851562,794.1758422851562
1571,788.937744140625,792.967041015625,794.981689453125,796.1904907226562
1572,791.3552856445312,793.3699340820312,789.7435913085938,786.5201416015625
1573,792.5640869140625,790.5494384765625,789.3406372070312,781.6849975585938
1574,788.1318969726562,791.7582397460938,790.5494384765625,782.4908447265625
1575,786.5201416015625,794.981689453125,790.5494384765625,781.2820434570312
1576,787.7289428710938,791.7582397460938,790.1465454101562,780.4761962890625
1577,792.967041015625,792.967041015625,795.3846435546875,785.3113403320312
1578,796.5933837890625,792.1611938476562,795.3846435546875,789.3406372070312
1579,797.8021850585938,796.5933837890625,794.1758422851562,799.010986328125
