timestamp,RAW_TP9,RAW_AF7,RAW_AF8,RAW_TP10
1,789.7435913085938,794.981689453125,791.3552856445312,791.3552856445312
2,792.5640869140625,789.3406372070312,790.5494384765625,791.7582397460938
3,801.025634765625,789.3406372070312,792.1611938476562,789.7435913085938
4,800.6226806640625,793.3699340820312,790.5494384765625,794.5787353515625
5,794.981689453125,790.5494384765625,788.5347900390625,794.1758422851562
6,792.967041015625,787.7289428710938,785.7142944335938,787.7289428710938
7,793.7728881835938,786.5201416015625,786.923095703125,786.923095703125
8,791.7582397460938,784.908447265625,792.1611938476562,792.1611938476562
9,786.5201416015625,786.923095703125,792.1611938476562,798.2051391601562
10,780.879150390625,788.1318969726562,788.5347900390625,798.6080322265625
11,796.1904907226562,788.937744140625,793.7728881835938,790.1465454101562
12,813.5164794921875,788.1318969726562,793.7728881835938,792.1611938476562
13,793.7728881835938,788.5347900390625,788.1318969726562,793.7728881835938
14,776.4468994140625,790.1465454101562,791.7582397460938,788.5347900390625
15,776.4468994140625,788.5347900390625,790.5494384765625,785.3113403320312
16,777.2527465820312,787.3259887695312,790.5494384765625,784.1025390625
17,786.1171875,790.5494384765625,789.7435913085938,790.5494384765625
18,793.7728881835938,792.967041015625,788.937744140625,794.981689453125
19,791.3552856445312,792.967041015625,794.5787353515625,789.3406372070312
20,792.967041015625,790.952392578125,791.7582397460938,786.5201416015625
21,786.1171875,788.937744140625,793.7728881835938,789.7435913085938
22,783.2966918945312,789.3406372070312,793.3699340820312,791.7582397460938
23,794.5787353515625,790.952392578125,794.1758422851562,792.1611938476562
24,793.3699340820312,796.5933837890625,800.2197875976562,788.1318969726562
25,786.1171875,801.4285888671875,796.1904907226562,786.1171875
26,786.923095703125,797.3992919921875,793.3699340820312,788.1318969726562
27,788.5347900390625,799.4139404296875,795.7875366210938,788.1318969726562
28,791.7582397460938,802.6373901367188,796.1904907226562,784.908447265625
29,792.5640869140625,799.4139404296875,793.3699340820312,781.2820434570312
30,787.3259887695312,798.2051391601562,792.1611938476562,780.879150390625
31,777.6557006835938,797.3992919921875,790.952392578125,780.4761962890625
32,773.2234497070312,798.6080322265625,790.952392578125,783.2966918945312
33,783.6996459960938,797.3992919921875,793.3699340820312,784.908447265625
34,791.7582397460938,795.7875366210938,797.3992919921875,780.0732421875
35,792.1611938476562,798.6080322265625,801.025634765625,781.6849975585938
36,784.5054931640625,795.3846435546875,801.4285888671875,789.7435913085938
37,778.8644409179688,788.937744140625,796.996337890625,794.981689453125
38,785.7142944335938,791.7582397460938,793.7728881835938,795.7875366210938
39,793.3699340820312,792.967041015625,797.8021850585938,792.967041015625
40,795.7875366210938,791.3552856445312,801.4285888671875,794.5787353515625
41,792.1611938476562,793.7728881835938,801.8314819335938,790.5494384765625
42,786.923095703125,795.3846435546875,798.2051391601562,790.5494384765625
43,785.3113403320312,790.952392578125,792.5640869140625,791.3552856445312
44,778.05859375,785.7142944335938,790.952392578125,784.908447265625
45,779.2673950195312,792.967041015625,791.3552856445312,779.6703491210938
46,780.4761962890625,794.1758422851562,788.1318969726562,776.0439453125
47,784.1025390625,796.5933837890625,789.3406372070312,780.4761962890625
48,787.7289428710938,800.2197875976562,784.908447265625,786.1171875
49,784.5054931640625,796.996337890625,786.5201416015625,788.5347900390625
50,787.7289428710938,800.6226806640625,796.5933837890625,782.893798828125
51,792.5640869140625,806.2637329101562,793.7728881835938,784.5054931640625
52,798.2051391601562,796.1904907226562,789.7435913085938,790.1465454101562
53,800.6226806640625,796.5933837890625,792.5640869140625,786.923095703125
54,795.7875366210938,800.2197875976562,797.8021850585938,788.937744140625
55,796.1904907226562,793.3699340820312,796.1904907226562,785.3113403320312
56,799.8168334960938,793.7728881835938,796.1904907226562,778.4615478515625
57,794.1758422851562,793.7728881835938,798.6080322265625,780.0732421875
58,795.7875366210938,792.5640869140625,797.8021850585938,789.7435913085938
59,805.4578857421875,794.5787353515625,796.996337890625,799.010986328125
60,803.040283203125,795.7875366210938,799.8168334960938,804.2490844726562
61,803.040283203125,794.5787353515625,804.6520385742188,810.2930297851562
62,798.6080322265625,788.1318969726562,801.8314819335938,795.3846435546875
63,797.8021850585938,790.952392578125,799.4139404296875,797.8021850585938
64,791.3552856445312,797.3992919921875,799.8168334960938,801.4285888671875
65,776.4468994140625,795.3846435546875,796.5933837890625,782.893798828125
66,784.908447265625,792.5640869140625,792.967041015625,789.7435913085938
67,794.5787353515625,789.7435913085938,790.1465454101562,796.5933837890625
68,807.069580078125,789.7435913085938,789.3406372070312,790.5494384765625
69,808.6813354492188,791.7582397460938,793.3699340820312,794.1758422851562
70,794.5787353515625,789.7435913085938,798.6080322265625,798.2051391601562
71,794.1758422851562,791.7582397460938,801.4285888671875,793.7728881835938
72,801.8314819335938,796.5933837890625,802.2344360351562,798.2051391601562
73,797.8021850585938,797.3992919921875,799.8168334960938,799.4139404296875
74,795.3846435546875,798.2051391601562,792.5640869140625,790.1465454101562
75,796.5933837890625,799.010986328125,788.5347900390625,791.3552856445312
76,788.1318969726562,796.996337890625,784.1025390625,789.7435913085938
77,790.952392578125,796.5933837890625,782.893798828125,788.937744140625
78,804.6520385742188,799.4139404296875,787.7289428710938,799.8168334960938
79,807.4725341796875,800.2197875976562,784.1025390625,796.1904907226562
80,808.6813354492188,796.996337890625,784.5054931640625,792.967041015625
81,802.2344360351562,792.5640869140625,789.7435913085938,799.010986328125
82,790.1465454101562,793.3699340820312,786.923095703125,796.996337890625
83,784.908447265625,787.3259887695312,786.1171875,791.3552856445312
84,796.996337890625,787.3259887695312,787.7289428710938,792.5640869140625
85,801.4285888671875,792.1611938476562,788.5347900390625,794.5787353515625
86,794.981689453125,784.908447265625,788.937744140625,795.7875366210938
87,786.923095703125,779.2673950195312,792.967041015625,796.5933837890625
88,788.937744140625,783.2966918945312,793.3699340820312,786.5201416015625
89,804.2490844726562,790.1465454101562,790.5494384765625,782.893798828125
90,799.8168334960938,792.1611938476562,794.5787353515625,789.3406372070312
91,788.1318969726562,792.5640869140625,796.1904907226562,791.3552856445312
92,786.1171875,793.3699340820312,795.7875366210938,783.6996459960938
93,790.5494384765625,796.1904907226562,794.1758422851562,780.879150390625
94,794.1758422851562,798.2051391601562,796.996337890625,782.893798828125
95,788.937744140625,792.5640869140625,801.4285888671875,786.923095703125
96,796.996337890625,792.967041015625,796.5933837890625,788.1318969726562
97,799.4139404296875,796.1904907226562,796.996337890625,788.937744140625
98,795.7875366210938,795.3846435546875,804.6520385742188,797.8021850585938
99,793.7728881835938,798.6080322265625,804.2490844726562,790.952392578125
100,789.7435913085938,795.7875366210938,803.4432373046875,782.087890625
101,790.952392578125,791.3552856445312,799.4139404296875,784.1025390625
102,789.3406372070312,785.3113403320312,796.996337890625,786.923095703125
103,782.893798828125,781.2820434570312,799.4139404296875,782.087890625
104,775.6410522460938,785.3113403320312,799.8168334960938,782.087890625
105,774.029296875,786.5201416015625,798.6080322265625,788.937744140625
106,776.8497924804688,786.1171875,799.8168334960938,788.1318969726562
107,777.2527465820312,786.923095703125,801.4285888671875,784.5054931640625
108,778.05859375,788.1318969726562,798.2051391601562,785.3113403320312
109,784.1025390625,787.7289428710938,798.2051391601562,790.5494384765625
110,793.7728881835938,790.5494384765625,797.3992919921875,795.3846435546875
111,791.7582397460938,793.3699340820312,796.996337890625,792.1611938476562
112,795.3846435546875,797.8021850585938,800.2197875976562,785.3113403320312
113,801.4285888671875,794.981689453125,799.8168334960938,788.937744140625
114,787.7289428710938,791.7582397460938,798.6080322265625,792.967041015625
115,778.8644409179688,792.967041015625,800.2197875976562,789.3406372070312
116,780.4761962890625,787.7289428710938,794.1758422851562,780.0732421875
117,791.7582397460938,788.5347900390625,792.5640869140625,787.3259887695312
118,794.5787353515625,790.1465454101562,794.981689453125,794.1758422851562
119,799.8168334960938,792.967041015625,794.981689453125,790.1465454101562
120,803.8461303710938,799.010986328125,794.1758422851562,790.5494384765625
121,787.3259887695312,797.8021850585938,793.3699340820312,789.3406372070312
122,778.05859375,796.996337890625,796.5933837890625,787.3259887695312
123,781.6849975585938,799.010986328125,796.996337890625,778.4615478515625
124,786.1171875,801.025634765625,793.7728881835938,783.2966918945312
125,789.3406372070312,800.2197875976562,790.1465454101562,794.5787353515625
126,799.4139404296875,798.6080322265625,792.5640869140625,792.5640869140625
127,798.6080322265625,801.025634765625,797.3992919921875,790.5494384765625
128,782.4908447265625,796.996337890625,794.5787353515625,783.2966918945312
129,773.6264038085938,788.5347900390625,794.981689453125,781.2820434570312
130,782.087890625,786.1171875,795.7875366210938,783.6996459960938
131,786.1171875,783.6996459960938,793.7728881835938,778.4615478515625
132,786.5201416015625,784.5054931640625,795.7875366210938,784.5054931640625
133,786.1171875,790.5494384765625,800.2197875976562,789.3406372070312
134,788.937744140625,788.5347900390625,796.996337890625,785.3113403320312
135,791.7582397460938,784.1025390625,799.010986328125,791.3552856445312
136,783.6996459960938,784.908447265625,802.2344360351562,799.4139404296875
137,779.6703491210938,784.908447265625,797.8021850585938,798.2051391601562
138,786.923095703125,786.5201416015625,798.6080322265625,797.8021850585938
139,786.923095703125,784.908447265625,800.2197875976562,799.010986328125
140,776.0439453125,784.5054931640625,798.2051391601562,794.1758422851562
141,793.7728881835938,787.7289428710938,794.5787353515625,791.3552856445312
142,806.2637329101562,789.3406372070312,795.7875366210938,792.1611938476562
143,790.1465454101562,788.937744140625,796.1904907226562,795.3846435546875
144,788.1318969726562,791.7582397460938,792.5640869140625,794.1758422851562
145,792.967041015625,795.7875366210938,796.996337890625,803.040283203125
146,792.1611938476562,796.1904907226562,797.3992919921875,800.6226806640625
147,793.7728881835938,794.1758422851562,794.1758422851562,793.7728881835938
148,792.967041015625,792.1611938476562,797.8021850585938,797.8021850585938
149,796.1904907226562,795.7875366210938,796.996337890625,796.996337890625
150,803.8461303710938,795.7875366210938,795.7875366210938,787.3259887695312
151,795.3846435546875,793.7728881835938,796.1904907226562,778.4615478515625
152,791.3552856445312,797.8021850585938,794.5787353515625,778.4615478515625
153,790.1465454101562,796.1904907226562,796.1904907226562,785.7142944335938
154,786.923095703125,791.7582397460938,794.5787353515625,784.1025390625
155,796.5933837890625,793.7728881835938,789.7435913085938,784.908447265625
156,799.8168334960938,796.5933837890625,792.967041015625,791.3552856445312
157,792.5640869140625,799.4139404296875,792.967041015625,792.5640869140625
158,787.3259887695312,800.6226806640625,789.3406372070312,794.981689453125
159,796.5933837890625,802.2344360351562,790.5494384765625,804.2490844726562
160,803.4432373046875,798.2051391601562,790.952392578125,800.6226806640625
161,794.981689453125,794.5787353515625,789.3406372070312,790.952392578125
162,787.3259887695312,796.996337890625,786.923095703125,786.923095703125
163,787.7289428710938,795.3846435546875,786.5201416015625,784.908447265625
164,791.3552856445312,792.1611938476562,792.5640869140625,786.923095703125
165,778.8644409179688,794.1758422851562,793.3699340820312,781.6849975585938
166,773.6264038085938,792.5640869140625,791.3552856445312,782.087890625
167,776.4468994140625,794.1758422851562,788.1318969726562,781.6849975585938
168,772.4176025390625,796.1904907226562,786.1171875,780.879150390625
169,779.2673950195312,787.7289428710938,791.3552856445312,778.05859375
170,798.6080322265625,788.937744140625,796.5933837890625,781.6849975585938
171,788.5347900390625,790.5494384765625,792.967041015625,792.967041015625
172,779.2673950195312,792.1611938476562,791.7582397460938,792.5640869140625
173,779.2673950195312,798.6080322265625,795.3846435546875,783.2966918945312
174,770.0,799.4139404296875,796.1904907226562,783.2966918945312
175,783.2966918945312,796.5933837890625,795.3846435546875,784.5054931640625
176,790.5494384765625,792.1611938476562,794.981689453125,781.2820434570312
177,786.1171875,794.1758422851562,796.1904907226562,790.952392578125
178,782.4908447265625,791.7582397460938,792.5640869140625,789.3406372070312
179,778.4615478515625,788.937744140625,790.1465454101562,785.7142944335938
180,793.3699340820312,792.5640869140625,791.7582397460938,790.1465454101562
181,798.2051391601562,788.1318969726562,791.7582397460938,786.5201416015625
182,776.0439453125,783.2966918945312,794.1758422851562,787.7289428710938
183,767.9853515625,790.1465454101562,795.3846435546875,788.5347900390625
184,766.3735961914062,796.996337890625,794.5787353515625,782.087890625
185,767.5823974609375,793.3699340820312,793.3699340820312,778.4615478515625
186,774.8351440429688,792.967041015625,795.3846435546875,780.879150390625
187,784.908447265625,794.5787353515625,791.7582397460938,778.8644409179688
188,790.1465454101562,791.3552856445312,787.3259887695312,780.0732421875
189,786.1171875,789.7435913085938,785.7142944335938,779.6703491210938
190,787.3259887695312,790.952392578125,791.7582397460938,783.6996459960938
191,787.7289428710938,791.7582397460938,796.1904907226562,791.7582397460938
192,791.7582397460938,790.1465454101562,790.1465454101562,784.1025390625
193,793.3699340820312,786.1171875,789.3406372070312,778.4615478515625
194,779.6703491210938,787.3259887695312,790.5494384765625,780.879150390625
195,780.0732421875,790.952392578125,790.5494384765625,785.7142944335938
196,789.7435913085938,793.3699340820312,793.3699340820312,788.5347900390625
197,800.6226806640625,792.5640869140625,788.5347900390625,790.5494384765625
198,801.025634765625,793.7728881835938,790.5494384765625,803.4432373046875
199,796.1904907226562,796.1904907226562,796.1904907226562,800.6226806640625
200,790.1465454101562,792.967041015625,793.7728881835938,791.3552856445312
201,791.3552856445312,788.937744140625,793.3699340820312,796.1904907226562
202,793.7728881835938,788.1318969726562,792.5640869140625,794.981689453125
203,781.6849975585938,786.923095703125,795.3846435546875,784.908447265625
204,779.6703491210938,785.3113403320312,798.6080322265625,790.1465454101562
205,787.7289428710938,791.7582397460938,795.3846435546875,792.5640869140625
206,788.1318969726562,792.1611938476562,792.967041015625,786.5201416015625
207,781.6849975585938,789.3406372070312,791.3552856445312,788.5347900390625
208,784.5054931640625,794.1758422851562,789.7435913085938,783.2966918945312
209,792.967041015625,792.1611938476562,796.1904907226562,789.3406372070312
210,786.923095703125,788.1318969726562,801.8314819335938,790.1465454101562
211,785.7142944335938,790.5494384765625,801.8314819335938,778.8644409179688
212,792.1611938476562,794.1758422851562,798.2051391601562,781.2820434570312
213,790.5494384765625,792.967041015625,794.981689453125,780.879150390625
214,788.1318969726562,791.3552856445312,794.981689453125,776.0439453125
215,780.4761962890625,794.981689453125,790.1465454101562,778.05859375
216,776.4468994140625,791.7582397460938,792.967041015625,778.8644409179688
217,789.3406372070312,788.5347900390625,792.967041015625,788.5347900390625
218,792.1611938476562,787.7289428710938,796.5933837890625,790.952392578125
219,778.8644409179688,791.3552856445312,800.6226806640625,784.1025390625
220,787.3259887695312,797.8021850585938,794.981689453125,797.8021850585938
221,792.967041015625,793.3699340820312,797.8021850585938,799.4139404296875
222,782.087890625,788.1318969726562,801.4285888671875,786.1171875
223,788.937744140625,788.937744140625,800.2197875976562,788.1318969726562
224,782.087890625,788.937744140625,796.5933837890625,788.5347900390625
225,774.8351440429688,788.1318969726562,796.5933837890625,787.7289428710938
226,785.7142944335938,786.923095703125,796.1904907226562,790.1465454101562
227,782.893798828125,785.7142944335938,796.996337890625,791.7582397460938
228,784.908447265625,786.923095703125,799.4139404296875,800.2197875976562
229,793.3699340820312,788.5347900390625,798.6080322265625,799.4139404296875
230,790.5494384765625,788.5347900390625,798.2051391601562,794.1758422851562
231,789.3406372070312,787.7289428710938,796.1904907226562,789.3406372070312
232,799.8168334960938,785.3113403320312,792.5640869140625,792.5640869140625
233,803.040283203125,791.7582397460938,794.981689453125,803.4432373046875
234,795.3846435546875,796.5933837890625,796.5933837890625,797.3992919921875
235,790.5494384765625,793.3699340820312,790.952392578125,786.1171875
236,788.5347900390625,791.3552856445312,789.3406372070312,780.0732421875
237,783.6996459960938,791.7582397460938,788.1318969726562,781.2820434570312
238,784.5054931640625,796.5933837890625,790.5494384765625,785.3113403320312
239,786.1171875,792.967041015625,792.5640869140625,778.8644409179688
240,783.2966918945312,789.3406372070312,792.967041015625,781.2820434570312
241,787.7289428710938,788.5347900390625,791.7582397460938,786.923095703125
242,798.6080322265625,785.3113403320312,789.3406372070312,780.4761962890625
243,792.1611938476562,785.7142944335938,791.3552856445312,782.087890625
244,781.2820434570312,785.3113403320312,790.5494384765625,791.7582397460938
245,790.952392578125,784.908447265625,792.5640869140625,787.7289428710938
246,798.6080322265625,788.5347900390625,794.5787353515625,783.2966918945312
247,783.2966918945312,787.3259887695312,793.3699340820312,790.952392578125
248,766.7765502929688,783.2966918945312,790.952392578125,791.7582397460938
249,770.8058471679688,784.5054931640625,792.1611938476562,791.3552856445312
250,780.879150390625,786.5201416015625,794.5787353515625,792.967041015625
251,784.5054931640625,783.6996459960938,793.7728881835938,792.5640869140625
252,795.7875366210938,786.923095703125,794.981689453125,795.3846435546875
253,796.996337890625,792.967041015625,797.8021850585938,800.6226806640625
254,786.1171875,796.5933837890625,795.7875366210938,799.010986328125
255,788.1318969726562,795.3846435546875,793.3699340820312,803.040283203125
256,786.1171875,786.5201416015625,795.3846435546875,803.4432373046875
257,782.893798828125,783.6996459960938,796.996337890625,793.3699340820312
258,787.3259887695312,789.3406372070312,792.967041015625,788.937744140625
259,795.7875366210938,795.7875366210938,792.1611938476562,790.952392578125
260,797.3992919921875,797.3992919921875,792.967041015625,789.3406372070312
261,800.2197875976562,794.5787353515625,790.1465454101562,795.3846435546875
262,801.4285888671875,794.5787353515625,793.3699340820312,798.6080322265625
263,811.098876953125,797.8021850585938,792.967041015625,791.7582397460938
264,816.3369750976562,798.2051391601562,793.7728881835938,790.1465454101562
265,793.3699340820312,796.996337890625,794.5787353515625,783.2966918945312
266,791.3552856445312,793.3699340820312,792.5640869140625,778.4615478515625
267,795.3846435546875,790.952392578125,796.5933837890625,788.937744140625
268,796.1904907226562,793.7728881835938,796.996337890625,790.952392578125
269,801.8314819335938,794.981689453125,794.1758422851562,786.1171875
270,803.040283203125,789.7435913085938,793.7728881835938,789.3406372070312
271,796.1904907226562,788.937744140625,795.7875366210938,790.1465454101562
272,788.937744140625,790.952392578125,798.2051391601562,784.5054931640625
273,786.923095703125,790.5494384765625,797.8021850585938,788.937744140625
274,794.1758422851562,791.3552856445312,800.6226806640625,790.1465454101562
275,802.6373901367188,791.3552856445312,800.6226806640625,784.908447265625
276,790.1465454101562,790.1465454101562,800.6226806640625,781.2820434570312
277,784.908447265625,792.967041015625,801.025634765625,781.6849975585938
278,788.937744140625,796.996337890625,798.6080322265625,796.5933837890625
279,794.981689453125,797.8021850585938,802.2344360351562,796.1904907226562
280,796.996337890625,795.7875366210938,801.025634765625,786.5201416015625
281,793.7728881835938,789.3406372070312,800.2197875976562,797.8021850585938
282,806.2637329101562,793.7728881835938,796.5933837890625,793.3699340820312
283,811.098876953125,797.3992919921875,797.8021850585938,784.5054931640625
284,799.4139404296875,794.5787353515625,803.4432373046875,785.3113403320312
285,785.3113403320312,794.1758422851562,800.2197875976562,780.879150390625
286,779.2673950195312,793.3699340820312,803.8461303710938,784.908447265625
287,782.4908447265625,793.7728881835938,803.4432373046875,786.923095703125
288,778.8644409179688,793.3699340820312,800.6226806640625,787.3259887695312
289,781.2820434570312,787.3259887695312,800.2197875976562,793.7728881835938
290,787.3259887695312,785.7142944335938,795.7875366210938,798.6080322265625
291,781.6849975585938,787.7289428710938,794.5787353515625,796.996337890625
292,803.040283203125,789.3406372070312,794.5787353515625,790.5494384765625
293,805.8607788085938,787.3259887695312,794.1758422851562,792.1611938476562
294,777.2527465820312,788.5347900390625,796.1904907226562,793.3699340820312
295,781.6849975585938,789.7435913085938,797.8021850585938,793.3699340820312
296,782.087890625,789.3406372070312,794.1758422851562,792.967041015625
297,776.8497924804688,791.3552856445312,796.1904907226562,793.7728881835938
298,783.6996459960938,791.3552856445312,799.010986328125,796.1904907226562
299,793.7728881835938,788.1318969726562,797.3992919921875,793.7728881835938
300,805.8607788085938,791.3552856445312,799.010986328125,792.1611938476562
301,801.8314819335938,796.1904907226562,800.2197875976562,794.5787353515625
302,784.908447265625,794.981689453125,798.6080322265625,793.7728881835938
303,779.2673950195312,796.996337890625,798.2051391601562,790.952392578125
304,789.3406372070312,795.3846435546875,800.6226806640625,789.3406372070312
305,794.981689453125,795.7875366210938,798.2051391601562,794.1758422851562
306,801.025634765625,797.8021850585938,800.2197875976562,795.7875366210938
307,805.8607788085938,801.025634765625,799.4139404296875,796.996337890625
308,813.113525390625,801.025634765625,799.010986328125,803.040283203125
309,801.4285888671875,796.5933837890625,803.8461303710938,799.010986328125
310,785.7142944335938,796.996337890625,799.8168334960938,796.1904907226562
311,798.6080322265625,800.6226806640625,798.6080322265625,803.040283203125
312,809.4871826171875,802.6373901367188,802.2344360351562,799.8168334960938
313,804.6520385742188,794.981689453125,796.996337890625,790.952392578125
314,792.1611938476562,785.7142944335938,794.1758422851562,788.1318969726562
315,789.7435913085938,784.5054931640625,796.5933837890625,792.1611938476562
316,795.7875366210938,788.5347900390625,797.3992919921875,799.8168334960938
317,786.923095703125,789.7435913085938,799.010986328125,803.040283203125
318,786.1171875,784.5054931640625,798.2051391601562,788.937744140625
319,790.952392578125,787.7289428710938,792.967041015625,780.0732421875
320,774.4322509765625,790.5494384765625,790.5494384765625,793.3699340820312
321,774.029296875,788.1318969726562,787.7289428710938,788.937744140625
322,776.8497924804688,788.1318969726562,790.1465454101562,779.6703491210938
323,794.1758422851562,791.3552856445312,797.3992919921875,782.087890625
324,809.89013671875,790.5494384765625,795.3846435546875,778.8644409179688
325,787.7289428710938,789.3406372070312,793.3699340820312,776.0439453125
326,778.05859375,796.5933837890625,794.5787353515625,774.4322509765625
327,780.879150390625,795.3846435546875,791.3552856445312,771.2088012695312
328,785.7142944335938,789.7435913085938,792.1611938476562,777.6557006835938
329,788.1318969726562,794.5787353515625,792.1611938476562,782.087890625
330,786.923095703125,794.981689453125,794.981689453125,777.2527465820312
331,801.4285888671875,796.1904907226562,799.8168334960938,776.8497924804688
332,796.996337890625,802.6373901367188,797.3992919921875,778.4615478515625
333,788.1318969726562,802.6373901367188,796.996337890625,782.893798828125
334,795.7875366210938,800.2197875976562,799.010986328125,787.7289428710938
335,785.7142944335938,798.2051391601562,799.4139404296875,793.3699340820312
336,789.7435913085938,796.996337890625,800.6226806640625,788.937744140625
337,789.7435913085938,794.981689453125,803.8461303710938,791.7582397460938
338,780.879150390625,792.1611938476562,803.040283203125,791.3552856445312
339,781.2820434570312,792.1611938476562,798.2051391601562,782.893798828125
340,780.879150390625,793.3699340820312,799.010986328125,790.952392578125
341,788.5347900390625,794.5787353515625,801.025634765625,794.981689453125
342,792.967041015625,794.5787353515625,800.6226806640625,786.1171875
343,791.7582397460938,792.967041015625,795.3846435546875,784.1025390625
344,802.2344360351562,791.3552856445312,791.3552856445312,782.087890625
345,793.7728881835938,793.7728881835938,795.3846435546875,782.4908447265625
346,784.1025390625,799.8168334960938,790.5494384765625,791.3552856445312
347,790.1465454101562,799.010986328125,784.1025390625,785.7142944335938
348,780.0732421875,799.8168334960938,787.7289428710938,779.2673950195312
349,781.2820434570312,795.3846435546875,791.3552856445312,783.2966918945312
350,787.3259887695312,789.7435913085938,794.981689453125,781.2820434570312
351,795.3846435546875,793.3699340820312,794.5787353515625,778.4615478515625
352,802.2344360351562,794.1758422851562,791.3552856445312,776.0439453125
353,790.952392578125,791.7582397460938,789.7435913085938,771.6116943359375
354,785.3113403320312,788.937744140625,789.3406372070312,776.8497924804688
355,786.5201416015625,785.7142944335938,793.7728881835938,783.6996459960938
356,778.8644409179688,786.5201416015625,796.1904907226562,784.5054931640625
357,778.05859375,790.1465454101562,799.4139404296875,786.1171875
358,779.6703491210938,792.1611938476562,806.2637329101562,786.923095703125
359,788.5347900390625,793.7728881835938,805.8607788085938,784.1025390625
360,790.952392578125,792.5640869140625,805.4578857421875,784.908447265625
361,787.3259887695312,791.3552856445312,806.6666870117188,793.7728881835938
362,791.3552856445312,790.1465454101562,804.2490844726562,800.2197875976562
363,782.4908447265625,788.5347900390625,799.010986328125,796.996337890625
364,786.5201416015625,789.3406372070312,799.4139404296875,792.5640869140625
365,799.4139404296875,789.7435913085938,801.025634765625,792.1611938476562
366,803.8461303710938,787.7289428710938,801.025634765625,802.2344360351562
367,794.5787353515625,781.6849975585938,796.1904907226562,792.1611938476562
368,793.7728881835938,785.3113403320312,796.1904907226562,784.1025390625
369,798.2051391601562,786.923095703125,799.010986328125,785.7142944335938
370,786.5201416015625,780.4761962890625,800.2197875976562,785.7142944335938
371,779.2673950195312,784.1025390625,797.8021850585938,786.1171875
372,780.4761962890625,784.908447265625,797.3992919921875,783.2966918945312
373,777.2527465820312,785.3113403320312,799.8168334960938,778.8644409179688
374,784.5054931640625,788.5347900390625,796.5933837890625,784.5054931640625
375,789.3406372070312,788.1318969726562,793.7728881835938,793.3699340820312
376,784.908447265625,788.5347900390625,794.5787353515625,780.0732421875
377,791.3552856445312,790.1465454101562,796.1904907226562,774.029296875
378,789.3406372070312,789.7435913085938,803.040283203125,783.2966918945312
379,783.6996459960938,792.1611938476562,801.8314819335938,779.2673950195312
380,771.6116943359375,794.981689453125,796.1904907226562,769.5970458984375
381,772.0146484375,799.4139404296875,793.7728881835938,776.0439453125
382,785.7142944335938,793.3699340820312,790.5494384765625,779.2673950195312
383,779.6703491210938,788.1318969726562,793.7728881835938,778.4615478515625
384,770.8058471679688,791.3552856445312,795.3846435546875,783.2966918945312
385,776.8497924804688,796.1904907226562,797.8021850585938,784.5054931640625
386,786.923095703125,796.1904907226562,803.040283203125,786.5201416015625
387,796.996337890625,793.3699340820312,800.2197875976562,786.923095703125
388,806.6666870117188,796.5933837890625,800.2197875976562,783.6996459960938
389,802.6373901367188,797.8021850585938,799.010986328125,789.3406372070312
390,786.5201416015625,792.1611938476562,794.5787353515625,790.952392578125
391,780.879150390625,789.3406372070312,796.1904907226562,788.5347900390625
392,787.7289428710938,795.3846435546875,792.5640869140625,790.1465454101562
393,792.967041015625,793.3699340820312,788.937744140625,794.1758422851562
394,792.1611938476562,790.5494384765625,788.937744140625,800.2197875976562
395,795.7875366210938,794.1758422851562,790.5494384765625,788.937744140625
396,793.3699340820312,792.1611938476562,793.3699340820312,784.908447265625
397,792.967041015625,787.7289428710938,793.3699340820312,794.5787353515625
398,796.5933837890625,787.7289428710938,791.7582397460938,789.3406372070312
399,784.5054931640625,796.1904907226562,797.3992919921875,783.2966918945312
400,778.4615478515625,799.010986328125,801.4285888671875,787.3259887695312
401,792.5640869140625,798.6080322265625,799.4139404296875,798.2051391601562
402,801.8314819335938,795.7875366210938,793.3699340820312,793.7728881835938
403,812.3076782226562,794.5787353515625,790.952392578125,784.908447265625
404,809.4871826171875,794.981689453125,794.5787353515625,792.5640869140625
405,782.4908447265625,795.3846435546875,795.7875366210938,791.3552856445312
406,772.0146484375,794.1758422851562,796.5933837890625,786.5201416015625
407,791.3552856445312,794.981689453125,797.8021850585938,786.5201416015625
408,793.7728881835938,790.5494384765625,796.1904907226562,783.2966918945312
409,802.6373901367188,793.7728881835938,792.5640869140625,787.7289428710938
410,798.6080322265625,790.1465454101562,796.1904907226562,790.1465454101562
411,783.6996459960938,790.952392578125,793.7728881835938,796.996337890625
412,777.2527465820312,791.7582397460938,792.1611938476562,808.2783813476562
413,781.2820434570312,788.937744140625,794.1758422851562,802.2344360351562
414,784.1025390625,789.7435913085938,796.5933837890625,798.6080322265625
415,784.1025390625,787.3259887695312,800.6226806640625,799.8168334960938
416,778.8644409179688,782.893798828125,793.3699340820312,794.1758422851562
417,783.2966918945312,787.3259887695312,791.3552856445312,785.3113403320312
418,796.5933837890625,793.7728881835938,795.7875366210938,784.1025390625
419,796.996337890625,796.996337890625,793.3699340820312,789.3406372070312
420,792.1611938476562,793.7728881835938,794.981689453125,782.893798828125
421,806.2637329101562,788.937744140625,790.5494384765625,782.893798828125
422,796.996337890625,786.1171875,785.3113403320312,794.5787353515625
423,780.4761962890625,777.6557006835938,790.1465454101562,798.6080322265625
424,792.967041015625,788.937744140625,785.3113403320312,791.3552856445312
425,790.1465454101562,800.6226806640625,783.2966918945312,775.2380981445312
426,784.908447265625,797.8021850585938,787.3259887695312,772.4176025390625
427,780.4761962890625,796.996337890625,788.5347900390625,782.087890625
428,776.8497924804688,797.8021850585938,792.1611938476562,782.4908447265625
429,793.3699340820312,797.8021850585938,794.5787353515625,789.7435913085938
430,801.8314819335938,798.2051391601562,790.5494384765625,799.010986328125
431,788.1318969726562,794.5787353515625,789.3406372070312,796.1904907226562
432,780.4761962890625,792.1611938476562,790.5494384765625,787.3259887695312
433,801.025634765625,793.7728881835938,792.1611938476562,788.937744140625
434,802.2344360351562,791.7582397460938,796.5933837890625,794.981689453125
435,791.7582397460938,794.981689453125,797.3992919921875,796.1904907226562
436,795.7875366210938,796.5933837890625,796.5933837890625,793.7728881835938
437,794.981689453125,797.8021850585938,796.5933837890625,789.3406372070312
438,786.923095703125,798.2051391601562,800.6226806640625,797.3992919921875
439,786.923095703125,794.981689453125,803.040283203125,803.4432373046875
440,797.8021850585938,792.1611938476562,800.6226806640625,792.967041015625
441,805.054931640625,790.5494384765625,799.4139404296875,790.5494384765625
442,794.981689453125,790.5494384765625,797.3992919921875,798.6080322265625
443,794.981689453125,791.3552856445312,795.3846435546875,796.1904907226562
444,787.7289428710938,794.981689453125,796.996337890625,788.5347900390625
445,776.8497924804688,796.1904907226562,799.010986328125,795.3846435546875
446,782.893798828125,792.1611938476562,799.010986328125,794.1758422851562
447,786.923095703125,794.981689453125,800.6226806640625,792.967041015625
448,792.1611938476562,800.6226806640625,801.025634765625,795.7875366210938
449,797.8021850585938,798.6080322265625,798.6080322265625,796.996337890625
450,795.7875366210938,795.3846435546875,799.4139404296875,796.996337890625
451,786.923095703125,796.1904907226562,799.4139404296875,788.5347900390625
452,778.4615478515625,797.8021850585938,799.4139404296875,783.2966918945312
453,783.2966918945312,793.7728881835938,796.1904907226562,788.5347900390625
454,796.1904907226562,792.967041015625,797.8021850585938,792.1611938476562
455,800.2197875976562,796.1904907226562,801.8314819335938,787.3259887695312
456,809.4871826171875,796.996337890625,799.4139404296875,783.6996459960938
457,803.040283203125,794.1758422851562,796.1904907226562,788.5347900390625
458,782.893798828125,795.3846435546875,794.1758422851562,787.7289428710938
459,780.4761962890625,803.040283203125,794.1758422851562,784.1025390625
460,797.3992919921875,805.054931640625,792.967041015625,786.1171875
461,802.2344360351562,800.2197875976562,794.1758422851562,793.7728881835938
462,797.8021850585938,802.6373901367188,800.6226806640625,798.6080322265625
463,798.6080322265625,806.6666870117188,802.2344360351562,788.937744140625
464,791.3552856445312,806.2637329101562,798.2051391601562,791.7582397460938
465,792.1611938476562,805.4578857421875,799.010986328125,792.1611938476562
466,792.5640869140625,803.040283203125,798.2051391601562,787.3259887695312
467,795.7875366210938,800.2197875976562,797.8021850585938,795.7875366210938
468,796.1904907226562,792.5640869140625,796.1904907226562,795.7875366210938
469,804.2490844726562,787.3259887695312,794.5787353515625,792.967041015625
470,813.113525390625,791.7582397460938,792.967041015625,791.7582397460938
471,803.040283203125,799.010986328125,792.1611938476562,792.1611938476562
472,791.7582397460938,795.3846435546875,792.967041015625,796.996337890625
473,789.7435913085938,796.996337890625,795.3846435546875,804.2490844726562
474,792.967041015625,800.2197875976562,796.996337890625,798.6080322265625
475,794.981689453125,796.1904907226562,798.6080322265625,791.3552856445312
476,794.981689453125,796.996337890625,801.4285888671875,793.7728881835938
477,800.2197875976562,796.996337890625,798.2051391601562,790.952392578125
478,810.2930297851562,790.5494384765625,792.1611938476562,784.5054931640625
479,813.113525390625,789.3406372070312,793.3699340820312,782.087890625
480,804.6520385742188,793.3699340820312,793.3699340820312,789.7435913085938
481,794.1758422851562,791.7582397460938,789.7435913085938,795.7875366210938
482,786.5201416015625,787.7289428710938,792.1611938476562,789.3406372070312
483,785.7142944335938,788.5347900390625,790.1465454101562,786.1171875
484,776.4468994140625,795.3846435546875,792.1611938476562,792.5640869140625
485,785.3113403320312,793.7728881835938,792.5640869140625,796.1904907226562
486,794.1758422851562,790.1465454101562,786.5201416015625,796.996337890625
487,786.1171875,789.3406372070312,789.3406372070312,792.967041015625
488,783.6996459960938,789.7435913085938,793.3699340820312,794.5787353515625
489,787.3259887695312,794.5787353515625,794.1758422851562,799.010986328125
490,794.1758422851562,794.5787353515625,799.4139404296875,797.3992919921875
491,799.010986328125,789.7435913085938,800.6226806640625,793.3699340820312
492,794.981689453125,784.908447265625,794.5787353515625,784.908447265625
493,789.7435913085938,789.3406372070312,794.5787353515625,784.908447265625
494,792.5640869140625,796.5933837890625,795.3846435546875,795.7875366210938
495,793.7728881835938,794.5787353515625,790.1465454101562,792.967041015625
496,796.1904907226562,795.3846435546875,789.7435913085938,784.908447265625
497,801.025634765625,797.8021850585938,793.3699340820312,786.1171875
498,792.5640869140625,792.5640869140625,791.3552856445312,785.7142944335938
499,787.7289428710938,790.5494384765625,790.952392578125,782.893798828125
500,793.3699340820312,787.3259887695312,788.937744140625,781.2820434570312
501,795.3846435546875,785.7142944335938,788.5347900390625,776.8497924804688
502,789.3406372070312,790.5494384765625,788.1318969726562,773.2234497070312
503,782.4908447265625,788.1318969726562,791.3552856445312,786.1171875
504,784.5054931640625,787.7289428710938,793.3699340820312,786.923095703125
505,778.8644409179688,790.952392578125,791.3552856445312,778.05859375
506,787.3259887695312,791.3552856445312,794.981689453125,784.1025390625
507,791.3552856445312,788.937744140625,792.1611938476562,786.5201416015625
508,804.6520385742188,791.3552856445312,785.7142944335938,783.2966918945312
509,814.7252807617188,791.3552856445312,783.6996459960938,782.893798828125
510,793.7728881835938,787.3259887695312,786.923095703125,782.893798828125
511,795.7875366210938,788.5347900390625,791.3552856445312,794.5787353515625
512,791.7582397460938,791.3552856445312,794.1758422851562,801.4285888671875
513,784.908447265625,793.7728881835938,793.3699340820312,794.5787353515625
514,799.4139404296875,794.1758422851562,793.7728881835938,799.010986328125
515,809.4871826171875,792.1611938476562,798.2051391601562,801.025634765625
516,804.2490844726562,794.5787353515625,797.8021850585938,802.6373901367188
517,804.6520385742188,796.996337890625,797.3992919921875,809.4871826171875
518,798.6080322265625,792.967041015625,801.4285888671875,806.2637329101562
519,794.981689453125,793.7728881835938,802.6373901367188,805.054931640625
520,801.8314819335938,792.5640869140625,807.069580078125,808.2783813476562
521,800.2197875976562,790.5494384765625,810.2930297851562,803.4432373046875
522,790.952392578125,790.5494384765625,802.6373901367188,791.7582397460938
523,792.1611938476562,792.967041015625,794.981689453125,793.3699340820312
524,807.069580078125,792.967041015625,792.5640869140625,793.7728881835938
525,797.8021850585938,788.5347900390625,794.5787353515625,786.923095703125
526,776.8497924804688,789.7435913085938,794.5787353515625,785.3113403320312
527,787.7289428710938,794.1758422851562,790.5494384765625,794.981689453125
528,795.7875366210938,789.7435913085938,794.981689453125,796.996337890625
529,808.2783813476562,791.3552856445312,793.7728881835938,797.8021850585938
530,817.5457763671875,791.7582397460938,795.7875366210938,807.4725341796875
531,807.069580078125,795.7875366210938,796.5933837890625,808.2783813476562
532,801.8314819335938,797.8021850585938,790.952392578125,806.2637329101562
533,809.084228515625,796.996337890625,794.5787353515625,805.054931640625
534,807.4725341796875,799.010986328125,796.5933837890625,813.5164794921875
535,792.967041015625,799.010986328125,791.3552856445312,809.89013671875
536,782.087890625,794.1758422851562,791.7582397460938,798.6080322265625
537,787.7289428710938,792.967041015625,795.3846435546875,796.996337890625
538,795.3846435546875,793.3699340820312,799.8168334960938,799.8168334960938
539,798.2051391601562,792.967041015625,796.5933837890625,798.6080322265625
540,795.3846435546875,798.6080322265625,791.3552856445312,794.5787353515625
541,805.8607788085938,799.8168334960938,792.1611938476562,793.3699340820312
542,816.3369750976562,793.3699340820312,789.3406372070312,790.1465454101562
543,785.3113403320312,793.7728881835938,790.5494384765625,789.3406372070312
544,775.6410522460938,795.7875366210938,794.5787353515625,787.3259887695312
545,784.908447265625,795.7875366210938,797.3992919921875,782.087890625
546,777.6557006835938,796.1904907226562,798.2051391601562,779.2673950195312
547,772.8204956054688,794.981689453125,794.1758422851562,776.4468994140625
548,780.0732421875,791.3552856445312,792.5640869140625,777.2527465820312
549,784.5054931640625,793.7728881835938,793.3699340820312,779.6703491210938
550,781.2820434570312,797.3992919921875,794.5787353515625,779.6703491210938
551,785.7142944335938,791.7582397460938,796.1904907226562,786.1171875
552,788.1318969726562,794.5787353515625,796.5933837890625,791.3552856445312
553,793.3699340820312,796.1904907226562,794.5787353515625,790.5494384765625
554,791.3552856445312,790.1465454101562,793.7728881835938,791.7582397460938
555,788.1318969726562,785.7142944335938,792.967041015625,783.6996459960938
556,799.8168334960938,786.5201416015625,794.1758422851562,772.0146484375
557,794.1758422851562,784.908447265625,795.3846435546875,768.3883056640625
558,784.1025390625,784.5054931640625,797.8021850585938,774.8351440429688
559,786.923095703125,787.3259887695312,800.6226806640625,780.879150390625
560,786.1171875,788.937744140625,807.87548828125,781.6849975585938
561,786.5201416015625,786.5201416015625,808.6813354492188,778.8644409179688
562,791.3552856445312,787.3259887695312,801.8314819335938,774.8351440429688
563,796.5933837890625,793.7728881835938,807.069580078125,775.2380981445312
564,794.5787353515625,795.7875366210938,811.90478515625,780.0732421875
565,771.6116943359375,790.952392578125,805.054931640625,772.8204956054688
566,763.9560546875,791.3552856445312,808.6813354492188,770.8058471679688
567,766.7765502929688,802.6373901367188,809.4871826171875,768.3883056640625
568,753.4798583984375,801.8314819335938,805.8607788085938,757.5091552734375
569,756.3003540039062,801.8314819335938,812.3076782226562,757.5091552734375
570,747.4359130859375,800.2197875976562,806.2637329101562,752.6740112304688
571,740.1831665039062,801.4285888671875,810.6959838867188,745.4212646484375
572,731.7216186523438,807.87548828125,820.7692260742188,736.5567626953125
573,715.6043701171875,811.90478515625,817.1428833007812,725.2747192382812
574,710.7692260742188,807.4725341796875,819.1575317382812,722.8571166992188
575,708.7545776367188,806.2637329101562,820.3662719726562,718.02197265625
576,696.6666870117188,811.5018310546875,823.99267578125,709.96337890625
577,684.5787353515625,814.3223266601562,827.2161254882812,705.5311279296875
578,680.5494384765625,813.5164794921875,823.99267578125,693.4432373046875
579,674.908447265625,818.3516235351562,823.5897216796875,680.952392578125
580,671.6849975585938,817.1428833007812,828.02197265625,678.937744140625
581,677.3259887695312,812.7106323242188,832.05126953125,680.1465454101562
582,690.2197875976562,816.3369750976562,829.6337280273438,689.8168334960938
583,691.4285888671875,812.7106323242188,824.3956298828125,697.069580078125
584,692.2344360351562,811.098876953125,824.3956298828125,701.90478515625
585,691.4285888671875,811.098876953125,821.97802734375,695.054931640625
586,691.4285888671875,810.2930297851562,817.5457763671875,695.4578857421875
587,700.6959838867188,813.91943359375,816.7399291992188,706.7399291992188
588,709.1575317382812,807.4725341796875,816.7399291992188,713.1868286132812
589,722.05126953125,805.8607788085938,815.5311279296875,725.2747192382812
590,735.7509155273438,809.084228515625,810.6959838867188,737.3626098632812
591,747.032958984375,802.2344360351562,809.084228515625,743.003662109375
592,749.4505615234375,801.025634765625,809.084228515625,765.5677490234375
593,746.2271118164062,799.8168334960938,810.2930297851562,778.4615478515625
594,757.912109375,790.952392578125,805.8607788085938,774.4322509765625
595,776.0439453125,784.908447265625,800.6226806640625,789.7435913085938
596,780.4761962890625,780.0732421875,802.2344360351562,794.5787353515625
597,778.4615478515625,777.2527465820312,794.5787353515625,791.7582397460938
598,788.937744140625,783.6996459960938,782.893798828125,803.8461303710938
599,790.1465454101562,787.7289428710938,780.879150390625,801.8314819335938
600,802.6373901367188,788.1318969726562,782.893798828125,803.4432373046875
601,817.1428833007812,790.1465454101562,782.087890625,812.3076782226562
602,815.5311279296875,785.7142944335938,779.2673950195312,807.87548828125
603,818.7545776367188,784.1025390625,776.4468994140625,813.113525390625
604,819.5604248046875,784.5054931640625,776.4468994140625,820.3662719726562
605,823.5897216796875,783.6996459960938,776.0439453125,820.3662719726562
606,828.4249267578125,786.923095703125,776.8497924804688,827.2161254882812
607,827.2161254882812,787.3259887695312,779.6703491210938,830.8424682617188
608,826.8131713867188,783.6996459960938,774.4322509765625,821.97802734375
609,831.6483764648438,783.2966918945312,770.8058471679688,824.7985229492188
610,832.4542236328125,784.908447265625,770.8058471679688,831.2454223632812
611,830.4395751953125,786.1171875,772.0146484375,826.8131713867188
612,821.1721801757812,786.1171875,774.8351440429688,826.00732421875
613,817.5457763671875,787.3259887695312,770.0,824.3956298828125
614,821.1721801757812,786.1171875,765.1648559570312,821.5750732421875
615,824.7985229492188,786.1171875,768.7911987304688,826.4102783203125
616,830.8424682617188,787.3259887695312,773.6264038085938,840.5128173828125
617,838.901123046875,785.3113403320312,775.2380981445312,838.4981689453125
618,838.09521484375,783.2966918945312,773.2234497070312,832.4542236328125
619,822.3809814453125,782.893798828125,776.4468994140625,830.8424682617188
620,820.3662719726562,782.087890625,775.6410522460938,827.6190185546875
621,824.3956298828125,783.6996459960938,772.4176025390625,829.6337280273438
622,823.5897216796875,784.5054931640625,774.4322509765625,826.4102783203125
623,824.7985229492188,784.5054931640625,773.2234497070312,829.2307739257812
624,824.7985229492188,790.1465454101562,776.8497924804688,828.8278198242188
625,826.8131713867188,790.1465454101562,781.6849975585938,832.4542236328125
626,827.6190185546875,784.5054931640625,780.0732421875,831.6483764648438
627,827.6190185546875,785.3113403320312,774.8351440429688,821.1721801757812
628,835.6776733398438,793.7728881835938,774.4322509765625,819.5604248046875
629,834.06591796875,794.981689453125,773.6264038085938,813.113525390625
630,817.5457763671875,788.1318969726562,775.2380981445312,812.3076782226562
631,817.94873046875,789.7435913085938,776.8497924804688,816.3369750976562
632,820.3662719726562,790.1465454101562,776.8497924804688,807.069580078125
633,811.098876953125,786.5201416015625,776.0439453125,799.8168334960938
634,811.098876953125,787.3259887695312,777.6557006835938,807.87548828125
635,812.3076782226562,785.7142944335938,783.2966918945312,811.90478515625
636,819.1575317382812,788.1318969726562,783.2966918945312,812.3076782226562
637,824.7985229492188,786.923095703125,784.908447265625,812.7106323242188
638,823.5897216796875,783.6996459960938,786.5201416015625,802.6373901367188
639,822.3809814453125,786.1171875,786.1171875,803.8461303710938
640,814.7252807617188,790.1465454101562,786.1171875,806.2637329101562
641,812.7106323242188,791.7582397460938,784.5054931640625,800.2197875976562
642,817.1428833007812,790.5494384765625,786.1171875,802.6373901367188
643,812.7106323242188,789.7435913085938,791.3552856445312,807.4725341796875
644,802.6373901367188,787.3259887695312,794.981689453125,805.8607788085938
645,797.8021850585938,784.908447265625,792.967041015625,809.084228515625
646,797.3992919921875,786.1171875,790.952392578125,813.113525390625
647,801.4285888671875,786.923095703125,794.1758422851562,803.040283203125
648,807.87548828125,783.2966918945312,797.8021850585938,795.7875366210938
649,800.6226806640625,784.1025390625,797.8021850585938,798.2051391601562
650,796.996337890625,790.952392578125,795.7875366210938,812.3076782226562
651,803.040283203125,792.1611938476562,795.3846435546875,811.90478515625
652,803.040283203125,792.967041015625,796.996337890625,796.5933837890625
653,808.6813354492188,794.5787353515625,795.3846435546875,801.025634765625
654,812.3076782226562,791.7582397460938,794.5787353515625,803.8461303710938
655,811.5018310546875,792.5640869140625,793.7728881835938,798.6080322265625
656,820.3662719726562,793.7728881835938,789.3406372070312,797.8021850585938
657,823.5897216796875,796.5933837890625,787.3259887695312,800.6226806640625
658,815.93408203125,795.3846435546875,790.5494384765625,806.6666870117188
659,809.89013671875,796.5933837890625,788.937744140625,805.4578857421875
660,803.040283203125,794.1758422851562,791.3552856445312,801.025634765625
661,804.2490844726562,789.3406372070312,798.2051391601562,807.069580078125
662,805.4578857421875,792.5640869140625,797.3992919921875,814.7252807617188
663,797.8021850585938,793.7728881835938,799.010986328125,808.6813354492188
664,790.952392578125,791.3552856445312,798.6080322265625,804.6520385742188
665,788.5347900390625,788.1318969726562,800.2197875976562,807.87548828125
666,788.937744140625,791.3552856445312,803.8461303710938,811.5018310546875
667,793.3699340820312,793.7728881835938,797.8021850585938,804.2490844726562
668,787.3259887695312,792.5640869140625,796.1904907226562,795.3846435546875
669,780.879150390625,794.981689453125,796.996337890625,790.952392578125
670,782.087890625,794.1758422851562,794.1758422851562,786.923095703125
671,783.2966918945312,792.967041015625,792.967041015625,789.7435913085938
672,790.952392578125,794.981689453125,792.5640869140625,795.7875366210938
673,796.5933837890625,797.3992919921875,793.7728881835938,798.2051391601562
674,794.5787353515625,799.8168334960938,794.1758422851562,794.5787353515625
675,791.7582397460938,800.6226806640625,795.3846435546875,785.7142944335938
676,793.3699340820312,797.8021850585938,797.8021850585938,784.5054931640625
677,805.054931640625,794.1758422851562,796.1904907226562,792.1611938476562
678,809.89013671875,797.3992919921875,792.967041015625,791.7582397460938
679,801.8314819335938,794.5787353515625,792.5640869140625,786.5201416015625
680,795.7875366210938,790.952392578125,792.967041015625,792.5640869140625
681,796.5933837890625,794.5787353515625,796.5933837890625,799.4139404296875
682,799.8168334960938,792.967041015625,799.4139404296875,799.8168334960938
683,804.2490844726562,788.937744140625,796.1904907226562,800.2197875976562
684,804.2490844726562,788.1318969726562,794.981689453125,804.6520385742188
685,801.025634765625,791.7582397460938,794.5787353515625,809.4871826171875
686,801.8314819335938,794.1758422851562,796.1904907226562,811.90478515625
687,808.2783813476562,796.996337890625,797.8021850585938,807.4725341796875
688,801.025634765625,796.5933837890625,792.1611938476562,805.054931640625
689,787.3259887695312,792.5640869140625,792.5640869140625,801.8314819335938
690,790.1465454101562,791.7582397460938,794.5787353515625,797.8021850585938
691,789.3406372070312,794.5787353515625,796.996337890625,797.3992919921875
692,786.1171875,793.7728881835938,796.996337890625,793.3699340820312
693,790.952392578125,789.7435913085938,798.2051391601562,787.7289428710938
694,789.3406372070312,788.937744140625,800.6226806640625,786.5201416015625
695,783.6996459960938,790.5494384765625,795.7875366210938,783.6996459960938
696,786.1171875,792.5640869140625,792.1611938476562,783.6996459960938
697,798.6080322265625,793.3699340820312,795.7875366210938,789.3406372070312
698,799.8168334960938,790.1465454101562,794.981689453125,783.6996459960938
699,794.981689453125,788.937744140625,789.3406372070312,778.8644409179688
700,793.7728881835938,787.3259887695312,790.5494384765625,785.3113403320312
701,790.952392578125,791.3552856445312,792.967041015625,785.7142944335938
702,784.908447265625,794.1758422851562,791.3552856445312,782.4908447265625
703,784.908447265625,793.7728881835938,792.1611938476562,784.1025390625
704,788.937744140625,792.967041015625,792.5640869140625,786.1171875
705,786.923095703125,792.967041015625,794.1758422851562,794.981689453125
706,785.3113403320312,795.7875366210938,795.7875366210938,790.5494384765625
707,786.5201416015625,792.967041015625,793.3699340820312,779.2673950195312
708,781.2820434570312,790.1465454101562,790.5494384765625,780.0732421875
709,782.087890625,790.5494384765625,789.7435913085938,782.4908447265625
710,784.908447265625,790.5494384765625,794.981689453125,788.5347900390625
711,784.908447265625,792.1611938476562,797.8021850585938,793.7728881835938
712,796.1904907226562,791.7582397460938,801.025634765625,803.040283203125
713,800.6226806640625,788.937744140625,800.2197875976562,803.040283203125
714,791.7582397460938,787.7289428710938,800.2197875976562,797.3992919921875
715,782.4908447265625,790.952392578125,802.2344360351562,796.996337890625
716,782.893798828125,791.7582397460938,800.2197875976562,796.5933837890625
717,792.1611938476562,792.5640869140625,803.8461303710938,798.6080322265625
718,795.7875366210938,793.7728881835938,803.8461303710938,793.7728881835938
719,792.5640869140625,792.5640869140625,797.8021850585938,784.1025390625
720,788.5347900390625,793.7728881835938,800.6226806640625,782.087890625
721,787.3259887695312,791.7582397460938,799.4139404296875,778.05859375
722,790.952392578125,795.3846435546875,797.8021850585938,779.6703491210938
723,794.5787353515625,801.025634765625,801.8314819335938,792.1611938476562
724,798.2051391601562,797.3992919921875,801.025634765625,796.996337890625
725,800.2197875976562,796.996337890625,803.4432373046875,795.3846435546875
726,798.6080322265625,798.6080322265625,805.054931640625,794.981689453125
727,797.8021850585938,795.7875366210938,803.040283203125,797.8021850585938
728,796.1904907226562,794.1758422851562,801.8314819335938,802.2344360351562
729,787.7289428710938,795.3846435546875,801.4285888671875,795.3846435546875
730,788.5347900390625,795.7875366210938,802.6373901367188,787.7289428710938
731,784.908447265625,794.1758422851562,803.040283203125,786.923095703125
732,776.0439453125,789.3406372070312,802.2344360351562,791.3552856445312
733,782.087890625,786.5201416015625,803.8461303710938,793.3699340820312
734,787.3259887695312,790.1465454101562,803.040283203125,790.952392578125
735,780.879150390625,787.3259887695312,797.8021850585938,793.7728881835938
736,771.6116943359375,784.5054931640625,796.5933837890625,792.1611938476562
737,770.4029541015625,784.5054931640625,793.3699340820312,786.923095703125
738,775.6410522460938,783.2966918945312,793.3699340820312,790.1465454101562
739,778.8644409179688,783.2966918945312,798.6080322265625,789.3406372070312
740,780.0732421875,788.937744140625,796.5933837890625,787.3259887695312
741,783.2966918945312,792.1611938476562,795.7875366210938,788.5347900390625
742,779.6703491210938,788.5347900390625,795.3846435546875,784.5054931640625
743,776.0439453125,789.7435913085938,795.7875366210938,780.4761962890625
744,781.2820434570312,794.1758422851562,797.8021850585938,778.8644409179688
745,789.7435913085938,797.8021850585938,795.3846435546875,779.6703491210938
746,789.3406372070312,794.5787353515625,791.7582397460938,781.2820434570312
747,786.923095703125,790.1465454101562,789.3406372070312,782.4908447265625
748,785.3113403320312,791.7582397460938,794.1758422851562,783.2966918945312
749,788.1318969726562,795.3846435546875,792.967041015625,787.7289428710938
750,788.1318969726562,796.1904907226562,792.1611938476562,796.5933837890625
751,780.0732421875,789.3406372070312,794.1758422851562,799.8168334960938
752,777.6557006835938,789.7435913085938,794.1758422851562,796.1904907226562
753,786.923095703125,789.7435913085938,794.5787353515625,792.1611938476562
754,796.996337890625,792.1611938476562,794.981689453125,790.952392578125
755,796.1904907226562,794.1758422851562,796.1904907226562,791.7582397460938
756,797.8021850585938,792.967041015625,792.1611938476562,793.3699340820312
757,793.7728881835938,793.3699340820312,788.5347900390625,790.1465454101562
758,784.1025390625,793.3699340820312,790.1465454101562,784.908447265625
759,790.1465454101562,792.967041015625,789.7435913085938,791.7582397460938
760,797.8021850585938,791.3552856445312,795.7875366210938,793.3699340820312
761,800.2197875976562,792.5640869140625,799.8168334960938,793.3699340820312
762,794.1758422851562,791.7582397460938,795.3846435546875,791.3552856445312
763,784.5054931640625,789.7435913085938,790.1465454101562,789.3406372070312
764,787.3259887695312,789.7435913085938,789.3406372070312,788.1318969726562
765,788.937744140625,784.5054931640625,789.7435913085938,786.5201416015625
766,786.5201416015625,786.923095703125,787.7289428710938,791.3552856445312
767,787.3259887695312,795.3846435546875,791.7582397460938,788.5347900390625
768,790.5494384765625,789.7435913085938,795.3846435546875,785.7142944335938
769,795.3846435546875,786.1171875,794.981689453125,790.952392578125
770,798.2051391601562,785.7142944335938,798.2051391601562,794.981689453125
771,790.5494384765625,784.1025390625,794.1758422851562,784.908447265625
772,798.6080322265625,784.5054931640625,791.3552856445312,784.5054931640625
773,804.2490844726562,785.3113403320312,792.5640869140625,800.2197875976562
774,788.5347900390625,785.3113403320312,788.937744140625,804.2490844726562
775,786.5201416015625,782.4908447265625,789.7435913085938,797.3992919921875
776,783.2966918945312,782.893798828125,790.952392578125,790.952392578125
777,779.6703491210938,784.908447265625,790.1465454101562,786.923095703125
778,784.908447265625,781.6849975585938,788.5347900390625,781.6849975585938
779,786.923095703125,781.6849975585938,787.7289428710938,782.893798828125
780,786.923095703125,787.3259887695312,792.1611938476562,792.1611938476562
781,794.981689453125,791.7582397460938,792.5640869140625,788.1318969726562
782,790.5494384765625,792.1611938476562,789.7435913085938,784.5054931640625
783,781.2820434570312,786.1171875,788.937744140625,787.3259887695312
784,790.952392578125,783.6996459960938,785.3113403320312,784.1025390625
785,792.967041015625,786.5201416015625,782.087890625,787.3259887695312
786,782.087890625,787.7289428710938,782.893798828125,783.2966918945312
787,777.6557006835938,786.5201416015625,784.1025390625,774.4322509765625
788,778.4615478515625,782.4908447265625,782.893798828125,773.2234497070312
789,787.3259887695312,789.3406372070312,782.4908447265625,778.05859375
790,794.1758422851562,796.5933837890625,782.893798828125,783.6996459960938
791,794.5787353515625,796.5933837890625,781.6849975585938,784.5054931640625
792,792.967041015625,796.5933837890625,777.2527465820312,781.6849975585938
793,787.7289428710938,792.5640869140625,779.2673950195312,783.2966918945312
794,782.893798828125,790.952392578125,782.893798828125,790.952392578125
795,790.5494384765625,794.1758422851562,786.5201416015625,794.5787353515625
796,800.2197875976562,794.1758422851562,788.1318969726562,805.8607788085938
797,801.4285888671875,793.7728881835938,787.7289428710938,805.054931640625
798,793.7728881835938,795.3846435546875,786.1171875,788.5347900390625
799,798.2051391601562,793.3699340820312,790.1465454101562,792.967041015625
800,805.8607788085938,792.5640869140625,796.5933837890625,799.010986328125
801,804.2490844726562,795.7875366210938,792.5640869140625,796.1904907226562
802,799.4139404296875,796.5933837890625,792.5640869140625,792.967041015625
803,794.981689453125,794.5787353515625,792.967041015625,791.3552856445312
804,796.5933837890625,794.981689453125,786.5201416015625,792.1611938476562
805,796.1904907226562,794.981689453125,788.1318969726562,792.5640869140625
806,796.1904907226562,791.7582397460938,792.5640869140625,794.1758422851562
807,792.5640869140625,792.967041015625,788.1318969726562,789.7435913085938
808,790.1465454101562,796.1904907226562,785.3113403320312,788.1318969726562
809,786.5201416015625,791.3552856445312,790.952392578125,786.1171875
810,781.2820434570312,787.7289428710938,792.5640869140625,783.2966918945312
811,785.7142944335938,787.3259887695312,791.3552856445312,786.5201416015625
812,792.1611938476562,781.6849975585938,790.5494384765625,786.923095703125
813,796.5933837890625,787.7289428710938,790.952392578125,788.5347900390625
814,787.3259887695312,801.8314819335938,795.3846435546875,789.7435913085938
815,789.7435913085938,801.4285888671875,796.1904907226562,792.1611938476562
816,799.8168334960938,795.7875366210938,794.5787353515625,793.3699340820312
817,793.3699340820312,796.996337890625,793.7728881835938,794.981689453125
818,785.3113403320312,797.8021850585938,794.981689453125,792.967041015625
819,782.087890625,795.7875366210938,794.1758422851562,790.952392578125
820,788.937744140625,794.1758422851562,794.5787353515625,793.3699340820312
821,790.1465454101562,794.1758422851562,795.3846435546875,788.1318969726562
822,784.908447265625,793.7728881835938,793.3699340820312,789.7435913085938
823,782.087890625,792.1611938476562,792.1611938476562,793.3699340820312
824,774.8351440429688,791.3552856445312,784.5054931640625,792.5640869140625
825,770.8058471679688,794.5787353515625,787.3259887695312,789.7435913085938
826,779.6703491210938,796.1904907226562,797.8021850585938,786.923095703125
827,786.5201416015625,794.981689453125,798.2051391601562,788.5347900390625
828,782.893798828125,790.1465454101562,792.967041015625,785.7142944335938
829,780.879150390625,788.1318969726562,791.7582397460938,786.5201416015625
830,782.893798828125,792.5640869140625,796.996337890625,787.7289428710938
831,790.1465454101562,794.1758422851562,795.3846435546875,788.1318969726562
832,792.1611938476562,798.2051391601562,790.5494384765625,784.908447265625
833,786.923095703125,796.996337890625,791.3552856445312,775.6410522460938
834,784.908447265625,793.3699340820312,793.3699340820312,777.6557006835938
835,786.1171875,791.7582397460938,792.1611938476562,778.4615478515625
836,788.5347900390625,793.3699340820312,787.3259887695312,779.6703491210938
837,786.923095703125,794.981689453125,790.952392578125,783.6996459960938
838,785.7142944335938,794.5787353515625,789.3406372070312,783.6996459960938
839,782.893798828125,795.7875366210938,787.7289428710938,782.087890625
840,784.1025390625,794.981689453125,792.967041015625,784.1025390625
841,786.923095703125,797.8021850585938,788.5347900390625,788.937744140625
842,784.1025390625,802.2344360351562,786.1171875,788.5347900390625
843,781.2820434570312,803.8461303710938,792.5640869140625,791.7582397460938
844,787.3259887695312,803.4432373046875,794.1758422851562,788.1318969726562
845,798.6080322265625,801.8314819335938,795.3846435546875,788.1318969726562
846,803.4432373046875,802.2344360351562,800.2197875976562,793.3699340820312
847,804.2490844726562,801.025634765625,796.996337890625,793.7728881835938
848,805.4578857421875,795.7875366210938,795.7875366210938,800.6226806640625
849,801.4285888671875,786.5201416015625,799.010986328125,810.6959838867188
850,794.1758422851562,786.5201416015625,799.010986328125,804.6520385742188
851,780.879150390625,790.952392578125,796.996337890625,791.3552856445312
852,774.8351440429688,789.7435913085938,795.3846435546875,788.937744140625
853,786.5201416015625,785.3113403320312,796.1904907226562,788.1318969726562
854,784.5054931640625,788.937744140625,797.8021850585938,786.923095703125
855,778.05859375,795.3846435546875,800.6226806640625,784.5054931640625
856,782.893798828125,790.1465454101562,807.4725341796875,782.087890625
857,787.3259887695312,790.5494384765625,804.2490844726562,789.3406372070312
858,789.3406372070312,796.1904907226562,797.3992919921875,794.981689453125
859,788.937744140625,793.7728881835938,799.010986328125,790.5494384765625
860,792.967041015625,786.5201416015625,797.3992919921875,789.3406372070312
861,788.937744140625,784.5054931640625,796.1904907226562,790.1465454101562
862,788.1318969726562,788.937744140625,796.1904907226562,788.5347900390625
863,787.3259887695312,789.7435913085938,798.2051391601562,782.893798828125
864,780.4761962890625,786.923095703125,801.4285888671875,784.5054931640625
865,786.1171875,784.5054931640625,799.4139404296875,789.7435913085938
866,789.3406372070312,784.908447265625,797.8021850585938,791.3552856445312
867,789.7435913085938,789.7435913085938,805.054931640625,794.981689453125
868,801.8314819335938,794.1758422851562,805.054931640625,786.5201416015625
869,800.2197875976562,794.981689453125,802.6373901367188,786.5201416015625
870,780.4761962890625,791.7582397460938,800.6226806640625,791.7582397460938
871,780.879150390625,794.981689453125,799.8168334960938,785.7142944335938
872,788.5347900390625,803.040283203125,803.040283203125,791.3552856445312
873,786.5201416015625,801.4285888671875,805.8607788085938,792.1611938476562
874,783.6996459960938,796.996337890625,804.2490844726562,787.3259887695312
875,784.5054931640625,799.8168334960938,800.6226806640625,789.7435913085938
876,787.3259887695312,793.7728881835938,803.8461303710938,796.1904907226562
877,790.952392578125,792.1611938476562,804.6520385742188,799.8168334960938
878,793.3699340820312,797.8021850585938,802.2344360351562,801.4285888671875
879,790.1465454101562,796.996337890625,801.025634765625,800.2197875976562
880,787.7289428710938,795.7875366210938,799.4139404296875,793.3699340820312
881,789.3406372070312,792.1611938476562,796.5933837890625,791.3552856445312
882,788.5347900390625,790.5494384765625,794.5787353515625,786.1171875
883,789.3406372070312,798.2051391601562,794.981689453125,783.2966918945312
884,792.1611938476562,800.6226806640625,790.5494384765625,786.5201416015625
885,793.3699340820312,801.8314819335938,793.7728881835938,784.908447265625
886,791.3552856445312,801.4285888671875,797.3992919921875,785.3113403320312
887,795.7875366210938,799.8168334960938,794.1758422851562,784.5054931640625
888,802.2344360351562,800.2197875976562,797.3992919921875,788.937744140625
889,798.6080322265625,796.996337890625,799.8168334960938,789.3406372070312
890,796.1904907226562,799.010986328125,797.3992919921875,786.5201416015625
891,793.7728881835938,801.025634765625,797.3992919921875,788.937744140625
892,788.937744140625,798.2051391601562,798.2051391601562,788.1318969726562
893,792.1611938476562,799.010986328125,794.981689453125,790.1465454101562
894,791.7582397460938,799.4139404296875,791.3552856445312,785.3113403320312
895,785.3113403320312,794.981689453125,786.1171875,781.6849975585938
896,789.7435913085938,795.3846435546875,784.5054931640625,785.3113403320312
897,790.952392578125,794.1758422851562,788.5347900390625,789.7435913085938
898,786.923095703125,790.952392578125,787.3259887695312,792.1611938476562
899,790.1465454101562,789.7435913085938,787.3259887695312,791.3552856445312
900,789.3406372070312,790.1465454101562,788.5347900390625,790.5494384765625
901,785.3113403320312,794.1758422851562,790.5494384765625,785.7142944335938
902,789.7435913085938,792.5640869140625,794.981689453125,784.908447265625
903,794.5787353515625,789.7435913085938,794.981689453125,787.7289428710938
904,789.3406372070312,793.3699340820312,788.937744140625,792.1611938476562
905,781.2820434570312,792.5640869140625,789.3406372070312,796.1904907226562
906,779.6703491210938,791.7582397460938,792.967041015625,789.3406372070312
907,784.5054931640625,791.7582397460938,791.3552856445312,779.2673950195312
908,788.5347900390625,793.7728881835938,791.3552856445312,778.05859375
909,795.7875366210938,792.5640869140625,790.5494384765625,781.6849975585938
910,787.3259887695312,793.7728881835938,792.5640869140625,779.6703491210938
911,776.0439453125,796.996337890625,795.3846435546875,785.3113403320312
912,784.5054931640625,794.5787353515625,796.1904907226562,793.7728881835938
913,788.937744140625,796.1904907226562,793.3699340820312,790.1465454101562
914,782.893798828125,796.996337890625,786.5201416015625,783.2966918945312
915,784.5054931640625,793.7728881835938,788.5347900390625,786.923095703125
916,783.2966918945312,790.5494384765625,791.3552856445312,788.1318969726562
917,780.4761962890625,792.1611938476562,787.3259887695312,789.3406372070312
918,791.3552856445312,798.6080322265625,790.952392578125,792.5640869140625
919,794.1758422851562,800.6226806640625,791.3552856445312,791.3552856445312
920,783.6996459960938,794.5787353515625,790.952392578125,790.952392578125
921,784.1025390625,788.937744140625,791.7582397460938,791.3552856445312
922,786.5201416015625,792.5640869140625,790.5494384765625,792.967041015625
923,782.4908447265625,797.3992919921875,794.981689453125,798.6080322265625
924,782.893798828125,795.7875366210938,797.8021850585938,797.8021850585938
925,776.4468994140625,792.1611938476562,796.996337890625,792.5640869140625
926,770.4029541015625,786.923095703125,797.3992919921875,792.967041015625
927,776.8497924804688,782.893798828125,801.4285888671875,792.5640869140625
928,782.4908447265625,783.2966918945312,800.6226806640625,786.5201416015625
929,789.3406372070312,787.3259887695312,797.8021850585938,784.5054931640625
930,797.3992919921875,786.1171875,797.8021850585938,782.087890625
931,793.3699340820312,786.1171875,796.1904907226562,782.087890625
932,786.923095703125,788.5347900390625,794.1758422851562,790.952392578125
933,790.952392578125,783.2966918945312,795.3846435546875,787.3259887695312
934,796.5933837890625,782.893798828125,796.996337890625,783.2966918945312
935,794.5787353515625,787.3259887695312,795.3846435546875,792.1611938476562
936,790.952392578125,787.7289428710938,790.5494384765625,783.6996459960938
937,795.7875366210938,788.937744140625,787.7289428710938,778.05859375
938,800.2197875976562,784.1025390625,790.1465454101562,786.923095703125
939,791.3552856445312,784.1025390625,786.923095703125,790.952392578125
940,789.3406372070312,786.5201416015625,789.7435913085938,784.908447265625
941,795.3846435546875,786.5201416015625,799.4139404296875,788.5347900390625
942,795.7875366210938,792.5640869140625,796.5933837890625,791.7582397460938
943,805.054931640625,792.967041015625,794.5787353515625,795.7875366210938
944,812.7106323242188,793.3699340820312,807.87548828125,809.084228515625
945,798.6080322265625,794.981689453125,805.054931640625,801.4285888671875
946,775.6410522460938,791.7582397460938,795.7875366210938,786.923095703125
947,772.4176025390625,790.1465454101562,793.3699340820312,786.1171875
948,786.923095703125,790.952392578125,790.5494384765625,787.7289428710938
949,788.1318969726562,787.7289428710938,788.937744140625,786.5201416015625
950,771.6116943359375,786.923095703125,789.7435913085938,781.2820434570312
951,769.5970458984375,790.5494384765625,794.5787353515625,782.087890625
952,783.2966918945312,794.1758422851562,799.010986328125,790.1465454101562
953,787.7289428710938,792.1611938476562,800.6226806640625,795.7875366210938
954,789.3406372070312,790.5494384765625,800.2197875976562,797.3992919921875
955,790.952392578125,791.7582397460938,799.4139404296875,792.5640869140625
956,788.937744140625,792.5640869140625,800.6226806640625,792.967041015625
957,787.7289428710938,794.1758422851562,805.054931640625,796.1904907226562
958,790.952392578125,789.3406372070312,803.040283203125,794.5787353515625
959,793.3699340820312,787.7289428710938,800.6226806640625,793.3699340820312
960,793.7728881835938,792.1611938476562,800.2197875976562,791.3552856445312
961,788.5347900390625,793.3699340820312,798.6080322265625,792.1611938476562
962,788.1318969726562,792.1611938476562,801.8314819335938,793.3699340820312
963,788.1318969726562,790.952392578125,801.4285888671875,794.1758422851562
964,796.5933837890625,794.1758422851562,801.4285888671875,799.010986328125
965,800.2197875976562,790.952392578125,801.025634765625,798.6080322265625
966,791.7582397460938,790.952392578125,795.7875366210938,788.937744140625
967,801.8314819335938,795.3846435546875,795.3846435546875,785.7142944335938
968,799.010986328125,795.3846435546875,798.2051391601562,785.7142944335938
969,792.1611938476562,788.5347900390625,797.3992919921875,781.2820434570312
970,798.6080322265625,786.923095703125,794.981689453125,788.1318969726562
971,793.3699340820312,792.1611938476562,796.1904907226562,789.7435913085938
972,786.1171875,790.5494384765625,796.5933837890625,785.7142944335938
973,786.1171875,786.5201416015625,793.3699340820312,784.908447265625
974,789.7435913085938,789.3406372070312,794.981689453125,789.3406372070312
975,800.2197875976562,790.1465454101562,797.8021850585938,791.7582397460938
976,799.8168334960938,791.7582397460938,795.3846435546875,792.5640869140625
977,796.5933837890625,794.981689453125,793.7728881835938,794.981689453125
978,789.7435913085938,795.3846435546875,796.996337890625,785.7142944335938
979,792.1611938476562,799.010986328125,796.5933837890625,784.1025390625
980,806.2637329101562,797.8021850585938,796.996337890625,796.5933837890625
981,801.4285888671875,795.7875366210938,793.3699340820312,798.6080322265625
982,794.5787353515625,796.1904907226562,792.967041015625,790.1465454101562
983,796.996337890625,794.5787353515625,794.981689453125,788.1318969726562
984,800.2197875976562,795.3846435546875,793.3699340820312,795.3846435546875
985,797.8021850585938,794.981689453125,792.1611938476562,799.8168334960938
986,793.3699340820312,792.1611938476562,790.5494384765625,794.981689453125
987,789.3406372070312,791.3552856445312,790.1465454101562,791.3552856445312
988,798.6080322265625,790.952392578125,791.3552856445312,799.010986328125
989,803.8461303710938,794.5787353515625,791.7582397460938,806.6666870117188
990,802.6373901367188,800.6226806640625,791.7582397460938,802.2344360351562
991,802.6373901367188,798.6080322265625,792.5640869140625,792.5640869140625
992,794.5787353515625,791.3552856445312,794.1758422851562,789.3406372070312
993,788.1318969726562,789.3406372070312,795.7875366210938,790.952392578125
994,788.1318969726562,790.952392578125,795.3846435546875,788.937744140625
995,790.952392578125,792.967041015625,794.981689453125,793.7728881835938
996,790.5494384765625,792.5640869140625,793.3699340820312,794.981689453125
997,787.3259887695312,793.7728881835938,793.7728881835938,787.3259887695312
998,786.5201416015625,791.3552856445312,796.5933837890625,789.3406372070312
999,794.5787353515625,780.0732421875,793.3699340820312,789.3406372070312
1000,793.3699340820312,777.2527465820312,787.7289428710938,790.952392578125
1001,784.1025390625,781.6849975585938,792.967041015625,792.1611938476562
1002,784.908447265625,785.3113403320312,792.967041015625,782.4908447265625
1003,787.7289428710938,788.5347900390625,790.5494384765625,784.908447265625
1004,782.893798828125,792.5640869140625,793.3699340820312,796.1904907226562
1005,779.2673950195312,794.1758422851562,796.1904907226562,801.025634765625
1006,783.2966918945312,790.1465454101562,798.2051391601562,794.1758422851562
1007,780.879150390625,784.908447265625,795.7875366210938,783.6996459960938
1008,783.2966918945312,784.1025390625,792.5640869140625,780.879150390625
1009,786.923095703125,788.1318969726562,791.3552856445312,786.923095703125
1010,782.4908447265625,794.5787353515625,792.5640869140625,789.3406372070312
1011,783.6996459960938,793.3699340820312,786.1171875,792.1611938476562
1012,782.893798828125,788.1318969726562,779.6703491210938,792.967041015625
1013,778.8644409179688,790.1465454101562,782.087890625,783.2966918945312
1014,785.7142944335938,796.5933837890625,787.7289428710938,788.1318969726562
1015,798.6080322265625,795.7875366210938,792.1611938476562,792.5640869140625
1016,792.5640869140625,791.7582397460938,793.7728881835938,784.908447265625
1017,779.2673950195312,791.3552856445312,792.1611938476562,785.3113403320312
1018,782.893798828125,794.5787353515625,797.3992919921875,788.937744140625
1019,788.5347900390625,794.981689453125,796.996337890625,788.937744140625
1020,794.5787353515625,796.996337890625,795.3846435546875,794.981689453125
1021,801.4285888671875,796.996337890625,795.3846435546875,796.1904907226562
1022,804.2490844726562,796.5933837890625,792.967041015625,792.5640869140625
1023,801.025634765625,795.3846435546875,796.5933837890625,796.1904907226562
1024,790.952392578125,794.5787353515625,800.2197875976562,798.2051391601562
1025,785.3113403320312,794.1758422851562,802.2344360351562,793.7728881835938
1026,789.7435913085938,790.952392578125,799.010986328125,794.1758422851562
1027,791.7582397460938,789.7435913085938,799.8168334960938,799.8168334960938
1028,792.1611938476562,788.937744140625,803.040283203125,795.3846435546875
1029,792.967041015625,786.1171875,797.8021850585938,782.4908447265625
1030,788.937744140625,786.1171875,796.5933837890625,776.0439453125
1031,788.5347900390625,784.5054931640625,794.1758422851562,778.4615478515625
1032,795.7875366210938,784.908447265625,788.937744140625,779.6703491210938
1033,801.025634765625,787.7289428710938,792.5640869140625,780.0732421875
1034,802.2344360351562,789.7435913085938,792.967041015625,789.7435913085938
1035,799.010986328125,786.5201416015625,791.3552856445312,790.5494384765625
1036,795.7875366210938,787.3259887695312,794.981689453125,784.5054931640625
1037,795.3846435546875,788.937744140625,796.996337890625,785.7142944335938
1038,796.996337890625,785.7142944335938,798.6080322265625,794.5787353515625
1039,794.5787353515625,790.1465454101562,803.4432373046875,804.2490844726562
1040,788.1318969726562,799.4139404296875,800.2197875976562,792.1611938476562
1041,788.5347900390625,799.010986328125,796.5933837890625,787.7289428710938
1042,790.5494384765625,791.7582397460938,798.2051391601562,791.7582397460938
1043,793.3699340820312,792.5640869140625,796.996337890625,790.1465454101562
1044,786.923095703125,789.7435913085938,796.996337890625,788.5347900390625
1045,779.6703491210938,790.952392578125,799.010986328125,791.3552856445312
1046,782.4908447265625,790.1465454101562,794.5787353515625,794.981689453125
1047,778.4615478515625,786.1171875,791.3552856445312,788.5347900390625
1048,778.05859375,793.3699340820312,795.7875366210938,785.7142944335938
1049,774.8351440429688,796.5933837890625,800.6226806640625,788.1318969726562
1050,773.2234497070312,791.7582397460938,804.6520385742188,784.908447265625
1051,778.05859375,783.6996459960938,798.2051391601562,782.087890625
1052,777.2527465820312,783.2966918945312,792.5640869140625,781.6849975585938
1053,781.2820434570312,788.5347900390625,796.5933837890625,787.7289428710938
1054,779.6703491210938,788.1318969726562,794.981689453125,797.8021850585938
1055,787.7289428710938,788.937744140625,792.967041015625,795.7875366210938
1056,801.025634765625,787.3259887695312,793.3699340820312,788.5347900390625
1057,799.8168334960938,784.1025390625,793.7728881835938,789.3406372070312
1058,792.967041015625,784.1025390625,794.981689453125,789.3406372070312
1059,790.1465454101562,785.3113403320312,795.7875366210938,786.923095703125
1060,800.2197875976562,791.3552856445312,796.996337890625,788.5347900390625
1061,801.4285888671875,791.3552856445312,797.3992919921875,792.5640869140625
1062,800.2197875976562,788.5347900390625,795.3846435546875,793.3699340820312
1063,799.010986328125,790.5494384765625,791.7582397460938,796.5933837890625
1064,791.7582397460938,790.1465454101562,796.5933837890625,800.6226806640625
1065,790.1465454101562,787.7289428710938,799.8168334960938,790.5494384765625
1066,798.2051391601562,790.1465454101562,801.025634765625,793.3699340820312
1067,799.010986328125,789.7435913085938,794.5787353515625,791.7582397460938
1068,795.7875366210938,788.937744140625,792.5640869140625,787.7289428710938
1069,793.7728881835938,790.1465454101562,798.2051391601562,790.952392578125
1070,785.7142944335938,788.937744140625,795.7875366210938,790.5494384765625
1071,788.5347900390625,791.7582397460938,790.5494384765625,788.937744140625
1072,794.981689453125,793.3699340820312,791.7582397460938,790.5494384765625
1073,790.1465454101562,791.7582397460938,794.1758422851562,793.3699340820312
1074,791.3552856445312,785.3113403320312,794.5787353515625,787.3259887695312
1075,794.981689453125,781.6849975585938,794.981689453125,786.1171875
1076,795.3846435546875,787.3259887695312,793.7728881835938,792.5640869140625
1077,799.8168334960938,790.5494384765625,794.1758422851562,792.1611938476562
1078,798.6080322265625,787.7289428710938,792.5640869140625,789.7435913085938
1079,794.5787353515625,787.7289428710938,788.937744140625,788.937744140625
1080,791.7582397460938,787.3259887695312,788.1318969726562,786.923095703125
1081,790.1465454101562,786.5201416015625,792.1611938476562,787.3259887695312
1082,788.5347900390625,790.5494384765625,793.7728881835938,779.6703491210938
1083,784.5054931640625,792.5640869140625,792.1611938476562,772.0146484375
1084,784.5054931640625,788.5347900390625,789.7435913085938,778.8644409179688
1085,781.6849975585938,783.6996459960938,788.937744140625,790.5494384765625
1086,783.6996459960938,782.4908447265625,791.3552856445312,786.923095703125
1087,784.5054931640625,784.908447265625,792.5640869140625,785.7142944335938
1088,783.6996459960938,785.3113403320312,796.1904907226562,786.5201416015625
1089,784.1025390625,785.3113403320312,796.5933837890625,790.952392578125
1090,778.8644409179688,784.5054931640625,794.981689453125,791.7582397460938
1091,780.879150390625,782.4908447265625,794.5787353515625,784.908447265625
1092,781.2820434570312,782.087890625,792.5640869140625,779.6703491210938
1093,778.05859375,790.1465454101562,787.7289428710938,780.0732421875
1094,781.2820434570312,791.3552856445312,789.7435913085938,781.6849975585938
1095,784.908447265625,790.1465454101562,794.981689453125,782.893798828125
1096,788.1318969726562,789.7435913085938,794.1758422851562,793.7728881835938
1097,796.1904907226562,789.7435913085938,794.1758422851562,790.952392578125
1098,801.4285888671875,792.1611938476562,796.1904907226562,788.5347900390625
1099,795.7875366210938,788.937744140625,795.7875366210938,790.1465454101562
1100,793.3699340820312,792.1611938476562,797.8021850585938,790.952392578125
1101,794.1758422851562,799.8168334960938,800.2197875976562,795.3846435546875
1102,794.5787353515625,798.6080322265625,799.8168334960938,791.7582397460938
1103,793.7728881835938,796.996337890625,794.1758422851562,787.7289428710938
1104,785.7142944335938,794.981689453125,787.3259887695312,779.2673950195312
1105,778.05859375,784.908447265625,784.1025390625,774.029296875
1106,780.4761962890625,785.3113403320312,786.1171875,781.2820434570312
1107,794.5787353515625,790.5494384765625,791.3552856445312,790.952392578125
1108,804.2490844726562,792.1611938476562,794.1758422851562,794.1758422851562
1109,795.3846435546875,792.967041015625,793.7728881835938,797.8021850585938
1110,794.981689453125,791.3552856445312,796.1904907226562,792.5640869140625
1111,795.3846435546875,791.7582397460938,798.2051391601562,792.967041015625
1112,788.5347900390625,796.1904907226562,804.6520385742188,799.8168334960938
1113,784.5054931640625,796.996337890625,805.054931640625,800.2197875976562
1114,780.4761962890625,795.7875366210938,805.4578857421875,800.6226806640625
1115,783.6996459960938,798.2051391601562,804.2490844726562,800.6226806640625
1116,782.4908447265625,794.1758422851562,800.6226806640625,808.2783813476562
1117,773.6264038085938,792.5640869140625,799.8168334960938,807.4725341796875
1118,784.5054931640625,794.5787353515625,799.010986328125,793.7728881835938
1119,784.1025390625,794.1758422851562,796.5933837890625,791.3552856445312
1120,764.3589477539062,788.5347900390625,794.5787353515625,790.5494384765625
1121,764.3589477539062,790.1465454101562,800.6226806640625,791.3552856445312
1122,775.6410522460938,795.7875366210938,801.8314819335938,797.8021850585938
1123,788.1318969726562,792.967041015625,799.4139404296875,788.1318969726562
1124,789.3406372070312,791.7582397460938,794.981689453125,782.893798828125
1125,781.6849975585938,792.1611938476562,795.7875366210938,787.3259887695312
1126,784.1025390625,789.7435913085938,793.7728881835938,778.4615478515625
1127,791.3552856445312,790.952392578125,790.5494384765625,779.6703491210938
1128,797.8021850585938,793.7728881835938,796.1904907226562,791.3552856445312
1129,802.6373901367188,790.952392578125,799.010986328125,789.3406372070312
1130,805.4578857421875,791.7582397460938,794.981689453125,783.6996459960938
1131,804.2490844726562,791.7582397460938,790.5494384765625,779.6703491210938
1132,799.4139404296875,793.7728881835938,792.5640869140625,776.8497924804688
1133,799.4139404296875,798.6080322265625,789.3406372070312,785.7142944335938
1134,799.8168334960938,799.010986328125,787.3259887695312,786.5201416015625
1135,797.8021850585938,797.3992919921875,788.5347900390625,780.0732421875
1136,795.3846435546875,801.8314819335938,788.1318969726562,777.6557006835938
1137,798.6080322265625,805.054931640625,794.5787353515625,781.2820434570312
1138,803.040283203125,804.2490844726562,796.1904907226562,792.5640869140625
1139,799.8168334960938,801.025634765625,797.8021850585938,795.7875366210938
1140,805.8607788085938,798.6080322265625,803.8461303710938,798.2051391601562
1141,808.6813354492188,796.1904907226562,807.069580078125,809.4871826171875
1142,794.981689453125,790.5494384765625,811.098876953125,821.1721801757812
1143,803.4432373046875,788.937744140625,812.7106323242188,819.1575317382812
1144,812.3076782226562,783.2966918945312,818.3516235351562,814.3223266601562
1145,801.4285888671875,781.6849975585938,816.3369750976562,815.1282348632812
1146,802.6373901367188,784.5054931640625,813.113525390625,820.3662719726562
1147,806.2637329101562,788.5347900390625,819.5604248046875,815.93408203125
1148,806.2637329101562,794.1758422851562,816.3369750976562,810.2930297851562
1149,807.4725341796875,791.7582397460938,810.6959838867188,804.2490844726562
1150,801.4285888671875,789.3406372070312,808.6813354492188,794.981689453125
1151,797.8021850585938,795.7875366210938,805.054931640625,794.981689453125
1152,803.040283203125,795.7875366210938,798.2051391601562,796.996337890625
1153,803.4432373046875,787.3259887695312,796.1904907226562,801.4285888671875
1154,796.1904907226562,792.5640869140625,802.2344360351562,804.2490844726562
1155,783.2966918945312,800.2197875976562,801.8314819335938,782.893798828125
1156,774.029296875,800.6226806640625,796.1904907226562,763.5531005859375
1157,776.4468994140625,802.2344360351562,793.7728881835938,759.9267578125
1158,782.893798828125,804.6520385742188,791.7582397460938,763.9560546875
1159,785.7142944335938,805.4578857421875,791.7582397460938,768.3883056640625
1160,777.2527465820312,798.2051391601562,786.5201416015625,760.3296508789062
1161,782.4908447265625,793.7728881835938,778.8644409179688,756.7033081054688
1162,779.2673950195312,799.4139404296875,776.8497924804688,760.3296508789062
1163,763.5531005859375,796.1904907226562,778.05859375,764.7619018554688
1164,776.4468994140625,795.7875366210938,783.6996459960938,771.6116943359375
1165,786.5201416015625,797.8021850585938,787.3259887695312,769.1941528320312
1166,782.893798828125,792.1611938476562,784.1025390625,768.3883056640625
1167,778.8644409179688,793.7728881835938,783.6996459960938,774.8351440429688
1168,778.4615478515625,795.3846435546875,785.3113403320312,781.6849975585938
1169,780.0732421875,784.5054931640625,783.6996459960938,791.7582397460938
1170,780.879150390625,781.6849975585938,788.937744140625,785.3113403320312
1171,780.0732421875,787.3259887695312,789.3406372070312,778.05859375
1172,782.893798828125,783.6996459960938,787.3259887695312,784.1025390625
1173,792.5640869140625,780.879150390625,790.952392578125,787.7289428710938
1174,797.8021850585938,782.087890625,790.1465454101562,792.1611938476562
1175,797.8021850585938,782.4908447265625,794.5787353515625,801.025634765625
1176,801.8314819335938,782.087890625,796.5933837890625,808.2783813476562
1177,805.8607788085938,782.893798828125,799.010986328125,814.7252807617188
1178,803.040283203125,787.3259887695312,804.6520385742188,812.7106323242188
1179,799.8168334960938,790.952392578125,800.2197875976562,810.6959838867188
1180,797.8021850585938,790.952392578125,801.4285888671875,822.3809814453125
1181,798.2051391601562,792.1611938476562,804.6520385742188,823.99267578125
1182,792.5640869140625,787.3259887695312,797.3992919921875,812.7106323242188
1183,790.5494384765625,788.5347900390625,798.6080322265625,811.90478515625
1184,790.1465454101562,792.5640869140625,800.2197875976562,809.89013671875
1185,787.3259887695312,789.7435913085938,794.5787353515625,804.2490844726562
1186,793.7728881835938,793.7728881835938,794.5787353515625,802.2344360351562
1187,789.7435913085938,799.8168334960938,796.1904907226562,796.1904907226562
1188,782.4908447265625,796.5933837890625,794.1758422851562,792.1611938476562
1189,783.6996459960938,795.7875366210938,786.5201416015625,784.908447265625
1190,785.3113403320312,800.6226806640625,784.1025390625,781.2820434570312
1191,783.6996459960938,798.6080322265625,787.7289428710938,783.6996459960938
1192,786.5201416015625,797.8021850585938,792.5640869140625,790.952392578125
1193,781.6849975585938,796.5933837890625,790.1465454101562,788.1318969726562
1194,776.4468994140625,791.7582397460938,786.1171875,780.0732421875
1195,782.4908447265625,791.7582397460938,787.3259887695312,788.1318969726562
1196,783.2966918945312,793.3699340820312,783.2966918945312,785.3113403320312
1197,783.2966918945312,794.5787353515625,782.893798828125,781.6849975585938
1198,786.923095703125,791.7582397460938,789.3406372070312,788.937744140625
1199,797.8021850585938,791.3552856445312,789.7435913085938,795.3846435546875
1200,805.4578857421875,794.5787353515625,786.923095703125,793.3699340820312
1201,798.2051391601562,792.967041015625,783.6996459960938,789.7435913085938
1202,800.6226806640625,793.7728881835938,782.087890625,784.1025390625
1203,803.040283203125,795.7875366210938,780.0732421875,784.1025390625
1204,800.2197875976562,797.8021850585938,778.8644409179688,792.5640869140625
1205,802.2344360351562,799.4139404296875,778.05859375,789.7435913085938
1206,810.2930297851562,804.2490844726562,776.8497924804688,794.981689453125
1207,813.113525390625,805.054931640625,781.6849975585938,800.2197875976562
1208,809.084228515625,804.2490844726562,786.923095703125,793.3699340820312
1209,806.2637329101562,805.054931640625,789.3406372070312,791.7582397460938
1210,808.2783813476562,800.6226806640625,792.5640869140625,796.996337890625
1211,809.4871826171875,799.8168334960938,792.967041015625,802.6373901367188
1212,801.4285888671875,803.040283203125,795.7875366210938,795.7875366210938
1213,795.3846435546875,799.4139404296875,794.5787353515625,787.7289428710938
1214,805.8607788085938,796.5933837890625,795.3846435546875,790.5494384765625
1215,796.5933837890625,795.3846435546875,799.8168334960938,798.2051391601562
1216,774.029296875,795.7875366210938,798.2051391601562,793.7728881835938
1217,772.4176025390625,799.4139404296875,795.7875366210938,782.4908447265625
1218,771.6116943359375,799.8168334960938,794.1758422851562,783.6996459960938
1219,772.0146484375,801.025634765625,795.3846435546875,785.3113403320312
1220,780.0732421875,796.996337890625,792.5640869140625,778.8644409179688
1221,785.7142944335938,794.1758422851562,784.1025390625,776.8497924804688
1222,783.2966918945312,795.7875366210938,778.8644409179688,777.6557006835938
1223,782.893798828125,803.4432373046875,783.2966918945312,780.0732421875
1224,789.3406372070312,806.6666870117188,789.3406372070312,783.6996459960938
1225,792.1611938476562,800.2197875976562,784.1025390625,784.1025390625
1226,792.967041015625,796.5933837890625,784.1025390625,790.1465454101562
1227,799.8168334960938,798.2051391601562,790.1465454101562,794.981689453125
1228,801.4285888671875,796.1904907226562,788.937744140625,786.923095703125
1229,803.040283203125,792.967041015625,790.1465454101562,782.893798828125
1230,801.025634765625,794.5787353515625,793.7728881835938,785.3113403320312
1231,796.996337890625,790.5494384765625,791.7582397460938,789.7435913085938
1232,803.4432373046875,791.7582397460938,791.7582397460938,797.8021850585938
1233,797.3992919921875,791.7582397460938,792.1611938476562,788.937744140625
1234,790.952392578125,786.1171875,789.7435913085938,778.4615478515625
1235,795.3846435546875,788.937744140625,792.5640869140625,779.2673950195312
1236,789.3406372070312,793.7728881835938,792.5640869140625,784.908447265625
1237,782.893798828125,791.3552856445312,789.7435913085938,788.5347900390625
1238,784.5054931640625,788.1318969726562,792.1611938476562,789.3406372070312
1239,767.5823974609375,789.3406372070312,796.1904907226562,788.1318969726562
1240,762.3442993164062,786.5201416015625,796.5933837890625,786.1171875
1241,776.8497924804688,780.879150390625,796.5933837890625,794.1758422851562
1242,774.8351440429688,784.5054931640625,797.8021850585938,791.7582397460938
1243,770.8058471679688,788.937744140625,798.2051391601562,786.1171875
1244,771.2088012695312,789.3406372070312,801.4285888671875,788.937744140625
1245,774.029296875,788.937744140625,803.040283203125,791.3552856445312
1246,784.1025390625,794.5787353515625,801.8314819335938,787.7289428710938
1247,794.1758422851562,799.4139404296875,801.4285888671875,786.5201416015625
1248,784.1025390625,796.1904907226562,799.4139404296875,792.967041015625
1249,776.4468994140625,799.4139404296875,799.4139404296875,794.1758422851562
1250,774.8351440429688,801.4285888671875,796.996337890625,788.1318969726562
1251,769.1941528320312,797.3992919921875,794.1758422851562,785.7142944335938
1252,772.4176025390625,797.8021850585938,792.967041015625,789.7435913085938
1253,775.2380981445312,798.2051391601562,790.5494384765625,791.7582397460938
1254,775.2380981445312,796.996337890625,790.952392578125,791.7582397460938
1255,783.2966918945312,796.5933837890625,794.5787353515625,786.5201416015625
1256,789.3406372070312,797.8021850585938,795.7875366210938,785.7142944335938
1257,787.7289428710938,794.981689453125,794.981689453125,790.1465454101562
1258,790.5494384765625,790.952392578125,794.1758422851562,784.1025390625
1259,789.7435913085938,794.1758422851562,794.5787353515625,779.2673950195312
1260,794.981689453125,796.5933837890625,793.7728881835938,784.5054931640625
1261,808.6813354492188,801.4285888671875,796.5933837890625,788.1318969726562
1262,811.90478515625,799.4139404296875,796.1904907226562,787.3259887695312
1263,800.6226806640625,794.981689453125,792.5640869140625,785.7142944335938
1264,784.1025390625,793.3699340820312,792.1611938476562,784.5054931640625
1265,791.3552856445312,791.3552856445312,792.5640869140625,796.996337890625
1266,805.054931640625,788.1318969726562,793.3699340820312,802.6373901367188
1267,795.3846435546875,784.908447265625,793.7728881835938,792.967041015625
1268,792.1611938476562,786.1171875,797.3992919921875,800.2197875976562
1269,801.4285888671875,787.7289428710938,801.4285888671875,812.3076782226562
1270,798.2051391601562,788.1318969726562,801.8314819335938,806.2637329101562
1271,786.923095703125,784.908447265625,798.6080322265625,785.7142944335938
1272,780.4761962890625,782.4908447265625,794.5787353515625,779.6703491210938
1273,790.5494384765625,787.3259887695312,793.3699340820312,792.967041015625
1274,787.7289428710938,786.5201416015625,795.7875366210938,788.937744140625
1275,782.087890625,787.3259887695312,796.1904907226562,783.6996459960938
1276,780.879150390625,790.5494384765625,792.5640869140625,792.5640869140625
1277,775.2380981445312,789.3406372070312,796.1904907226562,787.7289428710938
1278,784.5054931640625,788.1318969726562,799.8168334960938,783.2966918945312
1279,783.2966918945312,783.2966918945312,799.8168334960938,790.5494384765625
1280,778.05859375,789.3406372070312,793.7728881835938,794.1758422851562
1281,795.3846435546875,794.981689453125,790.952392578125,793.7728881835938
1282,798.2051391601562,796.996337890625,794.5787353515625,790.952392578125
1283,786.923095703125,797.3992919921875,791.3552856445312,782.893798828125
1284,788.1318969726562,795.7875366210938,786.5201416015625,776.4468994140625
1285,798.2051391601562,796.996337890625,787.3259887695312,775.2380981445312
1286,810.2930297851562,801.8314819335938,791.7582397460938,779.6703491210938
1287,805.054931640625,802.2344360351562,794.5787353515625,784.908447265625
1288,800.2197875976562,797.3992919921875,790.952392578125,787.7289428710938
1289,808.6813354492188,799.010986328125,788.5347900390625,790.5494384765625
1290,802.6373901367188,797.3992919921875,788.937744140625,786.923095703125
1291,797.8021850585938,799.010986328125,791.3552856445312,785.7142944335938
1292,803.040283203125,803.040283203125,792.1611938476562,790.952392578125
1293,803.4432373046875,808.2783813476562,795.3846435546875,796.1904907226562
1294,804.2490844726562,807.069580078125,799.8168334960938,794.981689453125
1295,799.8168334960938,802.6373901367188,799.8168334960938,790.1465454101562
1296,801.8314819335938,809.084228515625,801.8314819335938,789.3406372070312
1297,803.8461303710938,807.069580078125,801.8314819335938,790.5494384765625
1298,808.2783813476562,798.2051391601562,795.3846435546875,789.3406372070312
1299,803.040283203125,797.3992919921875,787.7289428710938,796.1904907226562
1300,788.937744140625,799.8168334960938,796.1904907226562,792.5640869140625
1301,787.3259887695312,800.6226806640625,803.4432373046875,784.908447265625
1302,793.7728881835938,801.8314819335938,797.8021850585938,788.5347900390625
1303,795.7875366210938,799.8168334960938,796.1904907226562,785.3113403320312
1304,792.967041015625,795.7875366210938,794.1758422851562,788.1318969726562
1305,792.1611938476562,795.7875366210938,794.1758422851562,788.937744140625
1306,792.967041015625,793.3699340820312,796.5933837890625,780.879150390625
1307,796.1904907226562,788.1318969726562,793.3699340820312,775.6410522460938
1308,800.2197875976562,787.7289428710938,795.3846435546875,779.6703491210938
1309,796.1904907226562,796.5933837890625,799.010986328125,783.2966918945312
1310,783.6996459960938,798.2051391601562,796.5933837890625,775.6410522460938
1311,782.4908447265625,795.7875366210938,796.1904907226562,776.0439453125
1312,784.908447265625,799.4139404296875,800.2197875976562,788.937744140625
1313,782.893798828125,795.3846435546875,799.010986328125,787.7289428710938
1314,786.923095703125,788.937744140625,798.2051391601562,786.923095703125
1315,790.1465454101562,790.952392578125,797.8021850585938,786.923095703125
1316,787.7289428710938,793.3699340820312,792.5640869140625,777.6557006835938
1317,791.3552856445312,794.5787353515625,795.7875366210938,781.2820434570312
1318,801.4285888671875,791.7582397460938,794.5787353515625,788.937744140625
1319,801.4285888671875,790.5494384765625,784.908447265625,794.981689453125
1320,784.5054931640625,791.3552856445312,784.1025390625,785.7142944335938
1321,783.6996459960938,788.1318969726562,788.1318969726562,781.2820434570312
1322,793.7728881835938,790.1465454101562,793.7728881835938,794.981689453125
1323,803.040283203125,798.2051391601562,799.010986328125,810.2930297851562
1324,799.010986328125,801.4285888671875,803.040283203125,809.084228515625
1325,797.8021850585938,796.996337890625,802.2344360351562,795.3846435546875
1326,799.4139404296875,792.5640869140625,797.3992919921875,792.1611938476562
1327,796.996337890625,791.7582397460938,797.3992919921875,793.7728881835938
1328,800.2197875976562,789.3406372070312,794.5787353515625,792.5640869140625
1329,787.7289428710938,786.1171875,793.3699340820312,792.967041015625
1330,778.05859375,787.3259887695312,792.1611938476562,784.908447265625
1331,777.2527465820312,791.7582397460938,794.1758422851562,783.6996459960938
1332,783.2966918945312,790.1465454101562,797.3992919921875,790.1465454101562
1333,787.7289428710938,784.1025390625,793.7728881835938,788.1318969726562
1334,782.893798828125,786.1171875,790.1465454101562,787.7289428710938
1335,783.6996459960938,790.1465454101562,792.967041015625,789.7435913085938
1336,786.1171875,788.937744140625,792.967041015625,794.1758422851562
1337,788.1318969726562,790.1465454101562,792.5640869140625,793.3699340820312
1338,797.8021850585938,791.3552856445312,794.1758422851562,790.5494384765625
1339,799.4139404296875,796.1904907226562,796.1904907226562,796.1904907226562
1340,795.3846435546875,797.8021850585938,801.4285888671875,791.3552856445312
1341,793.3699340820312,796.5933837890625,800.6226806640625,783.6996459960938
1342,790.1465454101562,797.8021850585938,798.2051391601562,783.2966918945312
1343,794.981689453125,797.8021850585938,800.6226806640625,791.3552856445312
1344,799.4139404296875,794.5787353515625,801.4285888671875,790.1465454101562
1345,800.2197875976562,790.952392578125,795.7875366210938,797.8021850585938
1346,801.025634765625,795.7875366210938,797.8021850585938,807.069580078125
1347,803.040283203125,796.996337890625,799.8168334960938,790.952392578125
1348,795.3846435546875,788.937744140625,799.8168334960938,786.923095703125
1349,791.7582397460938,792.1611938476562,805.054931640625,798.6080322265625
1350,789.7435913085938,797.3992919921875,807.4725341796875,797.3992919921875
1351,782.087890625,790.5494384765625,807.87548828125,792.5640869140625
1352,784.908447265625,786.5201416015625,805.054931640625,792.967041015625
1353,793.3699340820312,792.5640869140625,805.054931640625,793.7728881835938
1354,796.996337890625,795.3846435546875,805.4578857421875,799.4139404296875
1355,792.1611938476562,785.7142944335938,803.4432373046875,794.1758422851562
1356,788.5347900390625,781.2820434570312,800.2197875976562,789.7435913085938
1357,783.2966918945312,788.1318969726562,800.2197875976562,795.7875366210938
1358,793.3699340820312,789.3406372070312,802.6373901367188,803.4432373046875
1359,796.1904907226562,790.5494384765625,799.4139404296875,799.8168334960938
1360,786.1171875,793.3699340820312,797.3992919921875,791.7582397460938
1361,784.1025390625,790.5494384765625,797.8021850585938,789.7435913085938
1362,777.6557006835938,794.981689453125,793.7728881835938,780.879150390625
1363,784.908447265625,799.8168334960938,792.967041015625,781.2820434570312
1364,797.3992919921875,798.6080322265625,794.981689453125,786.1171875
1365,796.1904907226562,794.1758422851562,792.1611938476562,779.6703491210938
1366,792.5640869140625,791.3552856445312,792.1611938476562,766.7765502929688
1367,794.981689453125,796.1904907226562,794.1758422851562,768.3883056640625
1368,804.6520385742188,796.1904907226562,793.3699340820312,774.8351440429688
1369,803.040283203125,788.1318969726562,791.7582397460938,774.8351440429688
1370,782.893798828125,790.952392578125,790.1465454101562,779.6703491210938
1371,772.8204956054688,792.5640869140625,786.1171875,780.0732421875
1372,779.6703491210938,784.908447265625,780.0732421875,776.4468994140625
1373,786.5201416015625,785.3113403320312,783.6996459960938,777.6557006835938
1374,784.908447265625,789.3406372070312,787.7289428710938,785.7142944335938
1375,782.087890625,791.3552856445312,789.3406372070312,785.7142944335938
1376,785.3113403320312,797.8021850585938,793.7728881835938,782.087890625
1377,786.5201416015625,796.5933837890625,795.3846435546875,781.2820434570312
1378,791.7582397460938,792.5640869140625,795.3846435546875,776.8497924804688
1379,792.1611938476562,793.7728881835938,792.5640869140625,781.2820434570312
1380,781.2820434570312,792.967041015625,794.1758422851562,786.923095703125
1381,782.4908447265625,791.7582397460938,796.1904907226562,788.937744140625
1382,784.1025390625,787.7289428710938,795.3846435546875,788.937744140625
1383,783.2966918945312,790.952392578125,793.3699340820312,794.981689453125
1384,788.5347900390625,794.981689453125,792.5640869140625,803.4432373046875
1385,792.1611938476562,791.3552856445312,792.1611938476562,791.3552856445312
1386,793.7728881835938,790.1465454101562,788.1318969726562,778.05859375
1387,797.3992919921875,788.937744140625,790.952392578125,779.6703491210938
1388,792.5640869140625,788.937744140625,792.967041015625,782.4908447265625
1389,788.5347900390625,791.7582397460938,791.3552856445312,784.908447265625
1390,792.1611938476562,792.5640869140625,793.7728881835938,786.1171875
1391,791.3552856445312,789.7435913085938,790.5494384765625,784.5054931640625
1392,793.3699340820312,785.3113403320312,790.5494384765625,783.6996459960938
1393,794.5787353515625,782.893798828125,796.5933837890625,790.1465454101562
1394,791.7582397460938,785.7142944335938,798.2051391601562,792.967041015625
1395,789.3406372070312,792.1611938476562,792.5640869140625,789.7435913085938
1396,790.952392578125,796.996337890625,792.967041015625,794.5787353515625
1397,789.7435913085938,798.2051391601562,799.4139404296875,786.923095703125
1398,784.908447265625,796.5933837890625,799.4139404296875,776.4468994140625
1399,788.5347900390625,791.7582397460938,801.025634765625,784.908447265625
1400,796.5933837890625,789.7435913085938,798.2051391601562,786.5201416015625
1401,805.8607788085938,793.3699340820312,796.1904907226562,780.0732421875
1402,805.4578857421875,802.6373901367188,796.996337890625,784.908447265625
1403,790.5494384765625,801.025634765625,791.7582397460938,789.7435913085938
1404,785.3113403320312,796.996337890625,790.952392578125,791.7582397460938
1405,794.981689453125,799.010986328125,790.1465454101562,790.5494384765625
1406,795.3846435546875,796.1904907226562,787.3259887695312,790.5494384765625
1407,788.937744140625,790.952392578125,788.1318969726562,797.8021850585938
1408,784.1025390625,786.923095703125,786.5201416015625,793.3699340820312
1409,790.1465454101562,790.952392578125,787.7289428710938,786.923095703125
1410,801.4285888671875,794.5787353515625,793.3699340820312,792.5640869140625
1411,807.069580078125,792.1611938476562,796.1904907226562,794.981689453125
1412,811.5018310546875,790.5494384765625,798.6080322265625,801.8314819335938
1413,803.8461303710938,790.1465454101562,799.4139404296875,803.8461303710938
1414,790.5494384765625,796.5933837890625,795.3846435546875,786.923095703125
1415,782.087890625,798.6080322265625,796.996337890625,776.8497924804688
1416,780.879150390625,796.5933837890625,799.8168334960938,780.0732421875
1417,784.908447265625,796.996337890625,796.1904907226562,781.2820434570312
1418,796.996337890625,799.8168334960938,798.2051391601562,787.7289428710938
1419,804.6520385742188,801.4285888671875,802.2344360351562,797.3992919921875
1420,806.6666870117188,797.8021850585938,796.5933837890625,798.2051391601562
1421,809.084228515625,792.1611938476562,796.1904907226562,794.981689453125
1422,805.054931640625,793.3699340820312,799.010986328125,799.4139404296875
1423,802.2344360351562,799.8168334960938,797.8021850585938,800.2197875976562
1424,797.8021850585938,798.6080322265625,799.8168334960938,793.7728881835938
1425,793.3699340820312,796.996337890625,799.010986328125,792.1611938476562
1426,792.967041015625,798.2051391601562,795.3846435546875,790.1465454101562
1427,790.1465454101562,796.1904907226562,801.4285888671875,790.5494384765625
1428,790.5494384765625,797.8021850585938,805.054931640625,793.3699340820312
1429,789.3406372070312,800.2197875976562,801.8314819335938,795.3846435546875
1430,787.3259887695312,796.5933837890625,804.2490844726562,804.6520385742188
1431,781.6849975585938,794.981689453125,804.6520385742188,805.054931640625
1432,770.4029541015625,794.1758422851562,798.2051391601562,798.6080322265625
1433,764.3589477539062,788.1318969726562,797.3992919921875,798.2051391601562
1434,765.1648559570312,785.3113403320312,796.1904907226562,794.1758422851562
1435,768.3883056640625,787.7289428710938,796.5933837890625,792.967041015625
1436,771.2088012695312,790.1465454101562,803.8461303710938,792.5640869140625
1437,774.029296875,790.5494384765625,802.6373901367188,797.3992919921875
1438,778.8644409179688,788.1318969726562,794.981689453125,795.3846435546875
1439,770.4029541015625,789.7435913085938,792.5640869140625,790.952392578125
1440,766.7765502929688,788.5347900390625,790.952392578125,787.7289428710938
1441,777.2527465820312,787.7289428710938,786.5201416015625,784.1025390625
1442,777.6557006835938,790.5494384765625,783.2966918945312,773.2234497070312
1443,780.879150390625,793.7728881835938,785.7142944335938,771.2088012695312
1444,786.1171875,796.5933837890625,788.937744140625,780.0732421875
1445,783.2966918945312,799.4139404296875,783.2966918945312,783.2966918945312
1446,786.1171875,801.025634765625,784.1025390625,790.5494384765625
1447,795.3846435546875,799.4139404296875,788.937744140625,790.952392578125
1448,799.010986328125,796.996337890625,790.1465454101562,788.1318969726562
1449,801.4285888671875,798.6080322265625,793.3699340820312,794.1758422851562
1450,811.5018310546875,802.6373901367188,796.996337890625,801.8314819335938
1451,816.7399291992188,800.2197875976562,797.8021850585938,804.6520385742188
1452,812.7106323242188,794.1758422851562,798.6080322265625,800.2197875976562
1453,803.040283203125,792.5640869140625,796.996337890625,799.8168334960938
1454,796.1904907226562,790.5494384765625,796.1904907226562,802.2344360351562
1455,796.1904907226562,792.5640869140625,796.1904907226562,799.4139404296875
1456,797.8021850585938,793.7728881835938,794.1758422851562,798.2051391601562
1457,794.981689453125,788.1318969726562,790.1465454101562,793.3699340820312
1458,775.2380981445312,785.3113403320312,788.5347900390625,784.908447265625
1459,765.1648559570312,790.1465454101562,792.967041015625,782.4908447265625
1460,774.4322509765625,790.5494384765625,800.2197875976562,786.1171875
1461,778.05859375,788.1318969726562,804.2490844726562,787.3259887695312
1462,780.0732421875,790.1465454101562,801.4285888671875,785.3113403320312
1463,782.893798828125,788.937744140625,795.7875366210938,786.1171875
1464,784.5054931640625,791.3552856445312,794.981689453125,790.1465454101562
1465,786.5201416015625,794.1758422851562,795.7875366210938,785.7142944335938
1466,792.967041015625,794.981689453125,795.3846435546875,782.4908447265625
1467,791.7582397460938,795.3846435546875,794.981689453125,779.6703491210938
1468,784.908447265625,790.5494384765625,793.3699340820312,784.5054931640625
1469,786.923095703125,794.1758422851562,794.5787353515625,788.1318969726562
1470,791.7582397460938,800.2197875976562,798.2051391601562,780.4761962890625
1471,793.3699340820312,796.996337890625,796.1904907226562,783.6996459960938
1472,795.3846435546875,794.1758422851562,788.5347900390625,785.7142944335938
1473,793.3699340820312,794.981689453125,787.3259887695312,780.0732421875
1474,791.3552856445312,799.4139404296875,790.5494384765625,780.4761962890625
1475,794.981689453125,799.010986328125,790.1465454101562,785.3113403320312
1476,795.3846435546875,797.8021850585938,787.3259887695312,778.05859375
1477,798.2051391601562,799.4139404296875,783.2966918945312,776.4468994140625
1478,803.040283203125,798.2051391601562,785.7142944335938,778.4615478515625
1479,803.4432373046875,796.1904907226562,787.3259887695312,782.087890625
1480,798.2051391601562,799.4139404296875,787.7289428710938,796.1904907226562
1481,796.996337890625,798.2051391601562,792.5640869140625,797.3992919921875
1482,796.5933837890625,793.3699340820312,786.923095703125,787.7289428710938
1483,793.3699340820312,793.3699340820312,782.893798828125,790.1465454101562
1484,786.923095703125,787.3259887695312,790.952392578125,796.5933837890625
1485,781.6849975585938,791.7582397460938,796.1904907226562,800.2197875976562
1486,782.893798828125,790.5494384765625,796.996337890625,796.996337890625
1487,782.4908447265625,789.7435913085938,795.3846435546875,792.967041015625
1488,786.5201416015625,790.952392578125,801.4285888671875,798.2051391601562
1489,796.5933837890625,787.7289428710938,803.4432373046875,803.4432373046875
1490,795.7875366210938,788.937744140625,801.4285888671875,801.025634765625
1491,786.1171875,791.7582397460938,803.4432373046875,799.4139404296875
1492,784.908447265625,790.1465454101562,801.025634765625,794.981689453125
1493,785.7142944335938,782.893798828125,800.6226806640625,796.996337890625
1494,782.087890625,782.087890625,796.5933837890625,792.1611938476562
1495,783.2966918945312,784.908447265625,794.5787353515625,786.1171875
1496,792.1611938476562,790.5494384765625,801.8314819335938,792.1611938476562
1497,791.7582397460938,794.981689453125,802.6373901367188,791.3552856445312
1498,792.967041015625,794.981689453125,801.4285888671875,793.3699340820312
1499,797.8021850585938,789.7435913085938,800.6226806640625,799.8168334960938
1500,799.010986328125,786.923095703125,794.981689453125,794.5787353515625
1501,805.054931640625,792.5640869140625,792.5640869140625,790.952392578125
1502,801.4285888671875,790.1465454101562,792.1611938476562,792.967041015625
1503,792.1611938476562,792.967041015625,793.7728881835938,794.1758422851562
1504,794.5787353515625,799.4139404296875,792.5640869140625,794.5787353515625
1505,794.1758422851562,796.1904907226562,788.5347900390625,791.7582397460938
1506,787.7289428710938,794.1758422851562,786.923095703125,788.5347900390625
1507,787.7289428710938,794.981689453125,787.7289428710938,788.1318969726562
1508,787.3259887695312,794.981689453125,789.7435913085938,790.5494384765625
1509,784.1025390625,799.010986328125,788.5347900390625,783.6996459960938
1510,785.7142944335938,796.1904907226562,789.3406372070312,778.05859375
1511,793.3699340820312,794.981689453125,792.1611938476562,788.1318969726562
1512,794.5787353515625,801.4285888671875,796.5933837890625,796.1904907226562
1513,790.952392578125,807.4725341796875,802.2344360351562,798.6080322265625
1514,797.8021850585938,805.054931640625,805.054931640625,803.040283203125
1515,803.040283203125,803.4432373046875,802.2344360351562,803.040283203125
1516,798.2051391601562,805.8607788085938,798.6080322265625,801.4285888671875
1517,791.3552856445312,799.4139404296875,798.2051391601562,793.7728881835938
1518,795.3846435546875,799.010986328125,795.7875366210938,797.3992919921875
1519,795.7875366210938,796.996337890625,794.1758422851562,803.4432373046875
1520,789.3406372070312,790.1465454101562,797.3992919921875,796.1904907226562
1521,795.7875366210938,794.1758422851562,803.8461303710938,794.981689453125
1522,794.981689453125,792.5640869140625,805.8607788085938,791.3552856445312
1523,787.7289428710938,794.1758422851562,801.4285888671875,794.5787353515625
1524,790.1465454101562,802.2344360351562,800.2197875976562,794.5787353515625
1525,792.1611938476562,801.8314819335938,800.6226806640625,790.1465454101562
1526,792.5640869140625,798.6080322265625,801.8314819335938,791.3552856445312
1527,791.3552856445312,796.1904907226562,799.010986328125,792.1611938476562
1528,795.3846435546875,794.981689453125,794.981689453125,788.5347900390625
1529,798.6080322265625,792.1611938476562,796.5933837890625,783.2966918945312
1530,797.8021850585938,790.952392578125,796.996337890625,786.1171875
1531,799.8168334960938,795.3846435546875,796.5933837890625,787.3259887695312
1532,798.2051391601562,799.010986328125,800.2197875976562,787.3259887695312
1533,794.1758422851562,799.8168334960938,802.6373901367188,790.1465454101562
1534,792.5640869140625,797.8021850585938,801.8314819335938,788.937744140625
1535,792.967041015625,794.5787353515625,799.010986328125,788.937744140625
1536,795.7875366210938,792.967041015625,799.8168334960938,784.908447265625
1537,798.2051391601562,794.5787353515625,803.040283203125,784.1025390625
1538,794.1758422851562,796.5933837890625,800.6226806640625,786.1171875
1539,787.7289428710938,800.6226806640625,797.8021850585938,784.5054931640625
1540,783.6996459960938,804.2490844726562,796.1904907226562,780.879150390625
1541,782.087890625,802.6373901367188,794.5787353515625,783.6996459960938
1542,788.5347900390625,802.6373901367188,797.3992919921875,794.1758422851562
1543,789.3406372070312,802.6373901367188,800.6226806640625,792.5640869140625
1544,784.5054931640625,792.967041015625,796.996337890625,779.2673950195312
1545,788.5347900390625,789.3406372070312,792.967041015625,776.4468994140625
1546,787.7289428710938,794.1758422851562,789.3406372070312,783.6996459960938
1547,782.087890625,791.3552856445312,786.1171875,784.1025390625
1548,783.2966918945312,790.5494384765625,786.923095703125,784.5054931640625
1549,782.4908447265625,792.1611938476562,788.5347900390625,788.5347900390625
1550,788.5347900390625,791.7582397460938,789.3406372070312,794.1758422851562
1551,786.5201416015625,793.7728881835938,792.967041015625,790.1465454101562
1552,782.893798828125,798.2051391601562,792.967041015625,782.893798828125
1553,784.1025390625,795.7875366210938,790.5494384765625,782.893798828125
1554,783.2966918945312,792.1611938476562,794.981689453125,783.6996459960938
1555,784.908447265625,792.1611938476562,795.3846435546875,783.6996459960938
1556,790.5494384765625,789.3406372070312,793.7728881835938,784.1025390625
1557,794.5787353515625,784.908447265625,796.1904907226562,782.893798828125
1558,792.1611938476562,783.2966918945312,798.2051391601562,784.5054931640625
1559,786.1171875,788.5347900390625,796.5933837890625,786.923095703125
1560,780.879150390625,789.3406372070312,794.1758422851562,786.923095703125
1561,787.3259887695312,787.3259887695312,794.981689453125,794.1758422851562
1562,792.5640869140625,784.1025390625,796.1904907226562,796.996337890625
1563,788.1318969726562,790.5494384765625,795.3846435546875,790.1465454101562
1564,786.5201416015625,803.040283203125,795.7875366210938,786.923095703125
1565,788.5347900390625,800.2197875976562,794.981689453125,785.3113403320312
1566,789.7435913085938,798.6080322265625,792.5640869140625,786.1171875
1567,788.937744140625,801.8314819335938,792.1611938476562,790.1465454101562
1568,796.996337890625,799.010986328125,800.2197875976562,794.1758422851562
1569,796.5933837890625,796.5933837890625,803.8461303710938,798.6080322265625
1570,789.3406372070312,792.5640869140625,800.2197875976562,799.8168334960938
1571,796.1904907226562,789.7435913085938,799.8168334960938,803.040283203125
1572,803.4432373046875,791.7582397460938,803.040283203125,795.7875366210938
1573,800.6226806640625,789.7435913085938,805.4578857421875,791.7582397460938
1574,799.4139404296875,788.5347900390625,801.4285888671875,790.5494384765625
1575,797.3992919921875,790.1465454101562,797.3992919921875,785.3113403320312
1576,801.4285888671875,794.5787353515625,801.8314819335938,792.1611938476562
1577,802.2344360351562,799.010986328125,804.6520385742188,795.7875366210938
1578,801.4285888671875,799.4139404296875,803.8461303710938,792.1611938476562
1579,801.4285888671875,794.981689453125,798.6080322265625,789.7435913085938
1580,791.3552856445312,795.3846435546875,792.1611938476562,788.937744140625
1581,787.7289428710938,794.5787353515625,793.7728881835938,790.1465454101562
1582,786.1171875,793.3699340820312,792.1611938476562,785.7142944335938
1583,784.908447265625,800.2197875976562,791.7582397460938,788.1318969726562
1584,789.3406372070312,803.4432373046875,793.7728881835938,792.967041015625
1585,791.7582397460938,802.2344360351562,792.967041015625,787.7289428710938
