timestamp,RAW_TP9,RAW_AF7,RAW_AF8,RAW_TP10
1,780.879150390625,796.5933837890625,796.996337890625,793.3699340820312
2,778.05859375,794.5787353515625,792.1611938476562,788.1318969726562
3,779.6703491210938,793.7728881835938,788.5347900390625,784.908447265625
4,788.1318969726562,794.981689453125,788.1318969726562,795.3846435546875
5,798.6080322265625,797.8021850585938,792.5640869140625,805.4578857421875
6,781.6849975585938,795.3846435546875,799.8168334960938,788.1318969726562
7,770.8058471679688,793.3699340820312,803.040283203125,778.4615478515625
8,788.1318969726562,794.1758422851562,802.2344360351562,791.7582397460938
9,801.025634765625,788.937744140625,799.4139404296875,799.010986328125
10,801.8314819335938,786.1171875,793.3699340820312,800.2197875976562
11,797.8021850585938,790.1465454101562,790.1465454101562,796.5933837890625
12,788.5347900390625,789.3406372070312,782.893798828125,784.908447265625
13,788.5347900390625,786.5201416015625,783.6996459960938,784.908447265625
14,794.5787353515625,790.5494384765625,789.7435913085938,787.3259887695312
15,794.5787353515625,794.1758422851562,790.1465454101562,784.5054931640625
16,794.1758422851562,796.996337890625,791.7582397460938,784.908447265625
17,796.1904907226562,793.3699340820312,789.7435913085938,780.879150390625
18,791.7582397460938,785.3113403320312,785.3113403320312,777.6557006835938
19,794.1758422851562,786.1171875,787.3259887695312,775.2380981445312
20,798.2051391601562,790.5494384765625,787.3259887695312,776.4468994140625
21,792.1611938476562,792.1611938476562,786.1171875,784.1025390625
22,788.937744140625,794.981689453125,789.3406372070312,786.923095703125
23,788.1318969726562,796.1904907226562,789.7435913085938,783.2966918945312
24,785.3113403320312,794.1758422851562,788.937744140625,777.2527465820312
25,785.7142944335938,790.1465454101562,789.7435913085938,776.4468994140625
26,786.5201416015625,786.5201416015625,788.1318969726562,778.4615478515625
27,788.1318969726562,785.7142944335938,792.1611938476562,781.2820434570312
28,786.923095703125,785.3113403320312,793.3699340820312,790.1465454101562
29,784.908447265625,782.087890625,784.5054931640625,788.5347900390625
30,783.6996459960938,781.6849975585938,791.7582397460938,782.087890625
31,778.8644409179688,783.6996459960938,795.7875366210938,786.5201416015625
32,775.2380981445312,786.923095703125,794.1758422851562,786.1171875
33,772.4176025390625,790.1465454101562,798.2051391601562,786.923095703125
34,774.4322509765625,790.952392578125,798.6080322265625,788.5347900390625
35,782.4908447265625,789.7435913085938,799.010986328125,782.893798828125
36,782.893798828125,788.937744140625,796.996337890625,783.6996459960938
37,778.05859375,794.5787353515625,793.3699340820312,789.3406372070312
38,776.0439453125,796.1904907226562,792.967041015625,786.923095703125
39,776.8497924804688,789.7435913085938,793.3699340820312,786.1171875
40,781.6849975585938,794.5787353515625,796.996337890625,790.952392578125
41,780.4761962890625,795.7875366210938,801.4285888671875,790.952392578125
42,780.0732421875,794.981689453125,799.010986328125,791.3552856445312
43,780.0732421875,799.4139404296875,796.5933837890625,791.3552856445312
44,784.5054931640625,798.2051391601562,796.1904907226562,790.5494384765625
45,796.1904907226562,799.4139404296875,794.981689453125,798.2051391601562
46,797.3992919921875,803.4432373046875,797.3992919921875,798.6080322265625
47,792.967041015625,803.4432373046875,797.3992919921875,791.3552856445312
48,793.7728881835938,805.054931640625,791.7582397460938,789.7435913085938
49,793.7728881835938,800.6226806640625,788.937744140625,782.4908447265625
50,799.010986328125,796.5933837890625,788.937744140625,779.6703491210938
51,799.010986328125,799.4139404296875,785.7142944335938,783.6996459960938
52,795.7875366210938,798.2051391601562,786.923095703125,784.1025390625
53,793.7728881835938,796.1904907226562,787.7289428710938,782.893798828125
54,791.7582397460938,791.7582397460938,786.5201416015625,784.1025390625
55,800.6226806640625,792.1611938476562,790.1465454101562,788.937744140625
56,800.2197875976562,792.967041015625,791.3552856445312,789.3406372070312
57,791.3552856445312,792.1611938476562,790.1465454101562,794.1758422851562
58,780.879150390625,791.7582397460938,790.1465454101562,789.7435913085938
59,778.05859375,786.923095703125,795.3846435546875,785.7142944335938
60,784.5054931640625,782.893798828125,795.3846435546875,790.952392578125
61,782.4908447265625,784.1025390625,794.1758422851562,790.952392578125
62,773.6264038085938,785.7142944335938,796.996337890625,790.1465454101562
63,766.7765502929688,782.893798828125,797.8021850585938,787.3259887695312
64,771.6116943359375,780.0732421875,799.4139404296875,795.3846435546875
65,779.2673950195312,781.6849975585938,800.6226806640625,797.8021850585938
66,780.879150390625,784.908447265625,792.967041015625,790.952392578125
67,783.2966918945312,784.5054931640625,791.7582397460938,794.5787353515625
68,784.1025390625,786.5201416015625,790.1465454101562,799.010986328125
69,780.4761962890625,790.5494384765625,790.5494384765625,799.4139404296875
70,786.1171875,792.1611938476562,793.7728881835938,797.8021850585938
71,788.5347900390625,792.1611938476562,790.1465454101562,796.5933837890625
72,793.3699340820312,794.1758422851562,794.5787353515625,794.981689453125
73,796.996337890625,796.5933837890625,795.3846435546875,791.3552856445312
74,799.8168334960938,799.8168334960938,789.7435913085938,788.1318969726562
75,807.87548828125,802.6373901367188,789.7435913085938,790.952392578125
76,803.8461303710938,805.054931640625,790.952392578125,789.7435913085938
77,799.8168334960938,808.2783813476562,790.952392578125,787.3259887695312
78,801.025634765625,812.7106323242188,786.5201416015625,786.5201416015625
79,801.025634765625,813.113525390625,782.893798828125,782.893798828125
80,797.8021850585938,807.069580078125,784.1025390625,780.4761962890625
81,795.3846435546875,807.069580078125,788.5347900390625,784.5054931640625
82,790.5494384765625,808.2783813476562,792.967041015625,788.937744140625
83,784.908447265625,804.2490844726562,791.7582397460938,790.952392578125
84,784.908447265625,807.069580078125,791.3552856445312,802.2344360351562
85,782.893798828125,805.054931640625,790.1465454101562,798.6080322265625
86,780.0732421875,794.1758422851562,790.1465454101562,791.7582397460938
87,779.2673950195312,791.7582397460938,792.967041015625,792.5640869140625
88,780.0732421875,791.3552856445312,798.2051391601562,791.7582397460938
89,774.8351440429688,790.1465454101562,801.4285888671875,788.937744140625
90,782.4908447265625,790.952392578125,800.6226806640625,786.923095703125
91,795.3846435546875,786.923095703125,802.2344360351562,798.6080322265625
92,790.5494384765625,786.923095703125,804.6520385742188,801.8314819335938
93,777.6557006835938,786.923095703125,799.4139404296875,788.937744140625
94,774.029296875,787.3259887695312,798.6080322265625,785.7142944335938
95,779.6703491210938,790.952392578125,799.010986328125,795.3846435546875
96,783.6996459960938,795.7875366210938,799.4139404296875,798.2051391601562
97,789.7435913085938,800.6226806640625,804.6520385742188,794.1758422851562
98,790.5494384765625,796.5933837890625,801.8314819335938,797.8021850585938
99,792.1611938476562,796.5933837890625,801.4285888671875,800.6226806640625
100,795.7875366210938,796.996337890625,800.6226806640625,794.981689453125
101,791.7582397460938,791.7582397460938,798.6080322265625,792.5640869140625
102,792.5640869140625,792.967041015625,798.6080322265625,794.981689453125
103,802.2344360351562,793.7728881835938,794.5787353515625,788.937744140625
104,802.6373901367188,797.3992919921875,799.010986328125,782.087890625
105,794.5787353515625,799.4139404296875,801.8314819335938,778.05859375
106,795.7875366210938,803.040283203125,795.7875366210938,782.893798828125
107,790.952392578125,809.084228515625,796.5933837890625,789.7435913085938
108,785.7142944335938,809.4871826171875,799.4139404296875,782.087890625
109,789.7435913085938,808.6813354492188,796.996337890625,782.893798828125
110,794.981689453125,813.5164794921875,795.7875366210938,787.3259887695312
111,800.2197875976562,817.94873046875,794.5787353515625,788.5347900390625
112,801.4285888671875,808.2783813476562,792.967041015625,788.937744140625
113,795.3846435546875,804.6520385742188,789.3406372070312,784.908447265625
114,788.5347900390625,801.8314819335938,787.3259887695312,781.6849975585938
115,792.5640869140625,798.2051391601562,787.7289428710938,782.893798828125
116,789.7435913085938,795.3846435546875,788.5347900390625,782.087890625
117,779.6703491210938,792.1611938476562,787.7289428710938,779.2673950195312
118,778.8644409179688,793.3699340820312,786.1171875,785.7142944335938
119,775.6410522460938,793.3699340820312,787.3259887695312,789.7435913085938
120,772.8204956054688,792.1611938476562,789.3406372070312,787.7289428710938
121,774.8351440429688,790.952392578125,789.7435913085938,789.7435913085938
122,774.029296875,789.7435913085938,792.1611938476562,787.7289428710938
123,773.6264038085938,792.1611938476562,795.3846435546875,786.5201416015625
124,768.7911987304688,786.923095703125,792.967041015625,783.2966918945312
125,769.5970458984375,786.1171875,790.5494384765625,786.5201416015625
126,773.2234497070312,790.1465454101562,793.7728881835938,793.3699340820312
127,775.2380981445312,786.923095703125,794.981689453125,793.7728881835938
128,778.4615478515625,784.5054931640625,794.981689453125,787.3259887695312
129,784.1025390625,785.7142944335938,798.6080322265625,782.4908447265625
130,794.981689453125,793.3699340820312,796.996337890625,784.1025390625
131,799.010986328125,796.1904907226562,796.5933837890625,781.2820434570312
132,805.8607788085938,795.3846435546875,797.8021850585938,782.4908447265625
133,810.2930297851562,794.1758422851562,795.3846435546875,783.2966918945312
134,803.4432373046875,794.5787353515625,794.1758422851562,776.0439453125
135,797.8021850585938,799.4139404296875,793.7728881835938,771.2088012695312
136,798.6080322265625,801.4285888671875,792.967041015625,772.8204956054688
137,801.4285888671875,800.6226806640625,789.3406372070312,771.2088012695312
138,798.2051391601562,804.2490844726562,784.908447265625,775.6410522460938
139,795.3846435546875,808.2783813476562,792.1611938476562,780.4761962890625
140,794.5787353515625,808.2783813476562,792.1611938476562,776.4468994140625
141,798.2051391601562,805.4578857421875,787.7289428710938,783.2966918945312
142,792.967041015625,803.040283203125,792.967041015625,785.3113403320312
143,792.1611938476562,803.4432373046875,791.7582397460938,782.4908447265625
144,793.3699340820312,798.2051391601562,790.5494384765625,783.6996459960938
145,786.923095703125,795.3846435546875,796.1904907226562,782.087890625
146,784.908447265625,794.981689453125,794.981689453125,785.3113403320312
147,787.3259887695312,788.937744140625,792.967041015625,782.087890625
148,790.952392578125,788.5347900390625,790.952392578125,784.1025390625
149,785.7142944335938,788.1318969726562,794.1758422851562,788.1318969726562
150,784.1025390625,790.1465454101562,797.3992919921875,790.5494384765625
151,781.6849975585938,790.952392578125,793.7728881835938,789.3406372070312
152,782.4908447265625,787.3259887695312,794.981689453125,790.952392578125
153,796.1904907226562,784.908447265625,795.3846435546875,797.8021850585938
154,801.025634765625,792.1611938476562,794.1758422851562,796.996337890625
155,794.981689453125,799.8168334960938,793.3699340820312,792.967041015625
156,792.967041015625,792.5640869140625,794.981689453125,791.3552856445312
157,795.7875366210938,790.952392578125,802.2344360351562,799.4139404296875
158,798.2051391601562,790.5494384765625,802.2344360351562,798.2051391601562
159,800.2197875976562,792.967041015625,792.1611938476562,784.5054931640625
160,797.8021850585938,793.3699340820312,797.8021850585938,780.4761962890625
161,795.3846435546875,791.3552856445312,803.040283203125,781.2820434570312
162,797.8021850585938,793.3699340820312,797.3992919921875,776.4468994140625
163,795.7875366210938,796.5933837890625,799.010986328125,776.0439453125
164,790.1465454101562,795.3846435546875,797.3992919921875,781.6849975585938
165,787.3259887695312,793.7728881835938,791.3552856445312,786.1171875
166,782.4908447265625,798.2051391601562,792.1611938476562,780.0732421875
167,783.2966918945312,799.4139404296875,790.1465454101562,778.8644409179688
168,782.087890625,798.6080322265625,784.5054931640625,785.7142944335938
169,777.6557006835938,801.025634765625,783.6996459960938,783.6996459960938
170,780.4761962890625,795.7875366210938,783.6996459960938,780.879150390625
171,778.8644409179688,792.967041015625,780.879150390625,780.879150390625
172,777.6557006835938,799.010986328125,781.2820434570312,780.879150390625
173,780.4761962890625,798.6080322265625,780.879150390625,778.4615478515625
174,778.05859375,795.3846435546875,779.2673950195312,775.6410522460938
175,778.4615478515625,792.967041015625,780.4761962890625,773.6264038085938
176,784.5054931640625,795.3846435546875,782.087890625,782.4908447265625
177,788.1318969726562,799.4139404296875,791.3552856445312,793.7728881835938
178,787.3259887695312,802.2344360351562,795.3846435546875,794.5787353515625
179,783.6996459960938,804.2490844726562,796.5933837890625,799.010986328125
180,780.4761962890625,798.6080322265625,795.3846435546875,797.8021850585938
181,784.1025390625,794.1758422851562,793.3699340820312,795.7875366210938
182,789.3406372070312,797.3992919921875,795.7875366210938,798.2051391601562
183,795.3846435546875,795.3846435546875,794.5787353515625,798.2051391601562
184,799.8168334960938,794.1758422851562,792.1611938476562,793.7728881835938
185,793.7728881835938,792.967041015625,792.967041015625,789.7435913085938
186,787.3259887695312,789.7435913085938,787.7289428710938,786.1171875
187,791.3552856445312,791.3552856445312,788.1318969726562,795.3846435546875
188,799.4139404296875,794.1758422851562,792.5640869140625,801.025634765625
189,799.4139404296875,796.5933837890625,792.5640869140625,797.3992919921875
190,791.3552856445312,798.6080322265625,789.7435913085938,795.3846435546875
191,790.5494384765625,801.025634765625,790.1465454101562,787.3259887695312
192,793.3699340820312,799.8168334960938,791.3552856445312,779.2673950195312
193,792.967041015625,796.1904907226562,790.952392578125,785.7142944335938
194,792.967041015625,793.7728881835938,789.3406372070312,792.967041015625
195,789.3406372070312,791.7582397460938,786.5201416015625,785.7142944335938
196,786.5201416015625,791.3552856445312,790.952392578125,784.908447265625
197,791.7582397460938,793.3699340820312,796.5933837890625,790.952392578125
198,794.981689453125,798.6080322265625,794.5787353515625,795.3846435546875
199,792.5640869140625,798.6080322265625,789.7435913085938,799.4139404296875
200,788.5347900390625,796.1904907226562,790.5494384765625,793.7728881835938
201,786.923095703125,796.5933837890625,794.981689453125,785.3113403320312
202,790.1465454101562,798.6080322265625,797.8021850585938,790.952392578125
203,795.7875366210938,798.6080322265625,795.7875366210938,797.3992919921875
204,796.5933837890625,799.010986328125,792.967041015625,791.7582397460938
205,790.1465454101562,798.2051391601562,796.1904907226562,781.6849975585938
206,785.3113403320312,791.3552856445312,794.1758422851562,781.6849975585938
207,783.6996459960938,792.967041015625,792.967041015625,783.2966918945312
208,786.923095703125,796.996337890625,793.7728881835938,776.8497924804688
209,790.1465454101562,792.1611938476562,791.7582397460938,780.879150390625
210,789.7435913085938,794.1758422851562,791.3552856445312,786.923095703125
211,790.1465454101562,797.3992919921875,789.7435913085938,784.908447265625
212,790.952392578125,794.981689453125,788.5347900390625,781.6849975585938
213,796.996337890625,790.952392578125,788.937744140625,781.6849975585938
214,802.2344360351562,793.3699340820312,789.3406372070312,786.1171875
215,796.1904907226562,794.981689453125,791.3552856445312,788.1318969726562
216,790.5494384765625,790.5494384765625,793.7728881835938,784.1025390625
217,786.5201416015625,790.1465454101562,792.1611938476562,781.2820434570312
218,781.2820434570312,786.923095703125,785.7142944335938,778.8644409179688
219,784.908447265625,780.879150390625,780.4761962890625,779.2673950195312
220,785.3113403320312,778.8644409179688,781.6849975585938,774.029296875
221,784.908447265625,779.6703491210938,784.5054931640625,772.4176025390625
222,791.3552856445312,780.879150390625,790.1465454101562,778.05859375
223,788.937744140625,786.5201416015625,789.7435913085938,777.6557006835938
224,786.1171875,785.3113403320312,791.3552856445312,779.2673950195312
225,789.7435913085938,783.6996459960938,790.1465454101562,785.7142944335938
226,783.2966918945312,784.908447265625,783.2966918945312,790.5494384765625
227,776.4468994140625,783.6996459960938,784.5054931640625,783.6996459960938
228,783.6996459960938,786.5201416015625,786.5201416015625,776.8497924804688
229,785.7142944335938,787.7289428710938,788.937744140625,779.6703491210938
230,786.5201416015625,790.952392578125,790.952392578125,778.8644409179688
231,787.7289428710938,790.1465454101562,790.5494384765625,773.2234497070312
232,779.6703491210938,790.952392578125,793.7728881835938,775.2380981445312
233,782.893798828125,795.3846435546875,796.1904907226562,785.3113403320312
234,794.5787353515625,795.3846435546875,795.7875366210938,782.893798828125
235,790.952392578125,792.5640869140625,797.8021850585938,776.4468994140625
236,783.6996459960938,791.3552856445312,799.010986328125,782.893798828125
237,777.6557006835938,790.5494384765625,792.967041015625,790.5494384765625
238,776.4468994140625,792.5640869140625,789.7435913085938,784.5054931640625
239,784.908447265625,796.996337890625,791.7582397460938,781.6849975585938
240,790.1465454101562,800.2197875976562,791.3552856445312,780.0732421875
241,792.967041015625,800.2197875976562,792.5640869140625,778.4615478515625
242,792.1611938476562,796.996337890625,792.1611938476562,782.893798828125
243,791.7582397460938,792.967041015625,789.7435913085938,780.0732421875
244,797.3992919921875,792.1611938476562,792.1611938476562,784.908447265625
245,791.7582397460938,790.1465454101562,791.7582397460938,784.5054931640625
246,788.937744140625,790.1465454101562,790.952392578125,785.7142944335938
247,793.3699340820312,790.952392578125,792.967041015625,790.952392578125
248,794.1758422851562,784.908447265625,793.3699340820312,790.952392578125
249,790.1465454101562,782.893798828125,792.5640869140625,785.7142944335938
250,789.3406372070312,787.3259887695312,793.3699340820312,779.6703491210938
251,787.3259887695312,790.5494384765625,793.3699340820312,778.8644409179688
252,782.893798828125,789.3406372070312,795.3846435546875,778.05859375
253,784.5054931640625,786.5201416015625,796.5933837890625,781.6849975585938
254,782.087890625,785.3113403320312,795.7875366210938,782.893798828125
255,780.0732421875,787.7289428710938,794.1758422851562,775.6410522460938
256,782.4908447265625,786.1171875,791.7582397460938,781.2820434570312
257,785.7142944335938,783.6996459960938,794.5787353515625,789.7435913085938
258,785.3113403320312,790.1465454101562,796.996337890625,789.3406372070312
259,784.1025390625,794.1758422851562,794.5787353515625,790.1465454101562
260,789.3406372070312,795.3846435546875,792.1611938476562,791.7582397460938
261,790.1465454101562,789.3406372070312,792.1611938476562,787.7289428710938
262,784.5054931640625,788.1318969726562,794.5787353515625,776.8497924804688
263,785.3113403320312,792.1611938476562,793.7728881835938,778.8644409179688
264,786.1171875,788.1318969726562,794.5787353515625,784.5054931640625
265,790.952392578125,797.3992919921875,794.981689453125,799.8168334960938
266,797.8021850585938,801.025634765625,799.010986328125,800.6226806640625
267,797.3992919921875,796.996337890625,799.4139404296875,805.8607788085938
268,792.1611938476562,797.3992919921875,799.8168334960938,798.6080322265625
269,790.952392578125,796.1904907226562,801.8314819335938,797.8021850585938
270,783.6996459960938,792.5640869140625,796.996337890625,796.5933837890625
271,780.879150390625,790.952392578125,792.1611938476562,791.3552856445312
272,782.4908447265625,790.5494384765625,791.3552856445312,789.7435913085938
273,780.4761962890625,792.1611938476562,789.3406372070312,785.7142944335938
274,782.087890625,789.3406372070312,792.1611938476562,785.7142944335938
275,782.4908447265625,786.5201416015625,790.1465454101562,781.6849975585938
276,783.6996459960938,790.1465454101562,794.1758422851562,784.1025390625
277,790.5494384765625,792.967041015625,799.4139404296875,792.5640869140625
278,793.3699340820312,793.3699340820312,793.3699340820312,792.1611938476562
279,787.3259887695312,790.5494384765625,791.7582397460938,796.5933837890625
280,786.5201416015625,789.3406372070312,796.5933837890625,801.4285888671875
281,785.3113403320312,792.5640869140625,795.7875366210938,794.981689453125
282,788.5347900390625,792.967041015625,790.1465454101562,791.3552856445312
283,790.952392578125,795.7875366210938,790.5494384765625,792.967041015625
284,784.5054931640625,799.010986328125,791.7582397460938,788.5347900390625
285,789.3406372070312,798.2051391601562,792.967041015625,790.1465454101562
286,792.967041015625,796.996337890625,793.7728881835938,792.967041015625
287,786.1171875,793.3699340820312,792.1611938476562,789.7435913085938
288,783.6996459960938,791.3552856445312,789.7435913085938,785.3113403320312
289,789.3406372070312,788.5347900390625,792.1611938476562,786.1171875
290,788.5347900390625,790.5494384765625,801.4285888671875,788.5347900390625
291,782.087890625,793.3699340820312,801.8314819335938,787.3259887695312
292,786.5201416015625,795.3846435546875,803.4432373046875,790.5494384765625
293,789.7435913085938,794.981689453125,801.4285888671875,788.5347900390625
294,784.908447265625,786.1171875,792.1611938476562,791.7582397460938
295,784.1025390625,785.3113403320312,794.5787353515625,796.996337890625
296,786.923095703125,790.5494384765625,796.1904907226562,786.1171875
297,782.893798828125,792.1611938476562,794.5787353515625,776.4468994140625
298,787.7289428710938,794.1758422851562,796.1904907226562,784.908447265625
299,790.5494384765625,793.3699340820312,796.996337890625,788.1318969726562
300,786.5201416015625,790.1465454101562,793.7728881835938,784.1025390625
301,790.1465454101562,791.3552856445312,796.5933837890625,789.3406372070312
302,788.937744140625,793.3699340820312,796.996337890625,787.7289428710938
303,788.1318969726562,791.7582397460938,793.7728881835938,786.1171875
304,791.3552856445312,792.967041015625,792.5640869140625,787.3259887695312
305,790.952392578125,792.5640869140625,789.7435913085938,782.4908447265625
306,794.5787353515625,794.981689453125,787.7289428710938,780.879150390625
307,789.7435913085938,794.5787353515625,788.1318969726562,782.4908447265625
308,784.5054931640625,793.7728881835938,793.3699340820312,784.1025390625
309,794.1758422851562,795.3846435546875,794.5787353515625,788.1318969726562
310,799.010986328125,797.8021850585938,794.1758422851562,795.3846435546875
311,795.7875366210938,798.6080322265625,793.7728881835938,792.5640869140625
312,792.1611938476562,793.7728881835938,790.1465454101562,787.3259887695312
313,788.1318969726562,793.7728881835938,792.5640869140625,787.7289428710938
314,785.7142944335938,795.3846435546875,792.967041015625,786.5201416015625
315,786.923095703125,794.981689453125,796.5933837890625,788.937744140625
316,789.7435913085938,792.5640869140625,801.4285888671875,799.8168334960938
317,784.1025390625,790.952392578125,800.2197875976562,797.3992919921875
318,785.7142944335938,791.7582397460938,802.2344360351562,791.3552856445312
319,788.1318969726562,791.3552856445312,803.4432373046875,797.3992919921875
320,788.937744140625,791.3552856445312,802.2344360351562,793.3699340820312
321,783.6996459960938,788.5347900390625,799.4139404296875,784.1025390625
322,777.2527465820312,789.7435913085938,798.6080322265625,783.6996459960938
323,784.5054931640625,792.5640869140625,798.2051391601562,778.4615478515625
324,789.7435913085938,792.967041015625,799.8168334960938,778.4615478515625
325,792.5640869140625,793.7728881835938,798.2051391601562,781.2820434570312
326,788.5347900390625,792.1611938476562,794.5787353515625,780.4761962890625
327,786.1171875,792.1611938476562,799.8168334960938,785.7142944335938
328,784.1025390625,798.2051391601562,800.6226806640625,790.1465454101562
329,788.5347900390625,802.6373901367188,795.3846435546875,798.2051391601562
330,800.2197875976562,801.025634765625,798.6080322265625,803.4432373046875
331,796.1904907226562,797.8021850585938,799.010986328125,790.1465454101562
332,788.5347900390625,792.967041015625,799.4139404296875,782.4908447265625
333,788.1318969726562,793.3699340820312,802.6373901367188,790.1465454101562
334,788.937744140625,796.5933837890625,800.6226806640625,785.3113403320312
335,791.3552856445312,792.967041015625,796.996337890625,778.8644409179688
336,789.7435913085938,790.952392578125,794.1758422851562,784.1025390625
337,789.7435913085938,788.937744140625,795.7875366210938,785.7142944335938
338,795.3846435546875,786.1171875,796.1904907226562,784.908447265625
339,794.5787353515625,792.1611938476562,794.981689453125,779.2673950195312
340,787.7289428710938,792.5640869140625,792.1611938476562,774.8351440429688
341,787.3259887695312,791.7582397460938,793.7728881835938,780.0732421875
342,782.087890625,795.3846435546875,797.8021850585938,780.879150390625
343,776.4468994140625,788.937744140625,798.2051391601562,778.8644409179688
344,783.6996459960938,788.5347900390625,799.4139404296875,786.923095703125
345,787.3259887695312,792.1611938476562,803.4432373046875,791.3552856445312
346,784.5054931640625,792.1611938476562,806.6666870117188,788.937744140625
347,786.5201416015625,791.7582397460938,803.040283203125,789.7435913085938
348,783.6996459960938,790.952392578125,800.6226806640625,784.908447265625
349,784.908447265625,794.981689453125,801.4285888671875,784.1025390625
350,795.3846435546875,790.952392578125,804.6520385742188,791.3552856445312
351,801.4285888671875,790.5494384765625,805.054931640625,794.981689453125
352,798.2051391601562,801.025634765625,801.025634765625,795.3846435546875
353,790.1465454101562,803.040283203125,800.6226806640625,796.996337890625
354,790.5494384765625,796.5933837890625,799.4139404296875,799.010986328125
355,796.1904907226562,794.1758422851562,794.1758422851562,800.6226806640625
356,800.6226806640625,798.6080322265625,792.1611938476562,803.040283203125
357,798.2051391601562,802.6373901367188,792.1611938476562,792.967041015625
358,790.1465454101562,802.6373901367188,793.7728881835938,788.937744140625
359,787.7289428710938,793.7728881835938,796.996337890625,791.3552856445312
360,792.967041015625,789.3406372070312,794.5787353515625,789.3406372070312
361,795.3846435546875,792.1611938476562,793.7728881835938,788.937744140625
362,793.3699340820312,794.5787353515625,791.3552856445312,783.6996459960938
363,792.967041015625,792.5640869140625,792.967041015625,786.923095703125
364,791.7582397460938,794.1758422851562,798.6080322265625,794.5787353515625
365,796.1904907226562,799.8168334960938,801.8314819335938,794.5787353515625
366,795.7875366210938,797.8021850585938,800.6226806640625,796.5933837890625
367,791.7582397460938,794.1758422851562,798.2051391601562,792.5640869140625
368,785.3113403320312,794.1758422851562,796.1904907226562,782.087890625
369,786.1171875,796.1904907226562,796.1904907226562,784.908447265625
370,793.7728881835938,794.981689453125,799.4139404296875,792.967041015625
371,789.7435913085938,792.5640869140625,804.2490844726562,791.3552856445312
372,783.2966918945312,799.010986328125,805.4578857421875,786.1171875
373,782.893798828125,802.6373901367188,800.6226806640625,790.1465454101562
374,787.3259887695312,801.8314819335938,802.2344360351562,796.5933837890625
375,788.1318969726562,801.025634765625,802.6373901367188,787.7289428710938
376,790.5494384765625,800.2197875976562,797.3992919921875,783.6996459960938
377,788.1318969726562,799.8168334960938,799.010986328125,788.937744140625
378,788.5347900390625,795.3846435546875,795.3846435546875,792.1611938476562
379,796.1904907226562,794.5787353515625,794.1758422851562,801.4285888671875
380,795.3846435546875,796.5933837890625,798.2051391601562,802.6373901367188
381,799.8168334960938,799.4139404296875,799.4139404296875,798.2051391601562
382,801.8314819335938,802.6373901367188,799.4139404296875,795.3846435546875
383,795.7875366210938,801.8314819335938,792.5640869140625,784.908447265625
384,796.996337890625,799.4139404296875,792.967041015625,788.937744140625
385,796.1904907226562,794.981689453125,793.7728881835938,791.7582397460938
386,798.2051391601562,796.1904907226562,794.981689453125,792.5640869140625
387,801.025634765625,798.2051391601562,798.6080322265625,790.5494384765625
388,798.6080322265625,797.8021850585938,793.7728881835938,791.7582397460938
389,794.981689453125,799.8168334960938,795.7875366210938,801.4285888671875
390,795.7875366210938,796.996337890625,798.6080322265625,801.4285888671875
391,796.1904907226562,794.981689453125,796.996337890625,797.8021850585938
392,794.5787353515625,792.967041015625,797.8021850585938,796.996337890625
393,790.952392578125,786.5201416015625,791.7582397460938,786.5201416015625
394,789.3406372070312,784.908447265625,789.3406372070312,785.3113403320312
395,789.7435913085938,790.5494384765625,792.967041015625,788.1318969726562
396,795.7875366210938,797.3992919921875,796.1904907226562,784.5054931640625
397,796.5933837890625,794.981689453125,794.5787353515625,787.7289428710938
398,790.1465454101562,790.952392578125,794.1758422851562,786.923095703125
399,795.7875366210938,792.1611938476562,794.5787353515625,792.967041015625
400,795.3846435546875,793.7728881835938,794.5787353515625,794.5787353515625
401,792.1611938476562,794.5787353515625,794.1758422851562,793.3699340820312
402,792.1611938476562,788.937744140625,795.3846435546875,794.981689453125
403,792.1611938476562,783.2966918945312,794.1758422851562,789.3406372070312
404,785.3113403320312,782.893798828125,791.7582397460938,784.5054931640625
405,781.2820434570312,781.2820434570312,791.3552856445312,784.1025390625
406,788.5347900390625,781.6849975585938,788.937744140625,790.952392578125
407,788.937744140625,787.3259887695312,788.1318969726562,788.1318969726562
408,790.1465454101562,789.7435913085938,789.7435913085938,783.6996459960938
409,792.5640869140625,788.937744140625,795.3846435546875,787.7289428710938
410,790.1465454101562,790.5494384765625,794.1758422851562,786.5201416015625
411,788.937744140625,793.3699340820312,794.5787353515625,791.7582397460938
412,790.1465454101562,792.5640869140625,792.5640869140625,793.7728881835938
413,792.5640869140625,786.923095703125,789.3406372070312,791.7582397460938
414,790.1465454101562,786.5201416015625,791.7582397460938,794.981689453125
415,786.1171875,789.7435913085938,796.1904907226562,791.3552856445312
416,782.4908447265625,793.3699340820312,796.996337890625,779.2673950195312
417,783.6996459960938,792.1611938476562,790.1465454101562,780.4761962890625
418,783.6996459960938,793.3699340820312,788.937744140625,780.0732421875
419,783.2966918945312,799.8168334960938,790.5494384765625,777.6557006835938
420,784.1025390625,796.996337890625,790.952392578125,784.908447265625
421,778.05859375,796.5933837890625,792.5640869140625,789.3406372070312
422,776.0439453125,796.1904907226562,792.967041015625,786.1171875
423,778.05859375,790.952392578125,791.3552856445312,777.2527465820312
424,776.4468994140625,785.3113403320312,792.967041015625,775.6410522460938
425,774.8351440429688,786.923095703125,797.3992919921875,785.3113403320312
426,778.4615478515625,792.1611938476562,801.025634765625,787.3259887695312
427,785.3113403320312,790.5494384765625,800.2197875976562,783.2966918945312
428,790.1465454101562,791.3552856445312,801.8314819335938,788.5347900390625
429,788.937744140625,793.7728881835938,801.025634765625,793.7728881835938
430,785.7142944335938,792.1611938476562,801.025634765625,787.7289428710938
431,790.1465454101562,795.3846435546875,803.4432373046875,792.967041015625
432,790.1465454101562,795.7875366210938,801.4285888671875,799.4139404296875
433,783.6996459960938,792.1611938476562,799.010986328125,793.3699340820312
434,782.893798828125,792.967041015625,797.3992919921875,792.967041015625
435,784.1025390625,791.7582397460938,796.5933837890625,794.981689453125
436,787.7289428710938,794.5787353515625,792.967041015625,799.8168334960938
437,792.1611938476562,795.3846435546875,795.3846435546875,803.8461303710938
438,786.923095703125,790.5494384765625,794.5787353515625,798.2051391601562
439,789.3406372070312,791.3552856445312,791.3552856445312,793.7728881835938
440,789.7435913085938,793.7728881835938,793.3699340820312,800.6226806640625
441,788.937744140625,796.1904907226562,790.5494384765625,804.6520385742188
442,794.5787353515625,795.7875366210938,792.967041015625,798.6080322265625
443,798.6080322265625,790.1465454101562,790.5494384765625,792.1611938476562
444,801.4285888671875,792.967041015625,785.3113403320312,789.3406372070312
445,797.3992919921875,793.7728881835938,788.937744140625,790.1465454101562
446,795.7875366210938,791.7582397460938,788.5347900390625,786.923095703125
447,801.025634765625,796.1904907226562,791.3552856445312,793.3699340820312
448,808.6813354492188,796.5933837890625,798.2051391601562,806.2637329101562
449,810.2930297851562,794.1758422851562,800.2197875976562,800.2197875976562
450,799.4139404296875,796.5933837890625,798.6080322265625,794.5787353515625
451,787.3259887695312,796.1904907226562,798.6080322265625,798.2051391601562
452,790.5494384765625,792.967041015625,799.4139404296875,802.2344360351562
453,796.5933837890625,790.5494384765625,802.6373901367188,803.8461303710938
454,792.5640869140625,788.1318969726562,803.4432373046875,798.2051391601562
455,786.1171875,790.1465454101562,798.6080322265625,792.1611938476562
456,786.5201416015625,790.1465454101562,796.1904907226562,788.5347900390625
457,788.5347900390625,791.7582397460938,800.2197875976562,784.1025390625
458,792.1611938476562,794.981689453125,798.6080322265625,784.5054931640625
459,797.8021850585938,792.1611938476562,791.7582397460938,786.1171875
460,794.981689453125,790.1465454101562,794.5787353515625,784.1025390625
461,794.1758422851562,794.5787353515625,799.8168334960938,786.923095703125
462,790.952392578125,792.967041015625,798.6080322265625,784.5054931640625
463,780.4761962890625,788.1318969726562,794.1758422851562,783.6996459960938
464,781.2820434570312,788.937744140625,792.5640869140625,783.2966918945312
465,789.3406372070312,787.7289428710938,792.967041015625,782.4908447265625
466,788.5347900390625,790.1465454101562,793.7728881835938,782.4908447265625
467,784.5054931640625,793.3699340820312,791.3552856445312,787.3259887695312
468,786.1171875,791.3552856445312,786.923095703125,789.3406372070312
469,784.5054931640625,788.1318969726562,788.1318969726562,777.6557006835938
470,784.908447265625,786.923095703125,790.1465454101562,777.2527465820312
471,787.3259887695312,788.1318969726562,792.5640869140625,782.4908447265625
472,786.1171875,785.7142944335938,796.996337890625,787.7289428710938
473,790.952392578125,788.937744140625,799.010986328125,798.6080322265625
474,799.8168334960938,784.5054931640625,796.5933837890625,805.4578857421875
475,795.7875366210938,780.4761962890625,794.1758422851562,807.87548828125
476,791.7582397460938,792.967041015625,794.1758422851562,809.89013671875
477,793.3699340820312,796.1904907226562,795.3846435546875,805.8607788085938
478,792.5640869140625,791.3552856445312,799.010986328125,800.6226806640625
479,793.7728881835938,790.1465454101562,801.025634765625,802.2344360351562
480,794.5787353515625,790.5494384765625,799.4139404296875,788.5347900390625
481,788.937744140625,790.1465454101562,796.5933837890625,781.2820434570312
482,782.087890625,792.967041015625,794.1758422851562,780.0732421875
483,778.05859375,791.7582397460938,794.5787353515625,767.5823974609375
484,779.6703491210938,788.1318969726562,792.1611938476562,768.7911987304688
485,779.6703491210938,789.7435913085938,788.1318969726562,772.0146484375
486,774.029296875,790.1465454101562,786.1171875,765.970703125
487,778.4615478515625,790.5494384765625,786.5201416015625,770.4029541015625
488,785.3113403320312,791.7582397460938,793.3699340820312,775.6410522460938
489,789.7435913085938,789.7435913085938,796.996337890625,776.8497924804688
490,791.3552856445312,786.923095703125,792.1611938476562,780.4761962890625
491,787.3259887695312,786.923095703125,791.3552856445312,778.4615478515625
492,785.7142944335938,789.7435913085938,792.967041015625,773.6264038085938
493,789.3406372070312,792.1611938476562,791.7582397460938,775.6410522460938
494,790.952392578125,796.1904907226562,793.3699340820312,781.2820434570312
495,788.1318969726562,795.7875366210938,790.5494384765625,784.5054931640625
496,783.6996459960938,789.7435913085938,787.3259887695312,781.6849975585938
497,787.3259887695312,788.937744140625,788.937744140625,785.3113403320312
498,792.1611938476562,788.1318969726562,790.5494384765625,795.7875366210938
499,795.3846435546875,784.5054931640625,790.1465454101562,801.8314819335938
500,793.3699340820312,786.1171875,788.1318969726562,801.4285888671875
501,791.3552856445312,786.1171875,786.5201416015625,807.4725341796875
502,801.4285888671875,782.893798828125,793.3699340820312,816.7399291992188
503,802.2344360351562,783.6996459960938,799.8168334960938,813.91943359375
504,790.952392578125,787.3259887695312,795.3846435546875,798.6080322265625
505,782.087890625,790.1465454101562,791.3552856445312,789.7435913085938
506,782.4908447265625,790.952392578125,794.1758422851562,790.5494384765625
507,786.923095703125,791.3552856445312,791.7582397460938,788.5347900390625
508,784.1025390625,793.3699340820312,789.3406372070312,780.4761962890625
509,785.7142944335938,796.1904907226562,791.7582397460938,776.4468994140625
510,788.5347900390625,796.5933837890625,793.7728881835938,785.3113403320312
511,787.7289428710938,796.1904907226562,791.7582397460938,781.2820434570312
512,786.923095703125,797.8021850585938,784.908447265625,768.3883056640625
513,783.6996459960938,793.7728881835938,784.908447265625,771.2088012695312
514,787.7289428710938,792.5640869140625,792.1611938476562,775.6410522460938
515,788.937744140625,791.7582397460938,796.996337890625,772.8204956054688
516,787.7289428710938,789.7435913085938,794.981689453125,776.8497924804688
517,788.937744140625,791.7582397460938,793.3699340820312,776.4468994140625
518,784.908447265625,790.5494384765625,795.7875366210938,770.0
519,789.7435913085938,789.3406372070312,795.3846435546875,772.0146484375
520,788.937744140625,788.937744140625,801.8314819335938,779.6703491210938
521,780.0732421875,790.1465454101562,803.8461303710938,787.7289428710938
522,786.1171875,789.7435913085938,797.3992919921875,796.1904907226562
523,791.3552856445312,793.3699340820312,798.6080322265625,804.2490844726562
524,786.923095703125,790.1465454101562,798.2051391601562,807.4725341796875
525,788.937744140625,785.3113403320312,794.981689453125,812.7106323242188
526,794.5787353515625,792.1611938476562,796.996337890625,813.5164794921875
527,797.3992919921875,794.5787353515625,802.6373901367188,806.6666870117188
528,792.5640869140625,788.937744140625,799.4139404296875,799.8168334960938
529,787.3259887695312,788.5347900390625,794.1758422851562,798.2051391601562
530,793.7728881835938,790.1465454101562,792.967041015625,801.8314819335938
531,797.3992919921875,789.7435913085938,794.5787353515625,796.5933837890625
532,788.937744140625,792.1611938476562,794.5787353515625,796.996337890625
533,784.1025390625,792.967041015625,789.3406372070312,794.981689453125
534,785.3113403320312,789.3406372070312,784.908447265625,784.1025390625
535,785.7142944335938,787.3259887695312,783.6996459960938,782.087890625
536,785.7142944335938,791.7582397460938,786.1171875,789.3406372070312
537,789.3406372070312,801.025634765625,787.3259887695312,793.7728881835938
538,785.3113403320312,798.2051391601562,786.1171875,784.908447265625
539,782.087890625,792.967041015625,788.937744140625,782.893798828125
540,788.937744140625,795.7875366210938,794.981689453125,784.908447265625
541,793.7728881835938,799.010986328125,799.4139404296875,784.1025390625
542,795.7875366210938,799.010986328125,799.8168334960938,784.5054931640625
543,793.3699340820312,792.5640869140625,801.4285888671875,790.952392578125
544,794.1758422851562,795.7875366210938,799.4139404296875,794.981689453125
545,796.996337890625,793.7728881835938,797.3992919921875,797.8021850585938
546,799.8168334960938,790.1465454101562,799.8168334960938,803.4432373046875
547,796.1904907226562,789.7435913085938,796.996337890625,803.040283203125
548,788.5347900390625,787.3259887695312,792.1611938476562,803.4432373046875
549,794.1758422851562,791.7582397460938,798.2051391601562,807.069580078125
550,799.010986328125,790.952392578125,801.025634765625,811.5018310546875
551,799.8168334960938,787.7289428710938,800.2197875976562,812.7106323242188
552,803.040283203125,789.3406372070312,801.025634765625,805.4578857421875
553,797.8021850585938,791.3552856445312,803.8461303710938,804.6520385742188
554,788.937744140625,788.937744140625,802.6373901367188,799.8168334960938
555,790.1465454101562,787.3259887695312,797.3992919921875,797.8021850585938
556,788.5347900390625,788.937744140625,799.4139404296875,799.4139404296875
557,782.893798828125,790.1465454101562,796.1904907226562,790.952392578125
558,781.2820434570312,787.7289428710938,794.5787353515625,785.7142944335938
559,781.2820434570312,787.3259887695312,791.3552856445312,786.5201416015625
560,782.4908447265625,787.7289428710938,790.952392578125,786.1171875
561,786.5201416015625,791.7582397460938,794.1758422851562,779.6703491210938
562,789.3406372070312,795.3846435546875,792.1611938476562,778.8644409179688
563,786.1171875,790.952392578125,793.3699340820312,779.2673950195312
564,786.923095703125,786.1171875,792.5640869140625,780.879150390625
565,790.1465454101562,787.7289428710938,788.5347900390625,776.4468994140625
566,791.3552856445312,789.7435913085938,790.952392578125,777.6557006835938
567,791.7582397460938,790.1465454101562,793.3699340820312,782.4908447265625
568,792.967041015625,790.5494384765625,795.7875366210938,781.6849975585938
569,792.5640869140625,791.3552856445312,800.2197875976562,786.1171875
570,790.1465454101562,790.5494384765625,801.4285888671875,789.7435913085938
571,797.8021850585938,784.5054931640625,803.040283203125,798.2051391601562
572,794.981689453125,787.7289428710938,799.4139404296875,795.3846435546875
573,781.2820434570312,788.5347900390625,795.3846435546875,788.937744140625
574,784.1025390625,786.923095703125,801.4285888671875,800.2197875976562
575,788.1318969726562,789.7435913085938,805.4578857421875,809.4871826171875
576,787.3259887695312,789.7435913085938,805.8607788085938,806.2637329101562
577,789.3406372070312,790.952392578125,805.054931640625,804.6520385742188
578,791.3552856445312,790.952392578125,802.6373901367188,802.2344360351562
579,792.1611938476562,792.1611938476562,803.040283203125,802.2344360351562
580,799.8168334960938,792.1611938476562,806.6666870117188,802.6373901367188
581,801.8314819335938,788.937744140625,809.4871826171875,796.1904907226562
582,799.010986328125,792.5640869140625,810.2930297851562,793.7728881835938
583,795.7875366210938,797.3992919921875,809.89013671875,790.5494384765625
584,791.7582397460938,801.8314819335938,806.2637329101562,786.1171875
585,795.3846435546875,801.4285888671875,804.2490844726562,783.6996459960938
586,794.981689453125,794.5787353515625,802.2344360351562,780.879150390625
587,794.5787353515625,794.1758422851562,800.6226806640625,781.2820434570312
588,792.5640869140625,799.010986328125,796.1904907226562,780.4761962890625
589,793.7728881835938,800.6226806640625,794.1758422851562,782.4908447265625
590,791.7582397460938,800.6226806640625,798.2051391601562,784.908447265625
591,788.5347900390625,798.2051391601562,796.996337890625,786.1171875
592,792.967041015625,796.996337890625,796.5933837890625,792.5640869140625
593,796.1904907226562,796.5933837890625,793.7728881835938,792.967041015625
594,789.7435913085938,801.025634765625,790.1465454101562,787.7289428710938
595,790.1465454101562,799.8168334960938,790.952392578125,785.7142944335938
596,796.996337890625,790.5494384765625,790.952392578125,785.3113403320312
597,795.7875366210938,788.1318969726562,788.1318969726562,786.923095703125
598,790.5494384765625,794.981689453125,788.5347900390625,793.7728881835938
599,783.6996459960938,796.996337890625,791.7582397460938,796.996337890625
600,787.3259887695312,795.3846435546875,795.7875366210938,798.6080322265625
601,794.981689453125,792.5640869140625,801.4285888671875,802.2344360351562
602,801.8314819335938,792.1611938476562,802.6373901367188,809.89013671875
603,794.5787353515625,805.8607788085938,801.8314819335938,807.4725341796875
604,780.0732421875,807.4725341796875,798.6080322265625,786.1171875
605,780.0732421875,799.010986328125,796.5933837890625,780.879150390625
606,779.2673950195312,795.7875366210938,797.8021850585938,782.893798828125
607,778.05859375,792.5640869140625,794.5787353515625,782.087890625
608,772.4176025390625,792.967041015625,793.3699340820312,781.6849975585938
609,770.4029541015625,792.1611938476562,796.1904907226562,787.3259887695312
610,773.6264038085938,790.1465454101562,799.010986328125,788.937744140625
611,777.2527465820312,795.7875366210938,795.7875366210938,776.0439453125
612,784.5054931640625,798.6080322265625,791.7582397460938,777.2527465820312
613,782.893798828125,795.7875366210938,791.7582397460938,777.6557006835938
614,782.087890625,794.1758422851562,793.7728881835938,777.6557006835938
615,782.087890625,792.5640869140625,794.5787353515625,777.2527465820312
616,780.0732421875,792.1611938476562,794.5787353515625,771.2088012695312
617,784.908447265625,792.1611938476562,796.5933837890625,772.8204956054688
618,787.3259887695312,793.3699340820312,798.2051391601562,772.0146484375
619,782.893798828125,795.7875366210938,799.4139404296875,770.8058471679688
620,783.2966918945312,794.5787353515625,800.6226806640625,775.6410522460938
621,784.908447265625,790.952392578125,799.010986328125,785.3113403320312
622,787.3259887695312,794.981689453125,797.8021850585938,782.087890625
623,795.7875366210938,800.2197875976562,796.5933837890625,783.2966918945312
624,793.3699340820312,796.996337890625,797.3992919921875,795.7875366210938
625,788.5347900390625,795.3846435546875,799.010986328125,792.967041015625
626,789.3406372070312,795.7875366210938,801.025634765625,791.7582397460938
627,788.937744140625,793.7728881835938,802.2344360351562,797.3992919921875
628,788.937744140625,791.3552856445312,799.010986328125,802.6373901367188
629,783.2966918945312,790.5494384765625,795.3846435546875,803.040283203125
630,784.908447265625,793.7728881835938,795.3846435546875,797.8021850585938
631,790.952392578125,792.1611938476562,797.3992919921875,795.3846435546875
632,789.3406372070312,789.7435913085938,790.952392578125,794.5787353515625
633,790.952392578125,790.952392578125,793.3699340820312,799.8168334960938
634,782.893798828125,790.5494384765625,797.3992919921875,793.7728881835938
635,781.2820434570312,790.952392578125,796.1904907226562,786.5201416015625
636,783.6996459960938,787.3259887695312,801.4285888671875,779.6703491210938
637,786.1171875,790.1465454101562,797.3992919921875,780.4761962890625
638,791.7582397460938,792.967041015625,794.981689453125,783.2966918945312
639,787.3259887695312,789.7435913085938,793.3699340820312,774.029296875
640,785.7142944335938,784.908447265625,791.3552856445312,770.4029541015625
641,788.937744140625,786.923095703125,794.5787353515625,773.2234497070312
642,786.1171875,794.5787353515625,788.1318969726562,778.4615478515625
643,790.1465454101562,794.981689453125,788.1318969726562,786.5201416015625
644,790.952392578125,791.3552856445312,788.1318969726562,790.952392578125
645,786.923095703125,790.1465454101562,787.7289428710938,786.923095703125
646,791.3552856445312,793.3699340820312,792.1611938476562,785.7142944335938
647,795.7875366210938,792.5640869140625,792.5640869140625,788.5347900390625
648,796.5933837890625,794.1758422851562,795.7875366210938,793.7728881835938
649,791.3552856445312,796.1904907226562,795.3846435546875,792.967041015625
650,794.981689453125,792.5640869140625,794.1758422851562,792.967041015625
651,799.4139404296875,792.967041015625,793.3699340820312,798.2051391601562
652,799.010986328125,794.5787353515625,791.3552856445312,799.8168334960938
653,800.6226806640625,793.7728881835938,791.3552856445312,798.6080322265625
654,799.8168334960938,787.7289428710938,791.7582397460938,802.2344360351562
655,794.1758422851562,786.923095703125,789.3406372070312,801.025634765625
656,788.1318969726562,788.1318969726562,791.3552856445312,797.8021850585938
657,789.7435913085938,788.5347900390625,795.7875366210938,793.3699340820312
658,792.5640869140625,786.923095703125,791.7582397460938,789.7435913085938
659,786.1171875,784.908447265625,790.5494384765625,789.3406372070312
660,774.4322509765625,784.1025390625,794.981689453125,785.7142944335938
661,770.8058471679688,782.4908447265625,791.7582397460938,780.4761962890625
662,780.4761962890625,788.1318969726562,791.3552856445312,785.7142944335938
663,783.2966918945312,788.937744140625,795.3846435546875,786.5201416015625
664,779.6703491210938,787.3259887695312,792.5640869140625,779.2673950195312
665,782.893798828125,789.7435913085938,792.1611938476562,778.4615478515625
666,785.7142944335938,787.7289428710938,795.7875366210938,782.893798828125
667,781.2820434570312,787.7289428710938,798.6080322265625,785.7142944335938
668,782.893798828125,792.1611938476562,801.8314819335938,784.5054931640625
669,784.908447265625,792.967041015625,800.6226806640625,788.1318969726562
670,784.1025390625,792.1611938476562,800.2197875976562,791.7582397460938
671,791.7582397460938,797.3992919921875,799.8168334960938,792.1611938476562
672,795.7875366210938,799.8168334960938,801.025634765625,790.1465454101562
673,802.6373901367188,796.996337890625,802.2344360351562,795.7875366210938
674,807.069580078125,794.5787353515625,799.4139404296875,799.8168334960938
675,801.8314819335938,796.1904907226562,792.5640869140625,791.3552856445312
676,800.6226806640625,796.1904907226562,786.1171875,791.7582397460938
677,802.2344360351562,791.7582397460938,788.5347900390625,801.025634765625
678,801.4285888671875,790.952392578125,792.5640869140625,805.4578857421875
679,799.4139404296875,791.3552856445312,795.7875366210938,805.4578857421875
680,795.3846435546875,792.1611938476562,795.7875366210938,800.6226806640625
681,787.7289428710938,790.5494384765625,792.967041015625,798.2051391601562
682,790.952392578125,794.1758422851562,796.1904907226562,800.2197875976562
683,797.3992919921875,799.4139404296875,798.2051391601562,803.4432373046875
684,796.5933837890625,801.4285888671875,801.025634765625,803.8461303710938
685,795.7875366210938,800.2197875976562,800.2197875976562,798.6080322265625
686,792.5640869140625,796.5933837890625,796.1904907226562,794.1758422851562
687,794.5787353515625,799.8168334960938,801.4285888671875,795.7875366210938
688,788.5347900390625,799.010986328125,799.4139404296875,794.5787353515625
689,785.7142944335938,795.7875366210938,797.8021850585938,797.8021850585938
690,792.1611938476562,797.8021850585938,801.4285888671875,799.010986328125
691,781.6849975585938,797.3992919921875,799.010986328125,782.4908447265625
692,776.4468994140625,795.7875366210938,792.967041015625,777.6557006835938
693,784.5054931640625,792.967041015625,793.3699340820312,784.1025390625
694,787.7289428710938,792.1611938476562,796.5933837890625,786.5201416015625
695,792.967041015625,793.7728881835938,797.8021850585938,787.7289428710938
696,791.7582397460938,792.1611938476562,797.3992919921875,780.0732421875
697,785.7142944335938,789.7435913085938,796.1904907226562,775.2380981445312
698,787.3259887695312,788.5347900390625,797.3992919921875,782.087890625
699,786.5201416015625,787.7289428710938,799.8168334960938,784.1025390625
700,787.7289428710938,787.3259887695312,799.4139404296875,787.7289428710938
701,786.1171875,786.923095703125,800.6226806640625,787.7289428710938
702,783.6996459960938,787.3259887695312,799.8168334960938,782.893798828125
703,790.5494384765625,790.952392578125,802.2344360351562,783.2966918945312
704,796.996337890625,796.1904907226562,804.2490844726562,789.7435913085938
705,794.5787353515625,795.7875366210938,801.4285888671875,798.2051391601562
706,791.3552856445312,791.3552856445312,803.4432373046875,799.4139404296875
707,796.996337890625,790.1465454101562,801.4285888671875,793.7728881835938
708,802.2344360351562,788.5347900390625,801.025634765625,793.3699340820312
709,803.040283203125,792.1611938476562,805.4578857421875,799.010986328125
710,798.6080322265625,794.5787353515625,808.2783813476562,801.025634765625
711,796.996337890625,793.7728881835938,807.4725341796875,799.4139404296875
712,791.3552856445312,795.3846435546875,804.6520385742188,793.3699340820312
713,788.5347900390625,798.6080322265625,803.040283203125,794.981689453125
714,791.7582397460938,798.2051391601562,803.4432373046875,802.6373901367188
715,788.1318969726562,795.7875366210938,804.2490844726562,794.5787353515625
716,780.4761962890625,793.7728881835938,799.8168334960938,783.6996459960938
717,778.05859375,792.5640869140625,794.5787353515625,788.5347900390625
718,779.2673950195312,795.3846435546875,797.3992919921875,786.5201416015625
719,787.3259887695312,796.996337890625,805.054931640625,786.1171875
720,792.1611938476562,796.5933837890625,807.069580078125,786.5201416015625
721,788.5347900390625,793.7728881835938,804.6520385742188,782.893798828125
722,783.6996459960938,790.952392578125,802.2344360351562,780.879150390625
723,780.0732421875,793.3699340820312,802.2344360351562,779.2673950195312
724,784.5054931640625,795.3846435546875,805.8607788085938,789.3406372070312
725,786.5201416015625,797.8021850585938,805.4578857421875,794.5787353515625
726,788.5347900390625,800.2197875976562,801.025634765625,788.937744140625
727,786.5201416015625,793.3699340820312,800.2197875976562,784.5054931640625
728,774.8351440429688,792.967041015625,799.010986328125,784.908447265625
729,783.6996459960938,801.8314819335938,805.4578857421875,790.5494384765625
730,780.4761962890625,799.8168334960938,801.4285888671875,780.879150390625
731,763.5531005859375,791.3552856445312,796.5933837890625,774.8351440429688
732,757.106201171875,794.981689453125,802.6373901367188,769.1941528320312
733,748.6447143554688,796.996337890625,799.010986328125,754.6886596679688
734,740.989013671875,795.7875366210938,804.6520385742188,755.091552734375
735,728.09521484375,801.8314819335938,816.7399291992188,750.6593627929688
736,708.3516235351562,805.8607788085938,821.5750732421875,725.6776733398438
737,693.040283203125,809.89013671875,815.93408203125,710.7692260742188
738,694.6520385742188,813.113525390625,813.91943359375,707.5457763671875
739,695.054931640625,806.2637329101562,823.5897216796875,702.3076782226562
740,683.3699340820312,811.90478515625,822.3809814453125,694.2490844726562
741,665.2380981445312,814.7252807617188,819.1575317382812,676.923095703125
742,665.6410522460938,813.113525390625,826.8131713867188,678.5347900390625
743,664.8351440429688,814.7252807617188,829.2307739257812,678.5347900390625
744,664.4322509765625,813.113525390625,828.02197265625,671.2820434570312
745,670.0732421875,813.113525390625,824.7985229492188,673.6996459960938
746,671.6849975585938,808.6813354492188,830.8424682617188,671.6849975585938
747,681.3552856445312,805.054931640625,832.4542236328125,676.5201416015625
748,693.040283203125,804.6520385742188,830.4395751953125,693.8461303710938
749,693.8461303710938,805.4578857421875,833.6630249023438,693.4432373046875
750,695.8607788085938,805.4578857421875,832.8571166992188,690.6226806640625
751,704.7252807617188,809.084228515625,830.8424682617188,707.94873046875
752,711.97802734375,806.6666870117188,827.2161254882812,712.7838745117188
753,716.00732421875,807.069580078125,821.5750732421875,710.3662719726562
754,722.05126953125,805.8607788085938,821.5750732421875,725.6776733398438
755,739.7802124023438,799.8168334960938,819.96337890625,741.7948608398438
756,743.8095092773438,795.3846435546875,815.1282348632812,749.047607421875
757,742.1978149414062,794.981689453125,812.3076782226562,748.6447143554688
758,752.6740112304688,796.5933837890625,811.5018310546875,758.3150024414062
759,770.8058471679688,798.6080322265625,811.5018310546875,778.4615478515625
760,779.6703491210938,798.6080322265625,810.6959838867188,784.5054931640625
761,772.0146484375,793.3699340820312,809.4871826171875,776.0439453125
762,775.6410522460938,794.5787353515625,801.4285888671875,778.05859375
763,789.3406372070312,796.996337890625,792.967041015625,797.3992919921875
764,796.5933837890625,799.4139404296875,794.1758422851562,799.4139404296875
765,800.6226806640625,797.3992919921875,791.7582397460938,792.5640869140625
766,809.4871826171875,792.5640869140625,785.7142944335938,801.8314819335938
767,806.2637329101562,792.1611938476562,786.923095703125,799.8168334960938
768,803.040283203125,790.5494384765625,785.3113403320312,798.2051391601562
769,811.5018310546875,786.5201416015625,785.7142944335938,807.069580078125
770,819.5604248046875,785.7142944335938,786.923095703125,811.90478515625
771,827.2161254882812,784.5054931640625,780.4761962890625,817.5457763671875
772,827.6190185546875,785.3113403320312,773.6264038085938,813.91943359375
773,824.7985229492188,786.923095703125,775.2380981445312,809.084228515625
774,823.99267578125,786.923095703125,775.2380981445312,820.7692260742188
775,828.8278198242188,788.5347900390625,776.8497924804688,837.6923217773438
776,829.2307739257812,789.7435913085938,778.8644409179688,834.06591796875
777,829.2307739257812,789.3406372070312,777.2527465820312,826.4102783203125
778,821.5750732421875,789.7435913085938,774.8351440429688,820.3662719726562
779,823.5897216796875,792.5640869140625,772.0146484375,820.3662719726562
780,831.6483764648438,792.1611938476562,777.2527465820312,819.5604248046875
781,831.2454223632812,788.1318969726562,778.8644409179688,823.1868286132812
782,829.2307739257812,786.5201416015625,778.4615478515625,828.8278198242188
783,826.8131713867188,786.923095703125,785.7142944335938,826.4102783203125
784,826.00732421875,790.952392578125,785.3113403320312,826.00732421875
785,824.7985229492188,788.5347900390625,781.6849975585938,821.1721801757812
786,821.1721801757812,787.3259887695312,779.6703491210938,824.3956298828125
787,820.7692260742188,787.7289428710938,778.8644409179688,826.00732421875
788,820.7692260742188,785.7142944335938,781.6849975585938,820.7692260742188
789,817.1428833007812,785.7142944335938,782.893798828125,822.3809814453125
790,822.3809814453125,789.3406372070312,786.1171875,831.6483764648438
791,826.8131713867188,791.7582397460938,789.3406372070312,831.6483764648438
792,823.5897216796875,784.5054931640625,786.1171875,818.3516235351562
793,823.1868286132812,782.893798828125,786.1171875,817.94873046875
794,823.1868286132812,783.6996459960938,784.908447265625,815.5311279296875
795,823.99267578125,782.893798828125,781.6849975585938,815.1282348632812
796,829.2307739257812,786.923095703125,783.2966918945312,824.3956298828125
797,830.03662109375,790.1465454101562,782.4908447265625,823.1868286132812
798,823.99267578125,793.7728881835938,785.3113403320312,819.96337890625
799,820.3662719726562,792.1611938476562,790.1465454101562,818.7545776367188
800,819.96337890625,793.7728881835938,788.937744140625,815.93408203125
801,819.1575317382812,797.8021850585938,786.5201416015625,817.1428833007812
802,825.6043701171875,799.010986328125,783.6996459960938,822.3809814453125
803,828.4249267578125,794.981689453125,783.6996459960938,824.3956298828125
804,824.3956298828125,792.1611938476562,788.1318969726562,816.7399291992188
805,825.2014770507812,798.6080322265625,793.7728881835938,812.7106323242188
806,821.5750732421875,798.6080322265625,791.7582397460938,808.6813354492188
807,818.3516235351562,795.7875366210938,788.937744140625,805.4578857421875
808,809.4871826171875,794.5787353515625,792.967041015625,802.6373901367188
809,798.2051391601562,788.1318969726562,786.5201416015625,804.6520385742188
810,799.4139404296875,787.7289428710938,786.1171875,808.6813354492188
811,807.4725341796875,794.1758422851562,792.1611938476562,803.4432373046875
812,808.6813354492188,792.967041015625,787.3259887695312,806.2637329101562
813,798.6080322265625,788.937744140625,786.5201416015625,805.054931640625
814,794.5787353515625,787.7289428710938,785.7142944335938,794.5787353515625
815,797.8021850585938,786.923095703125,783.6996459960938,795.3846435546875
816,795.7875366210938,786.1171875,789.3406372070312,802.2344360351562
817,791.7582397460938,784.5054931640625,788.937744140625,800.2197875976562
818,790.5494384765625,782.893798828125,785.7142944335938,792.5640869140625
819,791.7582397460938,780.4761962890625,783.6996459960938,786.923095703125
820,797.3992919921875,783.6996459960938,787.7289428710938,791.7582397460938
821,801.4285888671875,788.937744140625,793.3699340820312,794.5787353515625
822,799.4139404296875,788.1318969726562,791.3552856445312,795.3846435546875
823,794.5787353515625,784.1025390625,787.7289428710938,796.5933837890625
824,794.981689453125,786.5201416015625,787.3259887695312,800.6226806640625
825,797.8021850585938,788.5347900390625,788.937744140625,795.3846435546875
826,806.6666870117188,790.1465454101562,792.967041015625,794.5787353515625
827,810.6959838867188,792.1611938476562,795.3846435546875,803.040283203125
828,804.6520385742188,792.967041015625,794.981689453125,800.6226806640625
829,799.8168334960938,788.937744140625,790.5494384765625,792.967041015625
830,803.8461303710938,786.5201416015625,788.5347900390625,791.7582397460938
831,803.8461303710938,789.3406372070312,790.1465454101562,798.2051391601562
832,797.3992919921875,792.967041015625,789.7435913085938,796.996337890625
833,799.010986328125,794.981689453125,785.7142944335938,789.3406372070312
834,800.2197875976562,792.967041015625,789.7435913085938,786.1171875
835,794.1758422851562,794.1758422851562,792.5640869140625,788.5347900390625
836,794.981689453125,795.3846435546875,787.3259887695312,792.967041015625
837,798.2051391601562,794.981689453125,790.1465454101562,796.1904907226562
838,796.1904907226562,792.5640869140625,794.5787353515625,795.7875366210938
839,790.1465454101562,790.1465454101562,791.7582397460938,789.3406372070312
840,786.5201416015625,789.7435913085938,791.7582397460938,783.6996459960938
841,788.5347900390625,791.7582397460938,794.1758422851562,781.2820434570312
842,788.5347900390625,794.981689453125,794.5787353515625,779.6703491210938
843,787.7289428710938,790.952392578125,796.1904907226562,782.087890625
844,788.5347900390625,788.5347900390625,796.996337890625,785.3113403320312
845,789.7435913085938,791.3552856445312,794.1758422851562,787.7289428710938
846,790.952392578125,794.981689453125,792.5640869140625,789.3406372070312
847,796.5933837890625,797.8021850585938,794.1758422851562,794.1758422851562
848,798.2051391601562,794.1758422851562,794.5787353515625,797.8021850585938
849,794.981689453125,793.3699340820312,796.1904907226562,793.7728881835938
850,790.952392578125,797.8021850585938,795.7875366210938,794.5787353515625
851,789.3406372070312,799.010986328125,800.6226806640625,797.8021850585938
852,788.5347900390625,794.1758422851562,803.4432373046875,799.010986328125
853,785.3113403320312,791.7582397460938,797.3992919921875,796.996337890625
854,790.1465454101562,796.5933837890625,794.1758422851562,797.8021850585938
855,786.923095703125,795.3846435546875,796.1904907226562,799.4139404296875
856,783.6996459960938,793.7728881835938,792.5640869140625,801.4285888671875
857,792.967041015625,793.7728881835938,792.5640869140625,799.8168334960938
858,803.8461303710938,797.3992919921875,795.7875366210938,803.040283203125
859,807.4725341796875,799.8168334960938,794.981689453125,807.4725341796875
860,804.2490844726562,798.6080322265625,796.1904907226562,803.4432373046875
861,799.8168334960938,802.6373901367188,792.1611938476562,794.5787353515625
862,799.010986328125,800.6226806640625,790.5494384765625,795.3846435546875
863,801.8314819335938,799.8168334960938,796.5933837890625,802.2344360351562
864,804.6520385742188,800.6226806640625,797.3992919921875,799.8168334960938
865,799.8168334960938,791.7582397460938,794.1758422851562,790.952392578125
866,796.5933837890625,787.3259887695312,791.7582397460938,788.5347900390625
867,798.2051391601562,793.7728881835938,792.5640869140625,791.7582397460938
868,796.1904907226562,799.010986328125,792.1611938476562,792.967041015625
869,792.5640869140625,793.3699340820312,790.1465454101562,790.1465454101562
870,789.3406372070312,786.5201416015625,788.5347900390625,786.923095703125
871,798.2051391601562,792.5640869140625,791.3552856445312,794.1758422851562
872,801.8314819335938,795.7875366210938,796.5933837890625,800.2197875976562
873,799.010986328125,794.5787353515625,792.5640869140625,796.996337890625
874,802.2344360351562,794.5787353515625,790.1465454101562,794.1758422851562
875,800.2197875976562,795.3846435546875,792.5640869140625,796.1904907226562
876,799.8168334960938,794.1758422851562,794.5787353515625,792.1611938476562
877,799.4139404296875,788.1318969726562,792.967041015625,789.7435913085938
878,801.4285888671875,788.937744140625,790.952392578125,797.8021850585938
879,805.4578857421875,788.5347900390625,795.7875366210938,802.2344360351562
880,797.3992919921875,784.908447265625,798.6080322265625,796.1904907226562
881,791.7582397460938,784.5054931640625,799.010986328125,798.6080322265625
882,792.5640869140625,786.1171875,794.1758422851562,801.025634765625
883,796.1904907226562,788.1318969726562,790.952392578125,796.1904907226562
884,792.967041015625,786.923095703125,794.5787353515625,796.1904907226562
885,790.5494384765625,786.1171875,794.981689453125,793.7728881835938
886,790.1465454101562,791.7582397460938,792.1611938476562,793.3699340820312
887,796.5933837890625,797.3992919921875,794.981689453125,795.7875366210938
888,805.054931640625,799.010986328125,796.5933837890625,803.040283203125
889,803.040283203125,795.7875366210938,791.7582397460938,802.6373901367188
890,798.2051391601562,790.952392578125,789.3406372070312,796.5933837890625
891,796.1904907226562,798.6080322265625,792.5640869140625,799.8168334960938
892,794.5787353515625,800.2197875976562,797.3992919921875,799.010986328125
893,800.6226806640625,797.3992919921875,796.1904907226562,799.8168334960938
894,808.2783813476562,792.967041015625,794.1758422851562,799.010986328125
895,808.2783813476562,793.7728881835938,790.952392578125,797.8021850585938
896,801.025634765625,800.2197875976562,792.1611938476562,799.8168334960938
897,800.2197875976562,800.2197875976562,794.5787353515625,810.6959838867188
898,799.4139404296875,799.010986328125,791.3552856445312,807.87548828125
899,802.2344360351562,796.1904907226562,790.952392578125,799.010986328125
900,805.8607788085938,792.1611938476562,788.1318969726562,800.2197875976562
901,802.2344360351562,791.7582397460938,787.3259887695312,801.025634765625
902,800.2197875976562,790.1465454101562,794.981689453125,799.010986328125
903,799.8168334960938,784.1025390625,796.5933837890625,794.1758422851562
904,797.3992919921875,782.4908447265625,788.937744140625,792.5640869140625
905,791.3552856445312,783.6996459960938,790.5494384765625,789.7435913085938
906,786.923095703125,783.6996459960938,792.1611938476562,788.5347900390625
907,789.3406372070312,790.5494384765625,790.5494384765625,788.5347900390625
908,795.7875366210938,790.1465454101562,794.981689453125,790.952392578125
909,799.8168334960938,790.1465454101562,790.1465454101562,798.6080322265625
910,799.010986328125,791.3552856445312,790.952392578125,802.6373901367188
911,799.4139404296875,788.5347900390625,800.2197875976562,804.6520385742188
912,801.025634765625,787.3259887695312,801.8314819335938,805.4578857421875
913,801.8314819335938,793.3699340820312,799.010986328125,809.084228515625
914,801.8314819335938,795.7875366210938,800.2197875976562,810.2930297851562
915,803.4432373046875,796.1904907226562,801.8314819335938,809.89013671875
916,804.6520385742188,799.4139404296875,807.069580078125,814.3223266601562
917,800.6226806640625,790.952392578125,809.084228515625,808.2783813476562
918,801.4285888671875,789.3406372070312,804.6520385742188,801.4285888671875
919,801.025634765625,796.1904907226562,805.8607788085938,796.1904907226562
920,796.5933837890625,792.5640869140625,801.8314819335938,791.3552856445312
921,794.981689453125,788.937744140625,799.010986328125,792.967041015625
922,795.3846435546875,786.923095703125,800.6226806640625,789.7435913085938
923,798.6080322265625,784.5054931640625,801.4285888671875,788.937744140625
924,794.981689453125,787.7289428710938,801.025634765625,789.7435913085938
925,791.3552856445312,791.3552856445312,799.4139404296875,790.1465454101562
926,794.5787353515625,793.3699340820312,795.3846435546875,792.967041015625
927,794.1758422851562,792.1611938476562,793.7728881835938,794.1758422851562
928,796.1904907226562,793.7728881835938,796.996337890625,792.1611938476562
929,795.3846435546875,796.5933837890625,796.996337890625,792.967041015625
930,790.5494384765625,792.967041015625,794.5787353515625,792.1611938476562
931,793.7728881835938,790.5494384765625,789.3406372070312,790.952392578125
932,794.981689453125,792.1611938476562,787.7289428710938,799.8168334960938
933,799.010986328125,797.8021850585938,792.5640869140625,804.6520385742188
934,801.4285888671875,801.025634765625,789.7435913085938,798.6080322265625
935,796.996337890625,796.1904907226562,788.1318969726562,796.5933837890625
936,794.5787353515625,792.967041015625,789.3406372070312,796.996337890625
937,795.3846435546875,797.3992919921875,790.5494384765625,797.3992919921875
938,796.5933837890625,799.010986328125,796.1904907226562,797.8021850585938
939,796.996337890625,798.6080322265625,796.996337890625,798.6080322265625
940,800.6226806640625,797.3992919921875,796.5933837890625,801.025634765625
941,800.2197875976562,793.3699340820312,800.6226806640625,797.3992919921875
942,796.5933837890625,793.7728881835938,799.010986328125,792.5640869140625
943,799.010986328125,794.5787353515625,792.5640869140625,798.6080322265625
944,805.4578857421875,792.967041015625,790.5494384765625,803.8461303710938
945,806.2637329101562,793.3699340820312,793.3699340820312,800.2197875976562
946,806.2637329101562,793.3699340820312,797.8021850585938,803.4432373046875
947,803.040283203125,796.1904907226562,796.1904907226562,800.2197875976562
948,797.8021850585938,797.8021850585938,795.3846435546875,792.967041015625
949,799.8168334960938,797.3992919921875,798.6080322265625,797.3992919921875
950,800.6226806640625,795.7875366210938,796.996337890625,799.010986328125
951,800.2197875976562,793.7728881835938,792.967041015625,794.981689453125
952,797.3992919921875,790.952392578125,794.5787353515625,794.1758422851562
953,794.5787353515625,790.5494384765625,794.5787353515625,793.7728881835938
954,795.3846435546875,789.7435913085938,791.7582397460938,789.3406372070312
955,798.6080322265625,788.937744140625,794.5787353515625,792.5640869140625
956,804.2490844726562,789.7435913085938,794.1758422851562,793.3699340820312
957,796.1904907226562,789.7435913085938,789.3406372070312,789.7435913085938
958,789.7435913085938,790.5494384765625,790.1465454101562,793.7728881835938
959,794.1758422851562,786.5201416015625,790.5494384765625,797.3992919921875
960,794.5787353515625,787.3259887695312,793.3699340820312,790.1465454101562
961,795.7875366210938,797.8021850585938,799.8168334960938,790.1465454101562
962,798.6080322265625,798.2051391601562,794.5787353515625,794.5787353515625
963,798.6080322265625,792.967041015625,798.6080322265625,794.981689453125
964,796.5933837890625,793.3699340820312,803.4432373046875,794.981689453125
965,797.8021850585938,794.981689453125,798.6080322265625,793.7728881835938
966,801.4285888671875,796.996337890625,803.4432373046875,795.7875366210938
967,796.5933837890625,798.6080322265625,805.4578857421875,797.3992919921875
968,796.1904907226562,799.010986328125,799.4139404296875,792.5640869140625
969,792.967041015625,799.010986328125,797.3992919921875,787.3259887695312
970,786.923095703125,796.1904907226562,798.6080322265625,792.5640869140625
971,789.7435913085938,796.996337890625,800.2197875976562,794.1758422851562
972,796.1904907226562,798.6080322265625,803.040283203125,788.1318969726562
973,791.3552856445312,796.1904907226562,801.025634765625,788.937744140625
974,783.6996459960938,792.967041015625,794.1758422851562,788.5347900390625
975,788.937744140625,792.967041015625,791.7582397460938,785.3113403320312
976,793.7728881835938,795.3846435546875,796.1904907226562,782.4908447265625
977,791.7582397460938,795.3846435546875,795.7875366210938,783.6996459960938
978,785.7142944335938,797.3992919921875,794.981689453125,788.1318969726562
979,788.5347900390625,799.010986328125,798.2051391601562,788.937744140625
980,788.937744140625,796.1904907226562,798.2051391601562,788.937744140625
981,784.908447265625,792.967041015625,795.7875366210938,789.7435913085938
982,786.1171875,794.981689453125,796.5933837890625,791.7582397460938
983,784.5054931640625,796.5933837890625,797.8021850585938,783.6996459960938
984,783.2966918945312,790.952392578125,791.7582397460938,775.2380981445312
985,791.7582397460938,789.3406372070312,791.3552856445312,781.6849975585938
986,794.1758422851562,789.3406372070312,794.981689453125,784.5054931640625
987,788.5347900390625,789.3406372070312,795.7875366210938,773.6264038085938
988,792.1611938476562,791.7582397460938,791.7582397460938,772.8204956054688
989,794.1758422851562,792.1611938476562,789.3406372070312,778.05859375
990,790.1465454101562,791.7582397460938,788.937744140625,775.6410522460938
991,789.3406372070312,794.1758422851562,789.7435913085938,776.8497924804688
992,788.5347900390625,794.981689453125,792.967041015625,778.8644409179688
993,782.893798828125,791.7582397460938,794.1758422851562,781.6849975585938
994,788.1318969726562,792.967041015625,790.1465454101562,785.7142944335938
995,791.7582397460938,789.3406372070312,790.952392578125,787.7289428710938
996,790.952392578125,783.6996459960938,791.7582397460938,788.1318969726562
997,793.7728881835938,787.3259887695312,789.3406372070312,793.3699340820312
998,788.5347900390625,785.3113403320312,792.967041015625,791.3552856445312
999,787.7289428710938,786.1171875,798.6080322265625,787.3259887695312
1000,787.3259887695312,787.3259887695312,797.8021850585938,790.952392578125
1001,784.908447265625,786.1171875,796.996337890625,793.7728881835938
1002,785.3113403320312,791.7582397460938,794.1758422851562,793.7728881835938
1003,783.2966918945312,796.5933837890625,791.3552856445312,791.3552856445312
1004,788.937744140625,794.5787353515625,789.3406372070312,794.1758422851562
1005,790.952392578125,792.967041015625,792.1611938476562,799.010986328125
1006,788.5347900390625,794.1758422851562,795.7875366210938,796.5933837890625
1007,787.3259887695312,789.3406372070312,792.1611938476562,787.7289428710938
1008,788.1318969726562,791.3552856445312,791.7582397460938,783.2966918945312
1009,791.3552856445312,795.7875366210938,788.5347900390625,783.2966918945312
1010,793.7728881835938,792.5640869140625,783.2966918945312,783.2966918945312
1011,799.010986328125,788.1318969726562,788.5347900390625,785.3113403320312
1012,794.5787353515625,786.1171875,794.1758422851562,787.7289428710938
1013,786.5201416015625,789.3406372070312,792.5640869140625,787.7289428710938
1014,787.3259887695312,792.967041015625,791.3552856445312,786.923095703125
1015,787.7289428710938,793.3699340820312,787.7289428710938,784.908447265625
1016,792.1611938476562,795.7875366210938,787.7289428710938,786.923095703125
1017,791.7582397460938,795.3846435546875,789.3406372070312,783.6996459960938
1018,791.3552856445312,791.3552856445312,786.1171875,778.05859375
1019,788.1318969726562,794.5787353515625,784.5054931640625,777.6557006835938
1020,786.5201416015625,799.010986328125,786.5201416015625,778.8644409179688
1021,788.1318969726562,797.3992919921875,790.5494384765625,780.879150390625
1022,784.908447265625,792.5640869140625,792.5640869140625,785.3113403320312
1023,788.937744140625,792.1611938476562,791.7582397460938,791.3552856445312
1024,789.7435913085938,790.952392578125,793.3699340820312,800.2197875976562
1025,787.3259887695312,787.3259887695312,793.7728881835938,803.8461303710938
1026,793.3699340820312,786.1171875,792.967041015625,808.2783813476562
1027,795.7875366210938,788.1318969726562,793.7728881835938,812.3076782226562
1028,797.3992919921875,790.1465454101562,795.3846435546875,810.2930297851562
1029,801.4285888671875,788.5347900390625,798.2051391601562,802.6373901367188
1030,804.6520385742188,791.3552856445312,802.6373901367188,799.010986328125
1031,801.4285888671875,791.7582397460938,803.8461303710938,798.6080322265625
1032,796.1904907226562,786.923095703125,795.3846435546875,790.952392578125
1033,792.5640869140625,786.1171875,794.5787353515625,786.1171875
1034,786.5201416015625,787.7289428710938,797.3992919921875,783.2966918945312
1035,784.908447265625,790.1465454101562,795.7875366210938,784.5054931640625
1036,786.1171875,789.7435913085938,795.3846435546875,785.3113403320312
1037,793.3699340820312,788.5347900390625,788.5347900390625,786.1171875
1038,793.3699340820312,789.7435913085938,785.3113403320312,787.7289428710938
1039,784.5054931640625,788.937744140625,789.7435913085938,792.967041015625
1040,780.0732421875,788.5347900390625,787.7289428710938,791.3552856445312
1041,792.1611938476562,792.5640869140625,788.1318969726562,790.5494384765625
1042,800.2197875976562,794.1758422851562,788.937744140625,792.1611938476562
1043,793.3699340820312,792.5640869140625,788.5347900390625,786.1171875
1044,789.7435913085938,792.967041015625,789.3406372070312,787.7289428710938
1045,791.7582397460938,795.7875366210938,787.3259887695312,794.1758422851562
1046,788.1318969726562,794.5787353515625,784.908447265625,790.5494384765625
1047,787.7289428710938,790.952392578125,788.1318969726562,793.3699340820312
1048,794.1758422851562,792.1611938476562,794.981689453125,800.6226806640625
1049,790.952392578125,796.996337890625,794.5787353515625,797.3992919921875
1050,787.3259887695312,796.1904907226562,790.952392578125,794.1758422851562
1051,789.3406372070312,792.5640869140625,795.3846435546875,798.2051391601562
1052,791.7582397460938,797.3992919921875,797.3992919921875,797.8021850585938
1053,795.7875366210938,802.6373901367188,792.1611938476562,791.7582397460938
1054,796.5933837890625,805.054931640625,793.7728881835938,793.7728881835938
1055,796.5933837890625,806.2637329101562,795.3846435546875,797.8021850585938
1056,801.025634765625,807.069580078125,799.8168334960938,801.8314819335938
1057,798.6080322265625,803.040283203125,799.4139404296875,803.4432373046875
1058,796.996337890625,798.6080322265625,795.7875366210938,803.4432373046875
1059,799.010986328125,799.010986328125,795.3846435546875,801.4285888671875
1060,796.1904907226562,792.5640869140625,794.1758422851562,795.3846435546875
1061,796.996337890625,791.3552856445312,796.996337890625,796.996337890625
1062,796.996337890625,790.952392578125,798.2051391601562,796.5933837890625
1063,791.3552856445312,791.3552856445312,796.996337890625,792.5640869140625
1064,787.7289428710938,795.3846435546875,796.1904907226562,792.5640869140625
1065,786.5201416015625,792.5640869140625,794.1758422851562,786.923095703125
1066,783.6996459960938,794.981689453125,789.3406372070312,790.1465454101562
1067,782.4908447265625,799.4139404296875,788.5347900390625,794.5787353515625
1068,784.5054931640625,794.981689453125,793.7728881835938,790.952392578125
1069,787.3259887695312,791.7582397460938,796.996337890625,792.5640869140625
1070,786.1171875,791.7582397460938,790.952392578125,786.923095703125
1071,787.7289428710938,795.7875366210938,791.7582397460938,786.5201416015625
1072,792.967041015625,801.025634765625,796.996337890625,792.1611938476562
1073,792.967041015625,798.6080322265625,794.981689453125,790.5494384765625
1074,790.5494384765625,796.996337890625,790.5494384765625,792.967041015625
1075,784.1025390625,794.981689453125,791.7582397460938,789.7435913085938
1076,784.5054931640625,793.7728881835938,794.1758422851562,781.6849975585938
1077,790.5494384765625,794.5787353515625,792.1611938476562,786.5201416015625
1078,796.5933837890625,795.3846435546875,794.1758422851562,795.3846435546875
1079,796.1904907226562,792.967041015625,796.1904907226562,795.3846435546875
1080,790.5494384765625,786.5201416015625,792.1611938476562,790.1465454101562
1081,790.1465454101562,787.3259887695312,789.3406372070312,784.908447265625
1082,793.3699340820312,790.952392578125,792.967041015625,785.3113403320312
1083,799.010986328125,792.1611938476562,790.5494384765625,783.6996459960938
1084,801.4285888671875,797.3992919921875,790.952392578125,776.8497924804688
1085,802.2344360351562,796.1904907226562,797.8021850585938,786.5201416015625
1086,794.5787353515625,786.5201416015625,795.3846435546875,790.5494384765625
1087,784.5054931640625,786.5201416015625,790.1465454101562,783.6996459960938
1088,788.5347900390625,792.1611938476562,792.1611938476562,789.7435913085938
1089,792.967041015625,793.7728881835938,792.1611938476562,797.8021850585938
1090,783.6996459960938,792.967041015625,792.1611938476562,797.8021850585938
1091,774.8351440429688,789.3406372070312,790.1465454101562,792.1611938476562
1092,780.0732421875,790.1465454101562,784.5054931640625,786.1171875
1093,784.908447265625,792.967041015625,786.5201416015625,787.7289428710938
1094,782.4908447265625,790.1465454101562,787.3259887695312,788.1318969726562
1095,779.2673950195312,787.7289428710938,787.3259887695312,783.2966918945312
1096,780.4761962890625,789.7435913085938,788.937744140625,787.7289428710938
1097,792.967041015625,792.967041015625,788.5347900390625,799.8168334960938
1098,799.010986328125,796.1904907226562,786.923095703125,802.2344360351562
1099,799.4139404296875,797.8021850585938,792.5640869140625,797.3992919921875
1100,805.8607788085938,797.3992919921875,791.7582397460938,795.3846435546875
1101,805.4578857421875,795.3846435546875,785.7142944335938,801.025634765625
1102,800.6226806640625,791.3552856445312,789.7435913085938,800.6226806640625
1103,801.4285888671875,792.967041015625,788.937744140625,795.3846435546875
1104,804.2490844726562,796.5933837890625,784.1025390625,797.8021850585938
1105,804.2490844726562,796.5933837890625,786.5201416015625,800.6226806640625
1106,801.4285888671875,792.967041015625,789.3406372070312,799.010986328125
1107,796.996337890625,790.952392578125,787.7289428710938,791.3552856445312
1108,795.3846435546875,790.952392578125,788.1318969726562,789.7435913085938
1109,797.3992919921875,791.7582397460938,791.3552856445312,799.8168334960938
1110,792.1611938476562,790.5494384765625,792.1611938476562,794.981689453125
1111,792.1611938476562,786.1171875,794.1758422851562,787.7289428710938
1112,795.7875366210938,780.879150390625,795.3846435546875,800.2197875976562
1113,797.8021850585938,780.879150390625,798.2051391601562,813.5164794921875
1114,802.2344360351562,788.937744140625,802.6373901367188,813.5164794921875
1115,796.1904907226562,795.7875366210938,799.4139404296875,803.8461303710938
1116,783.6996459960938,798.2051391601562,796.996337890625,791.7582397460938
1117,786.1171875,792.5640869140625,794.5787353515625,792.1611938476562
1118,799.4139404296875,788.1318969726562,792.967041015625,797.8021850585938
1119,802.2344360351562,792.1611938476562,794.5787353515625,797.8021850585938
1120,799.010986328125,799.4139404296875,796.1904907226562,797.3992919921875
1121,796.1904907226562,798.6080322265625,795.7875366210938,796.1904907226562
1122,791.7582397460938,792.1611938476562,792.5640869140625,791.7582397460938
1123,792.5640869140625,792.1611938476562,791.7582397460938,791.7582397460938
1124,796.996337890625,793.7728881835938,794.1758422851562,801.025634765625
1125,791.3552856445312,796.1904907226562,790.5494384765625,796.1904907226562
1126,784.1025390625,798.6080322265625,788.5347900390625,787.7289428710938
1127,789.3406372070312,798.2051391601562,789.7435913085938,789.3406372070312
1128,792.5640869140625,801.8314819335938,785.7142944335938,786.1171875
1129,792.967041015625,797.8021850585938,784.5054931640625,783.2966918945312
1130,797.3992919921875,794.981689453125,787.3259887695312,791.7582397460938
1131,797.3992919921875,796.1904907226562,790.1465454101562,798.6080322265625
1132,795.3846435546875,793.7728881835938,792.967041015625,802.2344360351562
1133,797.8021850585938,789.7435913085938,796.1904907226562,806.6666870117188
1134,802.2344360351562,790.5494384765625,793.3699340820312,801.025634765625
1135,799.4139404296875,796.1904907226562,792.1611938476562,794.981689453125
1136,791.7582397460938,795.7875366210938,793.3699340820312,793.7728881835938
1137,794.5787353515625,795.7875366210938,795.3846435546875,792.5640869140625
1138,798.6080322265625,795.3846435546875,797.3992919921875,792.967041015625
1139,802.2344360351562,801.4285888671875,797.8021850585938,794.981689453125
1140,799.4139404296875,801.4285888671875,796.5933837890625,792.967041015625
1141,793.3699340820312,793.7728881835938,790.952392578125,786.923095703125
1142,789.7435913085938,790.5494384765625,788.1318969726562,779.6703491210938
1143,784.908447265625,787.3259887695312,791.7582397460938,773.2234497070312
1144,792.967041015625,786.1171875,793.7728881835938,786.5201416015625
1145,798.6080322265625,786.1171875,792.1611938476562,790.5494384765625
1146,794.1758422851562,784.5054931640625,786.5201416015625,781.2820434570312
1147,792.5640869140625,787.3259887695312,787.3259887695312,778.05859375
1148,795.3846435546875,790.5494384765625,791.3552856445312,782.087890625
1149,796.5933837890625,789.3406372070312,796.1904907226562,792.5640869140625
1150,795.3846435546875,788.5347900390625,796.5933837890625,793.3699340820312
1151,790.5494384765625,792.5640869140625,792.967041015625,792.967041015625
1152,784.1025390625,797.8021850585938,796.5933837890625,790.952392578125
1153,781.2820434570312,797.8021850585938,799.4139404296875,791.7582397460938
1154,785.7142944335938,794.5787353515625,799.8168334960938,800.6226806640625
1155,797.3992919921875,793.3699340820312,803.8461303710938,806.2637329101562
1156,801.8314819335938,790.952392578125,807.4725341796875,803.4432373046875
1157,792.967041015625,786.5201416015625,801.4285888671875,792.1611938476562
1158,791.7582397460938,780.4761962890625,800.6226806640625,796.1904907226562
1159,792.5640869140625,781.6849975585938,803.040283203125,805.8607788085938
1160,790.952392578125,788.5347900390625,807.069580078125,800.2197875976562
1161,792.1611938476562,798.2051391601562,808.2783813476562,796.996337890625
1162,789.3406372070312,799.8168334960938,807.069580078125,798.2051391601562
1163,780.4761962890625,791.7582397460938,804.6520385742188,789.3406372070312
1164,783.2966918945312,795.3846435546875,800.2197875976562,791.7582397460938
1165,788.937744140625,794.1758422851562,797.3992919921875,792.1611938476562
1166,784.1025390625,789.7435913085938,798.6080322265625,780.4761962890625
1167,782.087890625,793.3699340820312,796.996337890625,778.8644409179688
1168,780.4761962890625,791.7582397460938,792.967041015625,783.6996459960938
1169,782.893798828125,789.7435913085938,788.5347900390625,784.908447265625
1170,784.908447265625,791.7582397460938,791.3552856445312,789.3406372070312
1171,787.3259887695312,795.3846435546875,798.6080322265625,791.7582397460938
1172,789.3406372070312,794.5787353515625,799.8168334960938,785.3113403320312
1173,785.3113403320312,792.1611938476562,800.2197875976562,779.6703491210938
1174,788.5347900390625,792.5640869140625,797.8021850585938,780.879150390625
1175,792.5640869140625,794.5787353515625,801.025634765625,786.5201416015625
1176,793.7728881835938,794.5787353515625,807.069580078125,792.967041015625
1177,793.3699340820312,790.5494384765625,805.8607788085938,787.7289428710938
1178,791.3552856445312,794.981689453125,807.069580078125,787.7289428710938
1179,791.7582397460938,799.8168334960938,805.4578857421875,792.5640869140625
1180,791.7582397460938,799.4139404296875,801.4285888671875,792.1611938476562
1181,789.7435913085938,795.7875366210938,803.8461303710938,795.7875366210938
1182,782.4908447265625,791.3552856445312,801.8314819335938,788.937744140625
1183,777.6557006835938,790.952392578125,796.996337890625,783.6996459960938
1184,784.908447265625,793.3699340820312,798.2051391601562,791.7582397460938
1185,787.7289428710938,792.1611938476562,801.8314819335938,792.967041015625
1186,787.3259887695312,790.952392578125,803.040283203125,792.967041015625
1187,785.3113403320312,788.937744140625,800.2197875976562,793.3699340820312
1188,778.4615478515625,790.952392578125,801.8314819335938,790.1465454101562
1189,781.6849975585938,796.1904907226562,796.996337890625,790.5494384765625
1190,786.1171875,794.981689453125,792.1611938476562,790.952392578125
1191,784.1025390625,789.7435913085938,794.981689453125,790.5494384765625
1192,784.5054931640625,789.7435913085938,798.6080322265625,795.3846435546875
1193,790.5494384765625,795.7875366210938,801.025634765625,806.6666870117188
1194,795.7875366210938,794.981689453125,801.4285888671875,802.6373901367188
1195,796.1904907226562,794.981689453125,803.8461303710938,793.7728881835938
1196,795.7875366210938,799.010986328125,804.6520385742188,801.4285888671875
1197,791.7582397460938,799.8168334960938,801.025634765625,799.010986328125
1198,794.1758422851562,799.010986328125,800.2197875976562,790.952392578125
1199,789.7435913085938,795.7875366210938,799.4139404296875,784.5054931640625
1200,790.5494384765625,794.5787353515625,796.1904907226562,789.3406372070312
1201,795.7875366210938,796.1904907226562,798.6080322265625,794.981689453125
1202,792.5640869140625,794.5787353515625,796.5933837890625,782.893798828125
1203,791.3552856445312,796.1904907226562,792.967041015625,781.2820434570312
1204,787.3259887695312,794.5787353515625,796.5933837890625,785.7142944335938
1205,787.3259887695312,790.5494384765625,798.6080322265625,790.1465454101562
1206,790.1465454101562,789.7435913085938,799.010986328125,795.3846435546875
1207,788.1318969726562,790.1465454101562,802.6373901367188,791.7582397460938
1208,782.893798828125,792.1611938476562,802.2344360351562,792.5640869140625
1209,782.087890625,792.967041015625,804.6520385742188,795.7875366210938
1210,791.3552856445312,797.3992919921875,803.040283203125,790.5494384765625
1211,799.4139404296875,800.2197875976562,799.4139404296875,792.967041015625
1212,788.5347900390625,792.967041015625,799.010986328125,796.996337890625
1213,780.0732421875,789.3406372070312,797.8021850585938,792.1611938476562
1214,782.893798828125,789.7435913085938,797.3992919921875,786.1171875
1215,785.3113403320312,785.3113403320312,792.967041015625,787.3259887695312
1216,788.937744140625,783.2966918945312,790.952392578125,792.5640869140625
1217,793.3699340820312,783.6996459960938,792.5640869140625,790.1465454101562
1218,791.7582397460938,785.7142944335938,791.7582397460938,788.1318969726562
1219,790.1465454101562,787.7289428710938,790.5494384765625,790.1465454101562
1220,794.5787353515625,788.5347900390625,791.3552856445312,796.996337890625
1221,792.1611938476562,787.3259887695312,790.1465454101562,795.3846435546875
1222,796.996337890625,788.5347900390625,792.5640869140625,792.1611938476562
1223,799.8168334960938,797.3992919921875,796.5933837890625,795.3846435546875
1224,793.3699340820312,795.7875366210938,801.8314819335938,791.7582397460938
1225,793.7728881835938,794.1758422851562,805.4578857421875,792.5640869140625
1226,794.981689453125,796.1904907226562,806.2637329101562,792.1611938476562
1227,791.3552856445312,792.967041015625,805.4578857421875,797.8021850585938
1228,791.7582397460938,794.1758422851562,799.8168334960938,798.2051391601562
1229,797.3992919921875,794.5787353515625,798.6080322265625,794.5787353515625
1230,796.1904907226562,793.3699340820312,801.025634765625,797.3992919921875
1231,795.7875366210938,796.5933837890625,798.6080322265625,797.3992919921875
1232,798.2051391601562,795.7875366210938,798.2051391601562,799.8168334960938
1233,793.7728881835938,791.7582397460938,800.6226806640625,790.952392578125
1234,790.5494384765625,792.5640869140625,799.8168334960938,784.1025390625
1235,796.1904907226562,798.2051391601562,803.8461303710938,788.1318969726562
1236,795.3846435546875,792.5640869140625,804.2490844726562,790.1465454101562
1237,794.981689453125,792.967041015625,798.2051391601562,795.7875366210938
1238,793.7728881835938,792.967041015625,796.1904907226562,792.967041015625
1239,788.937744140625,788.937744140625,794.5787353515625,788.937744140625
1240,791.7582397460938,788.1318969726562,797.8021850585938,792.1611938476562
1241,798.2051391601562,790.5494384765625,800.2197875976562,795.3846435546875
1242,800.6226806640625,792.967041015625,798.6080322265625,800.6226806640625
1243,797.8021850585938,792.967041015625,794.1758422851562,805.054931640625
1244,790.1465454101562,792.1611938476562,793.7728881835938,794.1758422851562
1245,786.5201416015625,796.1904907226562,794.981689453125,785.3113403320312
1246,784.1025390625,796.5933837890625,795.7875366210938,788.5347900390625
1247,788.937744140625,792.1611938476562,795.7875366210938,791.7582397460938
1248,786.5201416015625,788.1318969726562,793.7728881835938,781.6849975585938
1249,779.2673950195312,786.923095703125,790.952392578125,776.8497924804688
1250,781.6849975585938,787.3259887695312,786.1171875,777.6557006835938
1251,789.7435913085938,783.6996459960938,787.3259887695312,777.6557006835938
1252,795.7875366210938,781.6849975585938,788.1318969726562,782.087890625
1253,792.967041015625,785.3113403320312,790.5494384765625,788.5347900390625
1254,792.5640869140625,790.1465454101562,794.981689453125,794.981689453125
1255,792.5640869140625,788.1318969726562,792.1611938476562,791.7582397460938
1256,793.7728881835938,784.5054931640625,793.7728881835938,790.952392578125
1257,792.1611938476562,783.6996459960938,794.5787353515625,789.3406372070312
1258,795.7875366210938,784.908447265625,792.5640869140625,794.1758422851562
1259,798.6080322265625,788.5347900390625,792.1611938476562,798.6080322265625
1260,792.5640869140625,794.5787353515625,790.952392578125,786.5201416015625
1261,794.5787353515625,794.5787353515625,795.7875366210938,784.1025390625
1262,794.1758422851562,790.5494384765625,796.5933837890625,786.1171875
1263,792.1611938476562,792.1611938476562,792.967041015625,788.5347900390625
1264,792.967041015625,792.5640869140625,791.3552856445312,785.3113403320312
1265,790.1465454101562,790.1465454101562,788.5347900390625,783.2966918945312
1266,792.967041015625,790.1465454101562,788.937744140625,790.952392578125
1267,790.1465454101562,786.923095703125,793.3699340820312,788.5347900390625
1268,782.893798828125,780.4761962890625,790.5494384765625,782.087890625
1269,782.893798828125,782.087890625,790.952392578125,784.908447265625
1270,784.908447265625,793.7728881835938,795.3846435546875,790.952392578125
1271,785.3113403320312,793.3699340820312,796.1904907226562,787.3259887695312
1272,788.5347900390625,788.937744140625,793.3699340820312,787.7289428710938
1273,785.7142944335938,788.937744140625,791.3552856445312,788.1318969726562
1274,787.7289428710938,795.7875366210938,792.1611938476562,788.937744140625
1275,794.1758422851562,794.981689453125,791.7582397460938,788.5347900390625
1276,798.2051391601562,793.3699340820312,794.981689453125,788.1318969726562
1277,802.2344360351562,794.5787353515625,796.996337890625,794.981689453125
1278,791.3552856445312,792.5640869140625,792.5640869140625,789.7435913085938
1279,787.3259887695312,796.1904907226562,793.7728881835938,788.937744140625
1280,790.5494384765625,794.981689453125,798.2051391601562,787.7289428710938
1281,789.3406372070312,793.7728881835938,797.8021850585938,785.3113403320312
1282,796.1904907226562,800.2197875976562,796.996337890625,789.7435913085938
1283,799.010986328125,800.6226806640625,799.4139404296875,785.7142944335938
1284,796.996337890625,803.4432373046875,801.025634765625,790.1465454101562
1285,796.5933837890625,805.8607788085938,801.8314819335938,795.7875366210938
1286,794.981689453125,801.025634765625,803.8461303710938,793.3699340820312
1287,799.4139404296875,802.2344360351562,805.4578857421875,795.7875366210938
1288,799.4139404296875,799.010986328125,802.2344360351562,796.5933837890625
1289,796.5933837890625,795.7875366210938,800.6226806640625,795.7875366210938
1290,796.996337890625,795.3846435546875,803.040283203125,794.1758422851562
1291,792.1611938476562,794.981689453125,800.2197875976562,786.5201416015625
1292,794.1758422851562,792.967041015625,795.3846435546875,790.5494384765625
1293,795.3846435546875,790.1465454101562,796.5933837890625,796.1904907226562
1294,785.3113403320312,790.952392578125,794.5787353515625,784.1025390625
1295,783.2966918945312,796.1904907226562,792.5640869140625,785.7142944335938
1296,783.6996459960938,793.7728881835938,794.981689453125,784.908447265625
1297,786.5201416015625,788.5347900390625,794.5787353515625,784.5054931640625
1298,786.923095703125,793.3699340820312,796.1904907226562,792.5640869140625
1299,786.1171875,795.3846435546875,795.3846435546875,785.7142944335938
1300,788.937744140625,793.7728881835938,792.967041015625,784.1025390625
1301,784.908447265625,791.3552856445312,789.3406372070312,782.087890625
1302,787.7289428710938,788.1318969726562,789.7435913085938,780.879150390625
1303,792.5640869140625,792.1611938476562,791.7582397460938,781.2820434570312
1304,795.7875366210938,796.996337890625,795.7875366210938,793.7728881835938
1305,794.1758422851562,798.6080322265625,794.5787353515625,799.010986328125
1306,793.3699340820312,800.6226806640625,794.1758422851562,790.5494384765625
1307,791.7582397460938,801.025634765625,795.7875366210938,787.7289428710938
1308,789.7435913085938,799.010986328125,789.3406372070312,792.1611938476562
1309,796.1904907226562,798.2051391601562,791.3552856445312,802.2344360351562
1310,794.5787353515625,796.5933837890625,796.1904907226562,796.5933837890625
1311,786.5201416015625,794.1758422851562,790.952392578125,787.3259887695312
1312,785.7142944335938,793.3699340820312,792.1611938476562,792.5640869140625
1313,793.3699340820312,794.5787353515625,796.996337890625,799.4139404296875
1314,793.3699340820312,790.952392578125,795.3846435546875,796.996337890625
1315,786.1171875,786.923095703125,794.981689453125,791.7582397460938
1316,785.7142944335938,792.967041015625,797.8021850585938,798.2051391601562
1317,786.5201416015625,798.6080322265625,797.3992919921875,802.2344360351562
1318,790.952392578125,796.996337890625,794.5787353515625,799.010986328125
1319,793.3699340820312,791.7582397460938,788.1318969726562,793.7728881835938
1320,790.1465454101562,788.5347900390625,785.7142944335938,791.3552856445312
1321,792.1611938476562,789.3406372070312,790.1465454101562,798.2051391601562
1322,796.996337890625,793.3699340820312,796.1904907226562,802.6373901367188
1323,799.010986328125,797.3992919921875,796.996337890625,801.4285888671875
1324,802.2344360351562,801.025634765625,796.1904907226562,799.8168334960938
1325,801.025634765625,796.5933837890625,793.7728881835938,792.5640869140625
1326,796.996337890625,798.2051391601562,794.981689453125,789.3406372070312
1327,796.1904907226562,798.6080322265625,798.6080322265625,798.2051391601562
1328,790.1465454101562,798.2051391601562,796.5933837890625,802.2344360351562
1329,788.1318969726562,803.040283203125,795.7875366210938,794.1758422851562
1330,790.952392578125,799.8168334960938,797.3992919921875,793.7728881835938
1331,788.937744140625,796.5933837890625,799.4139404296875,796.1904907226562
1332,784.1025390625,792.967041015625,800.2197875976562,794.981689453125
1333,781.2820434570312,791.7582397460938,797.8021850585938,788.5347900390625
1334,780.879150390625,789.7435913085938,796.996337890625,777.6557006835938
1335,784.5054931640625,790.1465454101562,796.1904907226562,780.4761962890625
1336,790.5494384765625,794.1758422851562,801.4285888671875,789.3406372070312
1337,792.1611938476562,792.1611938476562,803.040283203125,791.3552856445312
1338,792.967041015625,790.952392578125,798.2051391601562,788.1318969726562
1339,795.7875366210938,786.923095703125,798.6080322265625,786.923095703125
1340,791.3552856445312,789.7435913085938,795.3846435546875,786.5201416015625
1341,783.6996459960938,794.5787353515625,791.7582397460938,787.3259887695312
1342,782.893798828125,794.1758422851562,796.5933837890625,790.5494384765625
1343,781.6849975585938,791.7582397460938,794.1758422851562,785.7142944335938
1344,780.4761962890625,790.1465454101562,794.1758422851562,782.893798828125
1345,781.2820434570312,791.3552856445312,797.3992919921875,782.4908447265625
1346,783.2966918945312,790.1465454101562,796.1904907226562,786.1171875
1347,783.6996459960938,790.1465454101562,789.7435913085938,793.3699340820312
1348,782.893798828125,789.7435913085938,790.1465454101562,784.908447265625
1349,783.2966918945312,790.5494384765625,793.3699340820312,779.2673950195312
1350,786.5201416015625,793.3699340820312,787.3259887695312,782.4908447265625
1351,786.1171875,797.3992919921875,790.952392578125,786.923095703125
1352,789.3406372070312,803.4432373046875,792.1611938476562,787.3259887695312
1353,789.7435913085938,800.2197875976562,789.7435913085938,776.8497924804688
1354,787.3259887695312,796.5933837890625,792.5640869140625,778.8644409179688
1355,789.3406372070312,792.5640869140625,790.1465454101562,784.5054931640625
1356,786.1171875,786.1171875,789.3406372070312,775.6410522460938
1357,782.4908447265625,784.5054931640625,792.1611938476562,769.1941528320312
1358,779.6703491210938,786.923095703125,790.952392578125,770.0
1359,782.893798828125,790.1465454101562,789.7435913085938,779.6703491210938
1360,790.5494384765625,794.1758422851562,792.1611938476562,785.7142944335938
1361,788.937744140625,797.3992919921875,795.7875366210938,782.4908447265625
1362,783.6996459960938,791.7582397460938,795.3846435546875,781.2820434570312
1363,782.087890625,790.5494384765625,790.952392578125,785.7142944335938
1364,782.4908447265625,791.3552856445312,792.5640869140625,790.952392578125
1365,793.3699340820312,790.952392578125,791.7582397460938,795.3846435546875
1366,803.4432373046875,792.1611938476562,796.996337890625,801.025634765625
1367,803.4432373046875,796.996337890625,803.4432373046875,803.040283203125
1368,794.981689453125,801.4285888671875,802.6373901367188,796.996337890625
1369,794.1758422851562,801.025634765625,798.6080322265625,789.7435913085938
1370,800.6226806640625,804.6520385742188,796.996337890625,790.5494384765625
1371,796.996337890625,802.6373901367188,800.6226806640625,791.3552856445312
1372,788.5347900390625,801.025634765625,799.010986328125,790.5494384765625
1373,784.5054931640625,804.2490844726562,795.7875366210938,792.967041015625
1374,788.5347900390625,803.4432373046875,793.7728881835938,798.6080322265625
1375,788.937744140625,803.040283203125,796.1904907226562,795.3846435546875
1376,790.1465454101562,801.025634765625,796.5933837890625,789.7435913085938
1377,792.5640869140625,800.6226806640625,795.7875366210938,794.1758422851562
1378,792.1611938476562,801.8314819335938,796.996337890625,792.5640869140625
1379,792.5640869140625,799.010986328125,801.4285888671875,799.010986328125
1380,794.981689453125,795.7875366210938,801.4285888671875,802.6373901367188
1381,794.5787353515625,792.1611938476562,799.010986328125,798.2051391601562
1382,789.7435913085938,791.7582397460938,797.8021850585938,794.5787353515625
1383,786.923095703125,794.5787353515625,796.996337890625,791.7582397460938
1384,786.923095703125,793.7728881835938,795.3846435546875,791.3552856445312
1385,792.967041015625,790.1465454101562,795.7875366210938,793.3699340820312
1386,794.981689453125,792.1611938476562,796.1904907226562,792.967041015625
1387,792.1611938476562,795.7875366210938,794.5787353515625,792.5640869140625
1388,792.1611938476562,791.7582397460938,795.3846435546875,795.3846435546875
1389,792.967041015625,785.3113403320312,794.981689453125,801.025634765625
1390,792.5640869140625,782.893798828125,794.981689453125,799.4139404296875
1391,795.3846435546875,782.893798828125,791.3552856445312,794.5787353515625
1392,792.5640869140625,787.3259887695312,789.3406372070312,793.3699340820312
1393,792.1611938476562,790.952392578125,794.5787353515625,795.3846435546875
1394,796.1904907226562,792.967041015625,797.3992919921875,795.7875366210938
1395,799.4139404296875,790.5494384765625,796.5933837890625,792.1611938476562
1396,802.6373901367188,791.3552856445312,796.996337890625,794.1758422851562
1397,800.6226806640625,799.010986328125,797.3992919921875,794.5787353515625
1398,800.2197875976562,802.2344360351562,797.3992919921875,795.3846435546875
1399,801.025634765625,801.4285888671875,800.2197875976562,796.1904907226562
1400,799.8168334960938,800.2197875976562,803.4432373046875,798.2051391601562
1401,799.4139404296875,803.4432373046875,801.025634765625,799.010986328125
1402,789.3406372070312,801.8314819335938,796.1904907226562,791.7582397460938
1403,790.952392578125,796.996337890625,796.996337890625,792.967041015625
1404,799.010986328125,798.2051391601562,799.4139404296875,795.3846435546875
1405,792.5640869140625,791.3552856445312,797.3992919921875,792.1611938476562
1406,797.3992919921875,794.5787353515625,799.010986328125,797.8021850585938
1407,794.5787353515625,797.3992919921875,798.6080322265625,798.2051391601562
1408,786.1171875,792.967041015625,795.7875366210938,793.7728881835938
1409,786.923095703125,792.5640869140625,796.1904907226562,794.1758422851562
1410,792.1611938476562,793.3699340820312,801.4285888671875,796.1904907226562
1411,800.2197875976562,792.967041015625,805.4578857421875,794.981689453125
1412,792.1611938476562,787.7289428710938,798.6080322265625,796.5933837890625
1413,787.3259887695312,788.937744140625,796.5933837890625,797.3992919921875
1414,790.5494384765625,791.3552856445312,799.8168334960938,792.5640869140625
1415,793.3699340820312,792.967041015625,799.8168334960938,793.7728881835938
1416,796.5933837890625,797.8021850585938,801.8314819335938,795.7875366210938
1417,792.967041015625,798.6080322265625,800.6226806640625,800.2197875976562
1418,792.5640869140625,795.3846435546875,799.4139404296875,798.6080322265625
1419,794.1758422851562,794.5787353515625,797.3992919921875,796.1904907226562
1420,792.1611938476562,790.952392578125,796.1904907226562,795.3846435546875
1421,790.5494384765625,787.3259887695312,797.3992919921875,790.5494384765625
1422,793.3699340820312,791.7582397460938,799.8168334960938,791.3552856445312
1423,788.937744140625,792.967041015625,804.6520385742188,790.952392578125
1424,784.1025390625,790.952392578125,798.6080322265625,785.3113403320312
1425,787.7289428710938,791.3552856445312,792.967041015625,780.4761962890625
1426,795.7875366210938,793.7728881835938,796.996337890625,782.087890625
1427,799.010986328125,793.3699340820312,799.4139404296875,790.952392578125
1428,790.5494384765625,791.3552856445312,800.6226806640625,790.5494384765625
1429,786.5201416015625,794.5787353515625,799.4139404296875,780.879150390625
1430,788.5347900390625,792.5640869140625,794.981689453125,781.6849975585938
1431,789.3406372070312,788.1318969726562,792.1611938476562,784.908447265625
1432,791.7582397460938,789.3406372070312,794.1758422851562,790.952392578125
1433,785.7142944335938,794.5787353515625,794.981689453125,791.3552856445312
1434,787.7289428710938,799.8168334960938,791.7582397460938,790.5494384765625
1435,790.952392578125,798.2051391601562,792.967041015625,799.4139404296875
1436,785.7142944335938,792.967041015625,796.996337890625,794.5787353515625
1437,782.893798828125,794.981689453125,793.3699340820312,785.3113403320312
1438,778.4615478515625,795.3846435546875,792.5640869140625,785.7142944335938
1439,780.4761962890625,796.1904907226562,802.6373901367188,789.3406372070312
1440,785.7142944335938,796.1904907226562,803.8461303710938,787.7289428710938
1441,793.3699340820312,794.1758422851562,798.6080322265625,786.5201416015625
1442,791.3552856445312,791.7582397460938,799.010986328125,795.3846435546875
1443,788.1318969726562,788.937744140625,797.8021850585938,793.7728881835938
1444,791.3552856445312,791.7582397460938,800.2197875976562,788.937744140625
1445,792.1611938476562,791.7582397460938,799.010986328125,789.3406372070312
1446,790.952392578125,790.952392578125,797.8021850585938,791.7582397460938
1447,792.967041015625,789.3406372070312,802.2344360351562,799.8168334960938
1448,792.5640869140625,789.3406372070312,800.2197875976562,796.1904907226562
1449,788.937744140625,793.7728881835938,798.6080322265625,799.010986328125
1450,790.952392578125,799.4139404296875,800.2197875976562,807.4725341796875
1451,795.3846435546875,801.025634765625,804.6520385742188,807.87548828125
1452,799.4139404296875,796.5933837890625,803.4432373046875,805.4578857421875
1453,793.7728881835938,794.5787353515625,798.6080322265625,791.7582397460938
1454,787.3259887695312,795.7875366210938,799.010986328125,782.893798828125
1455,785.3113403320312,797.8021850585938,800.6226806640625,779.6703491210938
1456,784.5054931640625,796.1904907226562,801.025634765625,777.2527465820312
1457,791.3552856445312,794.981689453125,797.8021850585938,785.3113403320312
1458,801.4285888671875,800.6226806640625,797.3992919921875,790.5494384765625
1459,797.3992919921875,800.6226806640625,793.7728881835938,789.3406372070312
1460,789.7435913085938,795.3846435546875,791.7582397460938,786.1171875
1461,788.1318969726562,789.3406372070312,792.1611938476562,784.5054931640625
1462,790.952392578125,783.6996459960938,790.5494384765625,793.7728881835938
1463,792.967041015625,785.7142944335938,790.5494384765625,793.3699340820312
1464,788.5347900390625,788.5347900390625,792.967041015625,782.4908447265625
1465,786.923095703125,788.5347900390625,794.981689453125,783.6996459960938
1466,788.937744140625,794.981689453125,796.1904907226562,793.3699340820312
1467,790.952392578125,794.1758422851562,799.010986328125,792.5640869140625
1468,794.981689453125,790.952392578125,799.8168334960938,794.5787353515625
1469,793.7728881835938,794.981689453125,805.4578857421875,796.5933837890625
1470,789.7435913085938,795.3846435546875,805.4578857421875,791.3552856445312
1471,795.3846435546875,791.3552856445312,806.2637329101562,793.7728881835938
1472,802.6373901367188,794.5787353515625,805.4578857421875,794.981689453125
1473,799.010986328125,795.7875366210938,801.4285888671875,797.3992919921875
1474,793.3699340820312,793.7728881835938,800.2197875976562,794.981689453125
1475,793.7728881835938,794.981689453125,801.025634765625,786.5201416015625
1476,801.025634765625,796.1904907226562,803.8461303710938,787.7289428710938
1477,799.4139404296875,793.7728881835938,801.4285888671875,791.7582397460938
1478,794.1758422851562,790.952392578125,800.2197875976562,792.967041015625
1479,790.1465454101562,790.5494384765625,800.6226806640625,787.3259887695312
1480,786.1171875,788.5347900390625,804.2490844726562,786.5201416015625
1481,783.6996459960938,786.1171875,802.6373901367188,786.923095703125
1482,785.3113403320312,787.3259887695312,799.8168334960938,784.908447265625
1483,789.7435913085938,794.1758422851562,799.8168334960938,787.3259887695312
1484,787.3259887695312,793.3699340820312,795.3846435546875,790.1465454101562
1485,780.0732421875,791.3552856445312,796.5933837890625,796.996337890625
1486,776.8497924804688,791.7582397460938,803.4432373046875,796.996337890625
1487,783.6996459960938,786.5201416015625,805.4578857421875,788.937744140625
1488,789.7435913085938,788.937744140625,802.6373901367188,790.952392578125
1489,785.3113403320312,789.3406372070312,800.6226806640625,794.1758422851562
1490,781.2820434570312,787.3259887695312,799.8168334960938,789.7435913085938
1491,782.087890625,791.7582397460938,798.2051391601562,787.7289428710938
1492,785.3113403320312,784.908447265625,796.1904907226562,784.908447265625
1493,787.3259887695312,780.0732421875,798.2051391601562,782.4908447265625
1494,787.3259887695312,784.5054931640625,797.3992919921875,786.1171875
1495,791.7582397460938,790.952392578125,796.996337890625,787.7289428710938
1496,793.3699340820312,789.7435913085938,796.1904907226562,788.937744140625
1497,788.5347900390625,785.3113403320312,794.5787353515625,789.7435913085938
1498,785.7142944335938,783.6996459960938,791.7582397460938,783.2966918945312
1499,786.1171875,780.879150390625,789.7435913085938,782.4908447265625
1500,787.3259887695312,783.2966918945312,795.3846435546875,783.6996459960938
1501,783.2966918945312,788.937744140625,798.2051391601562,779.2673950195312
1502,786.5201416015625,791.3552856445312,796.996337890625,784.1025390625
1503,793.3699340820312,796.1904907226562,798.6080322265625,790.1465454101562
1504,786.5201416015625,795.3846435546875,796.996337890625,786.1171875
1505,776.0439453125,790.952392578125,795.7875366210938,785.7142944335938
1506,777.2527465820312,794.5787353515625,793.3699340820312,789.3406372070312
1507,780.4761962890625,797.3992919921875,792.1611938476562,786.923095703125
1508,778.8644409179688,796.1904907226562,795.7875366210938,790.5494384765625
1509,781.6849975585938,792.967041015625,794.981689453125,790.5494384765625
1510,780.879150390625,788.937744140625,792.967041015625,784.908447265625
1511,780.0732421875,789.7435913085938,792.5640869140625,789.3406372070312
1512,784.5054931640625,794.981689453125,793.3699340820312,791.7582397460938
1513,787.3259887695312,793.7728881835938,791.3552856445312,785.7142944335938
1514,796.5933837890625,790.1465454101562,788.937744140625,780.879150390625
1515,794.1758422851562,787.7289428710938,788.937744140625,776.4468994140625
1516,787.3259887695312,789.7435913085938,789.3406372070312,776.8497924804688
1517,799.010986328125,794.5787353515625,792.5640869140625,785.7142944335938
1518,799.4139404296875,794.1758422851562,793.7728881835938,786.5201416015625
1519,793.3699340820312,795.7875366210938,790.5494384765625,790.952392578125
1520,798.6080322265625,797.8021850585938,793.7728881835938,802.2344360351562
1521,802.2344360351562,793.7728881835938,796.996337890625,802.2344360351562
1522,803.040283203125,784.5054931640625,795.7875366210938,799.010986328125
1523,795.7875366210938,785.7142944335938,794.1758422851562,794.981689453125
1524,781.2820434570312,796.5933837890625,789.7435913085938,783.6996459960938
1525,776.4468994140625,796.996337890625,790.952392578125,778.05859375
1526,776.0439453125,797.3992919921875,790.5494384765625,784.5054931640625
1527,777.2527465820312,798.6080322265625,789.7435913085938,788.937744140625
1528,778.8644409179688,797.8021850585938,795.3846435546875,794.5787353515625
1529,778.8644409179688,797.3992919921875,795.7875366210938,799.8168334960938
1530,776.8497924804688,791.3552856445312,793.7728881835938,791.7582397460938
1531,775.2380981445312,792.1611938476562,795.3846435546875,794.1758422851562
1532,772.8204956054688,799.4139404296875,794.5787353515625,793.7728881835938
1533,776.0439453125,796.1904907226562,794.981689453125,784.5054931640625
1534,784.1025390625,791.7582397460938,793.3699340820312,786.1171875
1535,788.937744140625,790.952392578125,793.7728881835938,787.7289428710938
1536,786.1171875,788.1318969726562,793.3699340820312,774.4322509765625
1537,783.6996459960938,787.7289428710938,791.7582397460938,774.4322509765625
1538,784.908447265625,788.937744140625,793.3699340820312,788.5347900390625
1539,786.923095703125,788.937744140625,790.1465454101562,791.3552856445312
1540,786.1171875,787.7289428710938,790.952392578125,788.1318969726562
1541,791.3552856445312,791.3552856445312,793.3699340820312,790.952392578125
1542,794.981689453125,794.981689453125,790.952392578125,799.010986328125
1543,794.981689453125,792.1611938476562,792.1611938476562,799.010986328125
1544,797.8021850585938,788.5347900390625,791.7582397460938,791.3552856445312
1545,795.7875366210938,790.1465454101562,788.937744140625,793.7728881835938
1546,797.3992919921875,793.7728881835938,789.3406372070312,797.8021850585938
1547,799.010986328125,794.1758422851562,789.7435913085938,799.4139404296875
1548,794.1758422851562,794.981689453125,785.7142944335938,796.5933837890625
1549,792.967041015625,788.937744140625,786.923095703125,787.3259887695312
1550,792.5640869140625,786.5201416015625,790.952392578125,784.1025390625
1551,790.1465454101562,790.1465454101562,792.967041015625,792.1611938476562
1552,791.3552856445312,789.7435913085938,796.5933837890625,801.4285888671875
1553,783.2966918945312,786.5201416015625,795.7875366210938,795.3846435546875
1554,776.0439453125,787.7289428710938,792.5640869140625,789.3406372070312
1555,773.6264038085938,788.937744140625,790.5494384765625,784.1025390625
1556,773.6264038085938,784.908447265625,792.967041015625,778.4615478515625
1557,780.0732421875,784.908447265625,798.2051391601562,781.6849975585938
1558,783.6996459960938,788.937744140625,800.6226806640625,780.879150390625
1559,785.7142944335938,790.1465454101562,793.3699340820312,776.0439453125
1560,788.1318969726562,790.5494384765625,788.1318969726562,778.8644409179688
1561,788.5347900390625,788.5347900390625,792.967041015625,783.2966918945312
1562,790.5494384765625,788.1318969726562,796.996337890625,781.6849975585938
1563,791.7582397460938,795.3846435546875,796.996337890625,788.937744140625
1564,792.967041015625,799.8168334960938,794.5787353515625,796.996337890625
1565,795.3846435546875,799.8168334960938,796.5933837890625,798.2051391601562
1566,794.981689453125,797.8021850585938,799.010986328125,801.4285888671875
1567,794.1758422851562,795.7875366210938,796.996337890625,805.4578857421875
1568,796.996337890625,796.1904907226562,796.1904907226562,804.6520385742188
1569,803.8461303710938,796.1904907226562,799.4139404296875,799.8168334960938
1570,806.6666870117188,796.996337890625,800.6226806640625,803.4432373046875
1571,799.010986328125,792.5640869140625,796.5933837890625,799.4139404296875
1572,794.5787353515625,789.7435913085938,791.3552856445312,790.952392578125
1573,796.1904907226562,791.3552856445312,792.5640869140625,792.5640869140625
1574,797.8021850585938,792.5640869140625,794.981689453125,793.7728881835938
1575,796.5933837890625,793.3699340820312,791.7582397460938,790.952392578125
1576,796.1904907226562,793.3699340820312,792.5640869140625,788.1318969726562
1577,791.3552856445312,788.1318969726562,794.1758422851562,791.7582397460938
1578,781.2820434570312,783.6996459960938,785.3113403320312,785.7142944335938
1579,778.8644409179688,778.8644409179688,784.5054931640625,780.0732421875
1580,786.923095703125,783.2966918945312,791.3552856445312,787.7289428710938
1581,792.1611938476562,788.937744140625,791.3552856445312,792.5640869140625
1582,783.2966918945312,785.3113403320312,791.7582397460938,784.1025390625
1583,774.8351440429688,783.2966918945312,796.5933837890625,779.2673950195312
