timestamp,RAW_TP9,RAW_AF7,RAW_AF8,RAW_TP10
1,806.6666870117188,781.6849975585938,787.3259887695312,807.87548828125
2,801.8314819335938,788.1318969726562,787.7289428710938,800.6226806640625
3,797.3992919921875,785.7142944335938,786.1171875,790.952392578125
4,797.8021850585938,782.087890625,786.923095703125,795.7875366210938
5,800.2197875976562,786.5201416015625,786.1171875,801.4285888671875
6,792.5640869140625,786.5201416015625,782.087890625,802.2344360351562
7,791.3552856445312,780.4761962890625,786.923095703125,801.8314819335938
8,797.8021850585938,776.0439453125,788.1318969726562,805.4578857421875
9,799.010986328125,779.6703491210938,791.3552856445312,809.084228515625
10,805.054931640625,789.3406372070312,792.1611938476562,812.3076782226562
11,803.040283203125,798.2051391601562,785.7142944335938,799.010986328125
12,802.2344360351562,802.2344360351562,788.937744140625,790.952392578125
13,800.2197875976562,802.6373901367188,790.5494384765625,799.010986328125
14,795.7875366210938,796.1904907226562,791.3552856445312,802.2344360351562
15,792.1611938476562,788.1318969726562,790.1465454101562,795.7875366210938
16,796.996337890625,787.3259887695312,794.1758422851562,798.2051391601562
17,799.4139404296875,794.1758422851562,796.996337890625,806.2637329101562
18,792.1611938476562,793.3699340820312,796.1904907226562,802.2344360351562
19,796.5933837890625,786.1171875,802.2344360351562,800.2197875976562
20,805.8607788085938,785.3113403320312,800.2197875976562,803.040283203125
21,802.6373901367188,788.937744140625,792.5640869140625,795.3846435546875
22,797.8021850585938,788.5347900390625,791.3552856445312,786.1171875
23,796.996337890625,790.952392578125,790.5494384765625,792.5640869140625
24,800.6226806640625,795.7875366210938,794.5787353515625,807.4725341796875
25,800.2197875976562,790.1465454101562,796.996337890625,803.8461303710938
26,794.5787353515625,784.908447265625,796.996337890625,793.7728881835938
27,788.1318969726562,787.7289428710938,795.3846435546875,794.981689453125
28,790.952392578125,785.3113403320312,792.1611938476562,795.7875366210938
29,794.981689453125,782.893798828125,785.7142944335938,807.87548828125
30,794.1758422851562,794.1758422851562,788.937744140625,804.2490844726562
31,792.1611938476562,794.981689453125,797.8021850585938,798.6080322265625
32,787.3259887695312,789.3406372070312,797.8021850585938,805.4578857421875
33,789.3406372070312,793.3699340820312,798.2051391601562,803.040283203125
34,794.1758422851562,788.937744140625,799.010986328125,796.996337890625
35,788.937744140625,788.5347900390625,792.967041015625,789.7435913085938
36,787.3259887695312,794.1758422851562,789.3406372070312,787.7289428710938
37,794.5787353515625,793.7728881835938,792.5640869140625,786.923095703125
38,795.3846435546875,795.3846435546875,794.5787353515625,791.3552856445312
39,790.5494384765625,792.1611938476562,790.1465454101562,792.5640869140625
40,788.1318969726562,787.7289428710938,788.937744140625,793.7728881835938
41,789.7435913085938,792.5640869140625,794.1758422851562,795.3846435546875
42,787.3259887695312,794.981689453125,794.5787353515625,791.3552856445312
43,784.5054931640625,792.1611938476562,791.7582397460938,797.3992919921875
44,783.6996459960938,786.923095703125,790.5494384765625,798.6080322265625
45,780.4761962890625,787.7289428710938,794.981689453125,794.5787353515625
46,784.1025390625,793.7728881835938,792.1611938476562,791.3552856445312
47,794.1758422851562,789.3406372070312,795.3846435546875,792.1611938476562
48,789.7435913085938,787.3259887695312,797.3992919921875,792.1611938476562
49,784.1025390625,794.1758422851562,793.3699340820312,792.967041015625
50,790.5494384765625,796.996337890625,796.996337890625,795.7875366210938
51,797.3992919921875,795.7875366210938,797.8021850585938,796.5933837890625
52,796.5933837890625,793.3699340820312,796.1904907226562,796.1904907226562
53,790.952392578125,795.3846435546875,796.5933837890625,795.7875366210938
54,786.923095703125,794.1758422851562,795.7875366210938,785.7142944335938
55,792.5640869140625,795.3846435546875,795.3846435546875,788.5347900390625
56,796.5933837890625,797.8021850585938,794.5787353515625,796.5933837890625
57,788.1318969726562,799.4139404296875,792.967041015625,788.1318969726562
58,786.1171875,796.1904907226562,792.1611938476562,786.5201416015625
59,792.967041015625,789.7435913085938,790.5494384765625,794.1758422851562
60,786.1171875,796.5933837890625,787.7289428710938,790.952392578125
61,790.5494384765625,801.8314819335938,793.7728881835938,786.1171875
62,796.996337890625,797.8021850585938,792.967041015625,791.7582397460938
63,791.3552856445312,794.981689453125,788.5347900390625,793.3699340820312
64,786.5201416015625,791.3552856445312,795.7875366210938,787.7289428710938
65,787.3259887695312,790.952392578125,794.1758422851562,786.5201416015625
66,788.937744140625,791.7582397460938,789.3406372070312,789.3406372070312
67,790.5494384765625,789.7435913085938,793.3699340820312,794.981689453125
68,792.967041015625,788.1318969726562,795.3846435546875,788.1318969726562
69,795.3846435546875,788.1318969726562,792.967041015625,781.6849975585938
70,790.5494384765625,785.7142944335938,788.1318969726562,779.2673950195312
71,786.1171875,790.952392578125,786.5201416015625,781.2820434570312
72,790.5494384765625,799.8168334960938,794.5787353515625,786.5201416015625
73,790.5494384765625,798.2051391601562,795.7875366210938,788.5347900390625
74,781.2820434570312,793.7728881835938,793.3699340820312,787.3259887695312
75,780.4761962890625,788.1318969726562,794.5787353515625,785.3113403320312
76,786.923095703125,788.1318969726562,791.7582397460938,785.3113403320312
77,787.3259887695312,796.1904907226562,791.3552856445312,789.7435913085938
78,790.1465454101562,798.2051391601562,794.5787353515625,797.8021850585938
79,789.7435913085938,798.2051391601562,793.7728881835938,797.8021850585938
80,789.7435913085938,796.996337890625,793.3699340820312,785.3113403320312
81,792.5640869140625,790.5494384765625,791.7582397460938,783.2966918945312
82,790.952392578125,796.1904907226562,788.937744140625,787.7289428710938
83,794.981689453125,801.4285888671875,789.7435913085938,784.5054931640625
84,798.6080322265625,798.6080322265625,791.3552856445312,780.879150390625
85,795.7875366210938,801.025634765625,791.3552856445312,780.879150390625
86,790.1465454101562,795.7875366210938,790.952392578125,782.893798828125
87,788.937744140625,790.5494384765625,790.952392578125,781.6849975585938
88,789.3406372070312,793.7728881835938,794.981689453125,783.6996459960938
89,786.1171875,794.5787353515625,793.7728881835938,778.4615478515625
90,784.1025390625,790.5494384765625,786.5201416015625,781.2820434570312
91,780.0732421875,792.1611938476562,787.7289428710938,784.908447265625
92,781.2820434570312,794.981689453125,790.5494384765625,784.1025390625
93,784.908447265625,798.2051391601562,788.5347900390625,792.5640869140625
94,783.2966918945312,796.5933837890625,790.1465454101562,794.981689453125
95,783.6996459960938,793.3699340820312,792.5640869140625,786.923095703125
96,786.1171875,798.2051391601562,788.5347900390625,784.908447265625
97,786.5201416015625,792.5640869140625,791.7582397460938,788.937744140625
98,789.3406372070312,791.3552856445312,794.5787353515625,782.893798828125
99,789.3406372070312,797.3992919921875,790.1465454101562,776.4468994140625
100,784.908447265625,796.5933837890625,787.7289428710938,779.6703491210938
101,780.879150390625,793.3699340820312,788.1318969726562,780.879150390625
102,788.1318969726562,791.7582397460938,792.1611938476562,785.3113403320312
103,791.7582397460938,787.3259887695312,794.5787353515625,786.923095703125
104,792.5640869140625,786.923095703125,789.3406372070312,794.981689453125
105,801.8314819335938,789.7435913085938,787.7289428710938,803.8461303710938
106,797.3992919921875,794.5787353515625,789.3406372070312,800.2197875976562
107,787.3259887695312,795.3846435546875,794.5787353515625,790.952392578125
108,787.7289428710938,791.3552856445312,796.5933837890625,786.5201416015625
109,791.7582397460938,794.1758422851562,790.1465454101562,796.1904907226562
110,788.1318969726562,792.967041015625,788.5347900390625,801.8314819335938
111,786.5201416015625,792.967041015625,794.1758422851562,791.3552856445312
112,790.5494384765625,793.7728881835938,795.3846435546875,790.1465454101562
113,790.952392578125,784.5054931640625,794.1758422851562,798.2051391601562
114,787.7289428710938,785.3113403320312,797.8021850585938,799.010986328125
115,787.7289428710938,787.3259887695312,796.996337890625,797.3992919921875
116,790.5494384765625,789.3406372070312,799.8168334960938,801.025634765625
117,790.5494384765625,793.3699340820312,803.4432373046875,798.2051391601562
118,788.937744140625,800.2197875976562,793.7728881835938,791.3552856445312
119,788.5347900390625,801.4285888671875,793.3699340820312,792.967041015625
120,789.3406372070312,790.952392578125,799.8168334960938,798.2051391601562
121,790.952392578125,793.3699340820312,796.996337890625,791.7582397460938
122,792.967041015625,797.8021850585938,798.6080322265625,786.923095703125
123,794.981689453125,795.7875366210938,801.4285888671875,787.7289428710938
124,797.8021850585938,786.1171875,795.3846435546875,788.1318969726562
125,796.996337890625,785.3113403320312,791.7582397460938,784.908447265625
126,794.5787353515625,790.5494384765625,791.7582397460938,788.1318969726562
127,792.1611938476562,788.1318969726562,792.1611938476562,790.5494384765625
128,792.1611938476562,788.937744140625,791.3552856445312,786.923095703125
129,788.937744140625,792.967041015625,794.1758422851562,791.7582397460938
130,786.5201416015625,789.7435913085938,794.5787353515625,797.3992919921875
131,791.3552856445312,786.5201416015625,792.1611938476562,793.7728881835938
132,798.2051391601562,787.3259887695312,787.7289428710938,799.010986328125
133,790.952392578125,795.3846435546875,789.7435913085938,809.084228515625
134,786.1171875,798.2051391601562,792.967041015625,799.010986328125
135,790.1465454101562,790.952392578125,792.967041015625,796.996337890625
136,791.7582397460938,794.5787353515625,792.967041015625,803.4432373046875
137,796.1904907226562,794.1758422851562,796.996337890625,803.4432373046875
138,796.5933837890625,791.7582397460938,796.996337890625,800.2197875976562
139,795.3846435546875,797.8021850585938,792.1611938476562,801.025634765625
140,792.967041015625,794.1758422851562,790.5494384765625,805.054931640625
141,789.3406372070312,790.952392578125,790.952392578125,794.981689453125
142,794.981689453125,795.3846435546875,794.5787353515625,792.967041015625
143,799.010986328125,799.4139404296875,797.3992919921875,797.3992919921875
144,797.8021850585938,801.4285888671875,794.1758422851562,800.6226806640625
145,799.010986328125,801.025634765625,796.1904907226562,799.4139404296875
146,792.5640869140625,803.040283203125,800.2197875976562,798.6080322265625
147,792.967041015625,799.010986328125,799.010986328125,801.8314819335938
148,798.6080322265625,792.1611938476562,795.7875366210938,799.8168334960938
149,784.1025390625,794.1758422851562,792.5640869140625,795.7875366210938
150,784.5054931640625,793.3699340820312,793.3699340820312,794.981689453125
151,790.952392578125,792.5640869140625,788.5347900390625,791.7582397460938
152,789.7435913085938,793.7728881835938,785.3113403320312,784.908447265625
153,794.981689453125,791.3552856445312,791.3552856445312,779.2673950195312
154,791.7582397460938,792.5640869140625,795.7875366210938,780.879150390625
155,789.7435913085938,795.7875366210938,794.981689453125,788.1318969726562
156,795.7875366210938,796.996337890625,795.7875366210938,789.3406372070312
157,796.996337890625,791.7582397460938,799.4139404296875,779.2673950195312
158,794.981689453125,787.3259887695312,801.4285888671875,774.4322509765625
159,793.7728881835938,782.087890625,799.4139404296875,779.2673950195312
160,795.7875366210938,784.908447265625,800.6226806640625,781.6849975585938
161,792.5640869140625,791.3552856445312,802.2344360351562,782.893798828125
162,789.7435913085938,789.7435913085938,799.4139404296875,792.1611938476562
163,796.996337890625,789.7435913085938,794.1758422851562,799.4139404296875
164,797.3992919921875,794.1758422851562,797.3992919921875,796.5933837890625
165,792.5640869140625,795.3846435546875,801.4285888671875,800.2197875976562
166,794.1758422851562,794.5787353515625,800.6226806640625,803.040283203125
167,791.3552856445312,793.7728881835938,793.3699340820312,794.5787353515625
168,788.1318969726562,787.7289428710938,788.5347900390625,786.5201416015625
169,789.7435913085938,785.3113403320312,788.5347900390625,782.4908447265625
170,789.7435913085938,786.5201416015625,783.2966918945312,788.937744140625
171,785.7142944335938,786.923095703125,787.7289428710938,796.1904907226562
172,782.4908447265625,793.7728881835938,790.952392578125,791.3552856445312
173,787.3259887695312,796.996337890625,789.3406372070312,787.7289428710938
174,791.3552856445312,795.7875366210938,792.967041015625,794.981689453125
175,788.1318969726562,793.3699340820312,793.3699340820312,794.981689453125
176,783.6996459960938,794.1758422851562,792.967041015625,786.923095703125
177,792.5640869140625,794.981689453125,792.967041015625,794.981689453125
178,796.5933837890625,790.952392578125,789.3406372070312,792.967041015625
179,793.7728881835938,793.7728881835938,784.5054931640625,782.4908447265625
180,789.3406372070312,798.2051391601562,781.2820434570312,775.6410522460938
181,785.7142944335938,799.8168334960938,782.087890625,767.5823974609375
182,790.5494384765625,797.3992919921875,783.2966918945312,772.8204956054688
183,793.7728881835938,793.3699340820312,787.7289428710938,782.087890625
184,788.5347900390625,795.3846435546875,787.3259887695312,784.1025390625
185,788.1318969726562,793.7728881835938,787.7289428710938,784.908447265625
186,794.1758422851562,791.7582397460938,794.1758422851562,796.996337890625
187,792.5640869140625,794.5787353515625,791.3552856445312,798.6080322265625
188,794.5787353515625,796.1904907226562,790.5494384765625,790.952392578125
189,804.2490844726562,792.967041015625,794.1758422851562,800.2197875976562
190,803.4432373046875,785.7142944335938,791.7582397460938,800.2197875976562
191,796.1904907226562,788.5347900390625,786.1171875,792.1611938476562
192,795.7875366210938,796.1904907226562,785.7142944335938,797.8021850585938
193,792.1611938476562,796.5933837890625,791.7582397460938,800.6226806640625
194,790.952392578125,791.3552856445312,796.1904907226562,792.5640869140625
195,790.952392578125,792.1611938476562,792.967041015625,789.7435913085938
196,790.1465454101562,796.1904907226562,793.3699340820312,790.952392578125
197,790.1465454101562,797.8021850585938,795.3846435546875,794.981689453125
198,783.2966918945312,795.3846435546875,788.5347900390625,796.1904907226562
199,780.879150390625,790.952392578125,784.1025390625,784.1025390625
200,788.1318969726562,788.5347900390625,789.7435913085938,783.6996459960938
201,786.5201416015625,792.5640869140625,792.967041015625,785.3113403320312
202,784.1025390625,796.5933837890625,795.7875366210938,789.7435913085938
203,790.952392578125,793.7728881835938,798.6080322265625,795.7875366210938
204,787.3259887695312,784.908447265625,793.3699340820312,794.981689453125
205,782.4908447265625,786.1171875,789.3406372070312,801.4285888671875
206,779.6703491210938,793.3699340820312,790.952392578125,798.6080322265625
207,778.4615478515625,788.937744140625,793.7728881835938,789.7435913085938
208,784.1025390625,788.937744140625,793.3699340820312,793.7728881835938
209,788.1318969726562,790.952392578125,790.5494384765625,801.4285888671875
210,793.3699340820312,791.3552856445312,794.1758422851562,800.2197875976562
211,795.7875366210938,794.981689453125,794.5787353515625,794.1758422851562
212,789.7435913085938,793.3699340820312,792.1611938476562,791.3552856445312
213,787.7289428710938,795.7875366210938,793.3699340820312,793.3699340820312
214,796.1904907226562,796.5933837890625,790.952392578125,784.908447265625
215,796.1904907226562,792.967041015625,789.3406372070312,782.893798828125
216,791.3552856445312,795.7875366210938,795.3846435546875,794.5787353515625
217,792.1611938476562,803.8461303710938,793.7728881835938,793.7728881835938
218,799.8168334960938,803.4432373046875,792.5640869140625,790.5494384765625
219,796.1904907226562,789.7435913085938,796.1904907226562,795.3846435546875
220,799.010986328125,792.1611938476562,794.981689453125,805.4578857421875
221,799.4139404296875,798.2051391601562,794.1758422851562,807.069580078125
222,787.7289428710938,797.3992919921875,796.5933837890625,796.5933837890625
223,791.7582397460938,799.8168334960938,796.1904907226562,795.7875366210938
224,794.981689453125,796.5933837890625,792.967041015625,790.952392578125
225,794.981689453125,796.1904907226562,793.3699340820312,791.3552856445312
226,792.1611938476562,792.967041015625,792.5640869140625,795.7875366210938
227,782.893798828125,788.5347900390625,791.7582397460938,787.7289428710938
228,786.1171875,792.967041015625,790.952392578125,795.7875366210938
229,789.7435913085938,794.981689453125,790.952392578125,801.8314819335938
230,790.1465454101562,791.3552856445312,794.981689453125,793.3699340820312
231,794.981689453125,784.908447265625,799.4139404296875,796.1904907226562
232,794.5787353515625,786.5201416015625,796.996337890625,799.8168334960938
233,791.3552856445312,797.8021850585938,796.1904907226562,788.5347900390625
234,796.5933837890625,802.6373901367188,798.6080322265625,788.5347900390625
235,797.8021850585938,796.996337890625,797.3992919921875,786.5201416015625
236,796.5933837890625,791.3552856445312,793.7728881835938,782.4908447265625
237,797.3992919921875,799.010986328125,790.1465454101562,786.5201416015625
238,787.3259887695312,801.4285888671875,790.5494384765625,788.1318969726562
239,786.1171875,795.7875366210938,795.7875366210938,790.1465454101562
240,793.3699340820312,794.5787353515625,799.4139404296875,793.3699340820312
241,789.7435913085938,796.1904907226562,799.010986328125,792.967041015625
242,787.3259887695312,796.5933837890625,799.010986328125,793.7728881835938
243,786.923095703125,784.908447265625,800.2197875976562,799.4139404296875
244,790.1465454101562,780.4761962890625,800.2197875976562,804.2490844726562
245,792.967041015625,796.1904907226562,796.5933837890625,792.5640869140625
246,792.5640869140625,801.4285888671875,790.952392578125,788.1318969726562
247,790.952392578125,794.1758422851562,796.1904907226562,794.1758422851562
248,785.7142944335938,794.1758422851562,799.010986328125,793.7728881835938
249,781.6849975585938,795.3846435546875,795.3846435546875,793.7728881835938
250,787.3259887695312,794.981689453125,796.5933837890625,794.1758422851562
251,788.5347900390625,794.981689453125,797.3992919921875,791.3552856445312
252,793.7728881835938,794.5787353515625,796.1904907226562,792.5640869140625
253,797.8021850585938,793.3699340820312,792.967041015625,792.5640869140625
254,784.908447265625,796.996337890625,791.3552856445312,783.6996459960938
255,776.8497924804688,797.3992919921875,788.1318969726562,776.8497924804688
256,781.6849975585938,799.010986328125,787.7289428710938,782.087890625
257,790.952392578125,797.8021850585938,794.1758422851562,788.937744140625
258,788.5347900390625,792.967041015625,789.7435913085938,787.3259887695312
259,788.5347900390625,794.5787353515625,788.937744140625,793.3699340820312
260,795.3846435546875,798.6080322265625,793.7728881835938,796.5933837890625
261,794.5787353515625,803.4432373046875,795.7875366210938,792.5640869140625
262,794.1758422851562,806.2637329101562,803.8461303710938,787.3259887695312
263,791.3552856445312,803.4432373046875,801.4285888671875,784.908447265625
264,789.3406372070312,801.8314819335938,796.996337890625,786.1171875
265,792.967041015625,800.6226806640625,801.025634765625,789.7435913085938
266,792.1611938476562,796.996337890625,798.2051391601562,789.7435913085938
267,794.5787353515625,794.981689453125,795.3846435546875,792.1611938476562
268,796.1904907226562,790.5494384765625,799.8168334960938,796.5933837890625
269,795.7875366210938,794.5787353515625,798.6080322265625,794.981689453125
270,796.1904907226562,804.6520385742188,789.3406372070312,799.010986328125
271,791.7582397460938,801.025634765625,787.3259887695312,800.6226806640625
272,787.3259887695312,796.996337890625,791.3552856445312,795.3846435546875
273,787.7289428710938,795.7875366210938,791.7582397460938,791.3552856445312
274,792.1611938476562,793.7728881835938,794.1758422851562,792.5640869140625
275,794.1758422851562,792.5640869140625,800.6226806640625,792.1611938476562
276,793.3699340820312,788.1318969726562,801.025634765625,785.7142944335938
277,791.3552856445312,788.937744140625,794.981689453125,782.4908447265625
278,790.1465454101562,794.1758422851562,789.7435913085938,780.879150390625
279,795.3846435546875,790.1465454101562,792.967041015625,786.5201416015625
280,799.8168334960938,782.893798828125,799.010986328125,789.3406372070312
281,799.010986328125,790.1465454101562,793.3699340820312,786.1171875
282,794.1758422851562,797.8021850585938,786.5201416015625,791.3552856445312
283,793.7728881835938,794.5787353515625,790.5494384765625,794.981689453125
284,794.5787353515625,794.1758422851562,798.2051391601562,794.981689453125
285,791.3552856445312,793.3699340820312,794.1758422851562,795.7875366210938
286,796.5933837890625,793.7728881835938,792.967041015625,801.8314819335938
287,803.4432373046875,793.3699340820312,800.2197875976562,801.8314819335938
288,798.2051391601562,787.3259887695312,801.025634765625,796.1904907226562
289,793.7728881835938,786.923095703125,799.010986328125,796.996337890625
290,794.981689453125,789.7435913085938,793.7728881835938,805.054931640625
291,796.1904907226562,786.5201416015625,792.967041015625,806.6666870117188
292,799.010986328125,784.1025390625,795.3846435546875,797.3992919921875
293,795.3846435546875,787.3259887695312,788.937744140625,794.1758422851562
294,788.5347900390625,792.967041015625,787.3259887695312,802.2344360351562
295,787.3259887695312,789.7435913085938,792.967041015625,791.3552856445312
296,789.3406372070312,784.1025390625,790.5494384765625,788.5347900390625
297,798.6080322265625,790.952392578125,793.3699340820312,807.87548828125
298,798.6080322265625,794.5787353515625,794.981689453125,815.93408203125
299,792.1611938476562,791.7582397460938,788.937744140625,803.8461303710938
300,795.7875366210938,792.5640869140625,790.1465454101562,792.5640869140625
301,794.1758422851562,798.2051391601562,792.967041015625,789.7435913085938
302,788.937744140625,798.6080322265625,792.1611938476562,791.7582397460938
303,788.5347900390625,796.5933837890625,784.1025390625,785.3113403320312
304,790.5494384765625,795.7875366210938,786.1171875,783.6996459960938
305,791.7582397460938,787.3259887695312,791.3552856445312,795.3846435546875
306,793.7728881835938,792.967041015625,793.3699340820312,796.5933837890625
307,799.8168334960938,803.4432373046875,793.7728881835938,790.5494384765625
308,805.8607788085938,798.6080322265625,791.7582397460938,790.5494384765625
309,804.2490844726562,795.3846435546875,791.7582397460938,795.7875366210938
310,807.4725341796875,795.7875366210938,792.967041015625,800.6226806640625
311,811.098876953125,789.3406372070312,789.7435913085938,792.967041015625
312,804.6520385742188,787.7289428710938,788.5347900390625,787.7289428710938
313,798.6080322265625,790.952392578125,790.5494384765625,788.1318969726562
314,794.981689453125,791.7582397460938,787.7289428710938,785.3113403320312
315,793.3699340820312,792.967041015625,790.952392578125,783.2966918945312
316,792.967041015625,788.1318969726562,793.7728881835938,784.5054931640625
317,790.952392578125,784.908447265625,794.1758422851562,792.967041015625
318,784.1025390625,783.6996459960938,794.981689453125,792.5640869140625
319,790.952392578125,782.893798828125,793.7728881835938,789.7435913085938
320,796.996337890625,792.1611938476562,795.3846435546875,792.967041015625
321,797.8021850585938,797.8021850585938,797.3992919921875,798.2051391601562
322,798.2051391601562,797.8021850585938,793.7728881835938,789.3406372070312
323,796.1904907226562,803.040283203125,792.5640869140625,783.2966918945312
324,796.996337890625,800.6226806640625,794.1758422851562,791.3552856445312
325,795.3846435546875,794.5787353515625,790.952392578125,793.3699340820312
326,788.5347900390625,792.1611938476562,787.3259887695312,786.923095703125
327,794.5787353515625,794.5787353515625,789.3406372070312,793.3699340820312
328,800.2197875976562,798.2051391601562,796.996337890625,810.6959838867188
329,799.8168334960938,798.6080322265625,796.5933837890625,811.90478515625
330,798.6080322265625,803.8461303710938,795.7875366210938,807.069580078125
331,796.5933837890625,799.4139404296875,798.6080322265625,803.040283203125
332,796.5933837890625,791.3552856445312,794.5787353515625,795.3846435546875
333,795.3846435546875,792.967041015625,792.5640869140625,793.3699340820312
334,790.5494384765625,795.3846435546875,790.952392578125,795.3846435546875
335,785.3113403320312,792.967041015625,790.5494384765625,795.3846435546875
336,784.1025390625,789.7435913085938,790.5494384765625,794.5787353515625
337,786.923095703125,796.1904907226562,789.7435913085938,795.7875366210938
338,790.952392578125,800.6226806640625,797.3992919921875,801.025634765625
339,790.5494384765625,794.5787353515625,796.5933837890625,806.2637329101562
340,793.3699340820312,797.3992919921875,787.3259887695312,801.4285888671875
341,794.1758422851562,798.6080322265625,786.923095703125,795.3846435546875
342,792.5640869140625,795.3846435546875,791.3552856445312,791.7582397460938
343,796.5933837890625,791.7582397460938,791.7582397460938,796.996337890625
344,794.1758422851562,792.5640869140625,787.3259887695312,802.2344360351562
345,784.908447265625,797.8021850585938,787.7289428710938,793.3699340820312
346,784.908447265625,801.025634765625,792.1611938476562,794.5787353515625
347,790.5494384765625,795.3846435546875,789.3406372070312,801.025634765625
348,792.967041015625,793.3699340820312,788.937744140625,798.2051391601562
349,799.010986328125,796.5933837890625,799.010986328125,797.8021850585938
350,796.1904907226562,790.952392578125,797.3992919921875,803.4432373046875
351,793.3699340820312,794.5787353515625,793.3699340820312,799.010986328125
352,799.4139404296875,799.8168334960938,791.7582397460938,795.3846435546875
353,796.1904907226562,795.7875366210938,792.1611938476562,796.1904907226562
354,795.3846435546875,790.1465454101562,791.3552856445312,793.7728881835938
355,792.5640869140625,785.3113403320312,788.5347900390625,800.2197875976562
356,786.923095703125,786.1171875,792.5640869140625,805.054931640625
357,790.1465454101562,792.1611938476562,797.3992919921875,800.2197875976562
358,794.1758422851562,793.7728881835938,796.996337890625,800.6226806640625
359,798.2051391601562,799.8168334960938,800.6226806640625,802.6373901367188
360,801.025634765625,798.6080322265625,801.4285888671875,794.1758422851562
361,801.8314819335938,794.5787353515625,801.025634765625,794.5787353515625
362,800.6226806640625,794.5787353515625,804.2490844726562,801.025634765625
363,800.2197875976562,794.5787353515625,806.2637329101562,801.4285888671875
364,802.2344360351562,799.010986328125,801.025634765625,803.8461303710938
365,794.5787353515625,794.1758422851562,795.3846435546875,796.996337890625
366,786.1171875,782.893798828125,794.5787353515625,789.3406372070312
367,787.3259887695312,786.1171875,794.5787353515625,794.5787353515625
368,786.923095703125,794.5787353515625,793.3699340820312,788.1318969726562
369,785.3113403320312,792.5640869140625,787.3259887695312,778.4615478515625
370,785.7142944335938,790.1465454101562,786.1171875,780.879150390625
371,780.4761962890625,793.3699340820312,789.3406372070312,779.6703491210938
372,788.937744140625,797.3992919921875,793.7728881835938,784.5054931640625
373,798.2051391601562,796.996337890625,798.2051391601562,793.3699340820312
374,793.7728881835938,791.3552856445312,798.2051391601562,791.7582397460938
375,789.3406372070312,788.937744140625,797.8021850585938,788.1318969726562
376,786.923095703125,792.5640869140625,794.5787353515625,788.1318969726562
377,787.3259887695312,793.3699340820312,790.1465454101562,789.3406372070312
378,787.7289428710938,792.5640869140625,786.923095703125,787.7289428710938
379,787.7289428710938,795.3846435546875,785.3113403320312,781.6849975585938
380,783.6996459960938,801.025634765625,785.7142944335938,780.4761962890625
381,781.6849975585938,802.2344360351562,782.4908447265625,776.4468994140625
382,780.0732421875,798.2051391601562,786.923095703125,776.0439453125
383,783.2966918945312,798.6080322265625,786.1171875,781.2820434570312
384,781.6849975585938,798.2051391601562,783.6996459960938,782.893798828125
385,780.4761962890625,795.3846435546875,792.967041015625,794.1758422851562
386,793.7728881835938,798.2051391601562,791.7582397460938,801.8314819335938
387,803.040283203125,787.7289428710938,788.1318969726562,803.4432373046875
388,794.1758422851562,790.952392578125,793.7728881835938,792.967041015625
389,780.0732421875,799.8168334960938,798.6080322265625,780.4761962890625
390,777.6557006835938,794.5787353515625,798.2051391601562,786.1171875
391,781.6849975585938,793.3699340820312,793.7728881835938,786.923095703125
392,785.3113403320312,788.1318969726562,788.5347900390625,780.879150390625
393,786.5201416015625,789.3406372070312,789.3406372070312,782.087890625
394,790.5494384765625,792.5640869140625,791.7582397460938,792.1611938476562
395,790.952392578125,789.7435913085938,788.937744140625,794.5787353515625
396,786.923095703125,787.3259887695312,788.937744140625,793.7728881835938
397,784.5054931640625,786.1171875,792.5640869140625,799.010986328125
398,788.5347900390625,785.3113403320312,792.967041015625,796.996337890625
399,791.3552856445312,785.3113403320312,789.7435913085938,792.5640869140625
400,788.1318969726562,784.908447265625,788.1318969726562,790.1465454101562
401,791.3552856445312,786.923095703125,788.1318969726562,793.3699340820312
402,791.3552856445312,791.3552856445312,792.1611938476562,787.3259887695312
403,786.923095703125,789.7435913085938,791.3552856445312,780.879150390625
404,787.3259887695312,790.1465454101562,784.908447265625,782.087890625
405,788.1318969726562,787.7289428710938,784.1025390625,788.1318969726562
406,790.952392578125,784.5054931640625,788.5347900390625,794.1758422851562
407,788.937744140625,783.2966918945312,783.6996459960938,790.5494384765625
408,789.7435913085938,786.5201416015625,784.5054931640625,790.5494384765625
409,791.7582397460938,792.5640869140625,791.3552856445312,791.7582397460938
410,793.3699340820312,792.967041015625,788.1318969726562,793.3699340820312
411,795.7875366210938,788.1318969726562,786.923095703125,790.5494384765625
412,792.967041015625,789.7435913085938,789.3406372070312,787.3259887695312
413,787.3259887695312,786.5201416015625,782.893798828125,792.967041015625
414,787.3259887695312,786.1171875,786.1171875,786.1171875
415,784.5054931640625,790.1465454101562,795.7875366210938,779.6703491210938
416,781.6849975585938,788.937744140625,793.3699340820312,784.1025390625
417,782.087890625,784.5054931640625,788.937744140625,780.879150390625
418,784.1025390625,785.3113403320312,788.937744140625,783.2966918945312
419,787.7289428710938,788.5347900390625,790.952392578125,789.3406372070312
420,791.7582397460938,788.1318969726562,792.5640869140625,803.4432373046875
421,793.7728881835938,793.3699340820312,796.1904907226562,807.069580078125
422,789.3406372070312,794.1758422851562,799.010986328125,798.6080322265625
423,784.5054931640625,792.967041015625,794.981689453125,799.8168334960938
424,782.893798828125,794.5787353515625,790.952392578125,801.8314819335938
425,786.1171875,795.7875366210938,793.7728881835938,795.3846435546875
426,790.5494384765625,799.8168334960938,799.010986328125,793.7728881835938
427,786.923095703125,794.1758422851562,795.7875366210938,796.996337890625
428,781.2820434570312,785.7142944335938,792.1611938476562,794.981689453125
429,777.6557006835938,788.937744140625,794.1758422851562,790.5494384765625
430,782.893798828125,786.5201416015625,796.1904907226562,787.3259887695312
431,791.3552856445312,791.7582397460938,800.6226806640625,794.1758422851562
432,790.952392578125,799.8168334960938,798.6080322265625,796.5933837890625
433,790.952392578125,799.010986328125,797.3992919921875,797.3992919921875
434,793.7728881835938,797.8021850585938,802.2344360351562,800.6226806640625
435,786.1171875,794.981689453125,794.981689453125,801.8314819335938
436,775.6410522460938,796.1904907226562,790.952392578125,799.8168334960938
437,778.4615478515625,800.2197875976562,789.7435913085938,792.967041015625
438,782.893798828125,794.981689453125,792.967041015625,790.1465454101562
439,790.5494384765625,793.3699340820312,797.8021850585938,796.1904907226562
440,795.3846435546875,799.010986328125,799.4139404296875,794.5787353515625
441,794.981689453125,803.8461303710938,799.8168334960938,785.7142944335938
442,796.1904907226562,802.6373901367188,798.6080322265625,788.1318969726562
443,796.996337890625,799.4139404296875,796.996337890625,794.5787353515625
444,801.8314819335938,794.1758422851562,793.7728881835938,797.8021850585938
445,804.6520385742188,793.3699340820312,795.3846435546875,800.6226806640625
446,792.5640869140625,797.8021850585938,795.3846435546875,796.1904907226562
447,781.2820434570312,796.1904907226562,790.952392578125,790.952392578125
448,780.4761962890625,792.5640869140625,792.5640869140625,791.3552856445312
449,785.7142944335938,792.5640869140625,797.3992919921875,794.5787353515625
450,786.1171875,794.5787353515625,794.981689453125,796.996337890625
451,787.3259887695312,801.025634765625,795.3846435546875,805.054931640625
452,786.5201416015625,801.4285888671875,795.3846435546875,799.010986328125
453,788.937744140625,798.6080322265625,794.5787353515625,788.5347900390625
454,791.3552856445312,796.1904907226562,795.3846435546875,789.7435913085938
455,787.7289428710938,796.1904907226562,795.7875366210938,792.967041015625
456,788.5347900390625,797.3992919921875,794.981689453125,787.3259887695312
457,793.3699340820312,797.3992919921875,792.5640869140625,783.6996459960938
458,792.1611938476562,798.6080322265625,793.3699340820312,782.893798828125
459,790.1465454101562,799.010986328125,795.3846435546875,778.4615478515625
460,789.3406372070312,793.3699340820312,794.1758422851562,782.087890625
461,785.3113403320312,794.1758422851562,793.3699340820312,788.937744140625
462,790.5494384765625,796.1904907226562,798.2051391601562,798.2051391601562
463,796.5933837890625,791.3552856445312,800.6226806640625,810.6959838867188
464,794.981689453125,796.5933837890625,799.8168334960938,812.7106323242188
465,796.996337890625,800.2197875976562,802.6373901367188,809.89013671875
466,794.981689453125,797.3992919921875,803.040283203125,803.040283203125
467,794.5787353515625,795.7875366210938,798.6080322265625,801.025634765625
468,796.1904907226562,794.5787353515625,799.010986328125,799.010986328125
469,792.1611938476562,790.952392578125,801.8314819335938,800.2197875976562
470,795.7875366210938,785.3113403320312,797.3992919921875,804.6520385742188
471,801.025634765625,789.3406372070312,800.2197875976562,809.89013671875
472,793.7728881835938,799.8168334960938,800.6226806640625,812.3076782226562
473,791.3552856445312,799.8168334960938,800.6226806640625,809.4871826171875
474,801.025634765625,797.8021850585938,801.4285888671875,808.6813354492188
475,799.4139404296875,800.2197875976562,801.4285888671875,805.8607788085938
476,788.5347900390625,800.2197875976562,798.2051391601562,797.3992919921875
477,790.952392578125,797.8021850585938,793.7728881835938,791.3552856445312
478,794.5787353515625,793.3699340820312,792.5640869140625,788.937744140625
479,789.7435913085938,792.5640869140625,791.3552856445312,780.879150390625
480,790.1465454101562,793.7728881835938,793.3699340820312,782.087890625
481,792.967041015625,792.1611938476562,795.3846435546875,787.3259887695312
482,788.1318969726562,793.3699340820312,792.967041015625,780.879150390625
483,789.3406372070312,797.8021850585938,787.7289428710938,788.937744140625
484,790.1465454101562,793.3699340820312,789.7435913085938,792.5640869140625
485,788.937744140625,792.967041015625,793.3699340820312,789.3406372070312
486,791.7582397460938,796.1904907226562,791.3552856445312,792.967041015625
487,787.3259887695312,791.3552856445312,792.5640869140625,794.5787353515625
488,790.5494384765625,791.7582397460938,790.952392578125,794.1758422851562
489,796.5933837890625,797.3992919921875,786.1171875,796.1904907226562
490,791.3552856445312,796.5933837890625,788.5347900390625,792.5640869140625
491,790.5494384765625,793.3699340820312,793.7728881835938,788.1318969726562
492,796.5933837890625,789.3406372070312,789.7435913085938,795.7875366210938
493,796.5933837890625,788.1318969726562,782.893798828125,805.4578857421875
494,799.4139404296875,790.1465454101562,790.952392578125,814.7252807617188
495,799.4139404296875,794.981689453125,800.2197875976562,810.2930297851562
496,798.6080322265625,792.967041015625,798.6080322265625,808.2783813476562
497,799.010986328125,782.893798828125,796.996337890625,820.3662719726562
498,797.3992919921875,793.3699340820312,796.996337890625,815.93408203125
499,793.7728881835938,797.8021850585938,800.6226806640625,801.025634765625
500,786.1171875,788.937744140625,794.981689453125,795.7875366210938
501,788.1318969726562,791.3552856445312,791.3552856445312,800.6226806640625
502,788.1318969726562,787.3259887695312,791.3552856445312,796.1904907226562
503,786.5201416015625,788.937744140625,792.967041015625,790.1465454101562
504,793.7728881835938,796.1904907226562,791.7582397460938,792.1611938476562
505,789.7435913085938,787.7289428710938,786.1171875,785.3113403320312
506,792.1611938476562,782.893798828125,790.5494384765625,785.3113403320312
507,802.2344360351562,789.3406372070312,790.952392578125,793.3699340820312
508,802.6373901367188,790.1465454101562,787.3259887695312,789.3406372070312
509,798.2051391601562,791.3552856445312,791.3552856445312,789.3406372070312
510,792.1611938476562,792.1611938476562,794.981689453125,789.3406372070312
511,793.3699340820312,787.3259887695312,791.3552856445312,794.981689453125
512,796.1904907226562,786.5201416015625,794.981689453125,804.6520385742188
513,794.1758422851562,786.5201416015625,800.6226806640625,805.054931640625
514,792.967041015625,788.1318969726562,795.7875366210938,799.010986328125
515,792.967041015625,792.1611938476562,792.1611938476562,793.3699340820312
516,796.996337890625,791.7582397460938,792.5640869140625,794.1758422851562
517,797.8021850585938,789.7435913085938,796.996337890625,805.054931640625
518,795.7875366210938,795.3846435546875,805.4578857421875,803.8461303710938
519,795.3846435546875,795.3846435546875,801.025634765625,792.967041015625
520,788.1318969726562,787.7289428710938,796.5933837890625,794.5787353515625
521,783.2966918945312,790.952392578125,798.6080322265625,793.3699340820312
522,784.5054931640625,791.3552856445312,797.3992919921875,788.5347900390625
523,786.923095703125,788.1318969726562,796.1904907226562,789.3406372070312
524,786.5201416015625,791.3552856445312,793.7728881835938,782.893798828125
525,784.908447265625,788.5347900390625,791.3552856445312,780.879150390625
526,782.893798828125,790.5494384765625,793.3699340820312,777.6557006835938
527,783.2966918945312,793.3699340820312,788.5347900390625,780.0732421875
528,784.908447265625,792.967041015625,788.1318969726562,786.5201416015625
529,784.5054931640625,790.5494384765625,794.5787353515625,778.8644409179688
530,782.893798828125,788.937744140625,790.1465454101562,780.0732421875
531,781.6849975585938,785.3113403320312,788.937744140625,787.7289428710938
532,782.087890625,785.7142944335938,792.967041015625,782.893798828125
533,779.6703491210938,792.5640869140625,794.981689453125,781.2820434570312
534,776.8497924804688,790.5494384765625,793.3699340820312,784.5054931640625
535,780.879150390625,789.7435913085938,797.8021850585938,786.923095703125
536,780.879150390625,792.1611938476562,800.6226806640625,784.5054931640625
537,776.8497924804688,790.5494384765625,797.3992919921875,780.4761962890625
538,783.6996459960938,790.952392578125,791.7582397460938,790.5494384765625
539,796.996337890625,797.3992919921875,790.5494384765625,804.2490844726562
540,790.952392578125,796.5933837890625,793.7728881835938,795.3846435546875
541,782.087890625,790.952392578125,799.8168334960938,785.3113403320312
542,788.1318969726562,796.5933837890625,803.040283203125,797.3992919921875
543,792.967041015625,795.3846435546875,797.3992919921875,805.4578857421875
544,787.7289428710938,789.3406372070312,793.3699340820312,799.4139404296875
545,786.1171875,792.967041015625,792.5640869140625,790.952392578125
546,792.5640869140625,794.1758422851562,796.5933837890625,790.1465454101562
547,795.3846435546875,786.923095703125,798.2051391601562,794.5787353515625
548,790.1465454101562,790.952392578125,795.7875366210938,793.7728881835938
549,788.937744140625,797.3992919921875,794.1758422851562,790.952392578125
550,787.7289428710938,791.7582397460938,797.3992919921875,795.3846435546875
551,785.7142944335938,785.7142944335938,797.8021850585938,797.8021850585938
552,780.0732421875,788.937744140625,791.3552856445312,789.7435913085938
553,787.7289428710938,792.5640869140625,792.1611938476562,786.923095703125
554,796.1904907226562,790.952392578125,793.7728881835938,791.7582397460938
555,791.7582397460938,784.5054931640625,793.3699340820312,789.7435913085938
556,788.937744140625,787.3259887695312,794.981689453125,788.1318969726562
557,788.937744140625,793.3699340820312,796.1904907226562,787.3259887695312
558,793.7728881835938,792.1611938476562,793.7728881835938,789.7435913085938
559,795.7875366210938,795.7875366210938,791.3552856445312,802.2344360351562
560,800.6226806640625,792.967041015625,799.8168334960938,800.6226806640625
561,804.6520385742188,790.1465454101562,802.2344360351562,794.5787353515625
562,801.8314819335938,796.996337890625,797.3992919921875,789.3406372070312
563,798.6080322265625,796.5933837890625,794.981689453125,787.3259887695312
564,799.8168334960938,793.7728881835938,793.3699340820312,790.1465454101562
565,800.6226806640625,796.1904907226562,792.5640869140625,791.7582397460938
566,802.2344360351562,797.3992919921875,790.952392578125,793.3699340820312
567,800.2197875976562,790.952392578125,790.5494384765625,792.5640869140625
568,799.8168334960938,788.1318969726562,793.3699340820312,789.7435913085938
569,800.6226806640625,792.967041015625,790.952392578125,792.5640869140625
570,792.1611938476562,791.3552856445312,787.3259887695312,801.8314819335938
571,792.967041015625,795.3846435546875,792.967041015625,806.2637329101562
572,796.5933837890625,795.3846435546875,792.5640869140625,800.2197875976562
573,793.7728881835938,790.1465454101562,792.1611938476562,802.2344360351562
574,794.981689453125,796.5933837890625,790.1465454101562,803.8461303710938
575,791.7582397460938,795.3846435546875,786.1171875,794.981689453125
576,791.7582397460938,788.1318969726562,788.1318969726562,790.1465454101562
577,793.3699340820312,791.3552856445312,791.3552856445312,792.5640869140625
578,789.7435913085938,792.1611938476562,795.3846435546875,793.7728881835938
579,791.7582397460938,795.3846435546875,798.6080322265625,797.3992919921875
580,787.7289428710938,791.7582397460938,797.8021850585938,788.5347900390625
581,783.6996459960938,786.1171875,796.996337890625,786.1171875
582,787.3259887695312,785.7142944335938,801.4285888671875,804.6520385742188
583,789.7435913085938,789.7435913085938,805.4578857421875,800.6226806640625
584,790.952392578125,793.3699340820312,801.8314819335938,793.7728881835938
585,796.5933837890625,785.7142944335938,791.7582397460938,796.1904907226562
586,797.3992919921875,786.923095703125,794.981689453125,792.1611938476562
587,795.7875366210938,798.6080322265625,799.010986328125,790.952392578125
588,793.3699340820312,801.4285888671875,799.010986328125,796.5933837890625
589,792.967041015625,794.981689453125,798.6080322265625,797.8021850585938
590,792.1611938476562,790.5494384765625,799.8168334960938,799.010986328125
591,793.7728881835938,796.996337890625,795.7875366210938,799.4139404296875
592,788.937744140625,797.3992919921875,795.7875366210938,798.2051391601562
593,790.5494384765625,797.3992919921875,803.4432373046875,802.6373901367188
594,794.1758422851562,799.4139404296875,802.6373901367188,801.025634765625
595,785.3113403320312,786.923095703125,797.3992919921875,794.1758422851562
596,785.3113403320312,784.1025390625,798.2051391601562,791.7582397460938
597,790.5494384765625,794.5787353515625,802.6373901367188,801.8314819335938
598,788.937744140625,795.3846435546875,800.6226806640625,807.069580078125
599,788.1318969726562,793.3699340820312,794.981689453125,807.4725341796875
600,795.7875366210938,794.1758422851562,794.981689453125,806.2637329101562
601,797.8021850585938,793.3699340820312,791.3552856445312,798.6080322265625
602,792.967041015625,796.996337890625,785.7142944335938,789.3406372070312
603,792.967041015625,794.981689453125,790.1465454101562,789.3406372070312
604,794.1758422851562,794.5787353515625,791.7582397460938,796.1904907226562
605,796.996337890625,798.2051391601562,788.5347900390625,799.4139404296875
606,796.1904907226562,797.3992919921875,790.952392578125,790.5494384765625
607,792.967041015625,794.981689453125,795.7875366210938,794.981689453125
608,792.1611938476562,789.3406372070312,796.5933837890625,801.4285888671875
609,792.1611938476562,795.3846435546875,794.1758422851562,793.3699340820312
610,788.937744140625,804.2490844726562,791.7582397460938,787.7289428710938
611,789.7435913085938,802.2344360351562,794.1758422851562,791.7582397460938
612,795.3846435546875,797.3992919921875,796.996337890625,803.040283203125
613,802.2344360351562,798.2051391601562,799.4139404296875,805.4578857421875
614,806.6666870117188,796.5933837890625,800.6226806640625,794.5787353515625
615,800.6226806640625,792.1611938476562,794.5787353515625,788.5347900390625
616,796.996337890625,794.5787353515625,791.7582397460938,796.5933837890625
617,799.010986328125,799.010986328125,802.2344360351562,801.8314819335938
618,794.981689453125,805.8607788085938,802.6373901367188,804.2490844726562
619,791.7582397460938,803.4432373046875,797.8021850585938,797.8021850585938
620,791.7582397460938,795.3846435546875,799.4139404296875,788.937744140625
621,793.3699340820312,791.3552856445312,796.996337890625,792.5640869140625
622,796.1904907226562,792.1611938476562,796.1904907226562,799.4139404296875
623,803.040283203125,796.5933837890625,799.010986328125,803.4432373046875
624,802.6373901367188,794.1758422851562,799.4139404296875,798.6080322265625
625,792.5640869140625,794.1758422851562,797.3992919921875,790.1465454101562
626,788.937744140625,793.3699340820312,794.5787353515625,795.3846435546875
627,792.1611938476562,793.7728881835938,793.7728881835938,801.8314819335938
628,790.952392578125,789.7435913085938,797.8021850585938,795.7875366210938
629,785.7142944335938,787.7289428710938,802.2344360351562,790.1465454101562
630,785.3113403320312,792.5640869140625,801.4285888671875,785.3113403320312
631,788.1318969726562,788.937744140625,800.2197875976562,786.1171875
632,788.5347900390625,789.3406372070312,799.010986328125,794.5787353515625
633,791.3552856445312,796.5933837890625,802.2344360351562,792.1611938476562
634,794.1758422851562,794.5787353515625,801.4285888671875,792.967041015625
635,795.7875366210938,790.5494384765625,795.7875366210938,795.7875366210938
636,797.3992919921875,786.1171875,799.010986328125,792.5640869140625
637,799.8168334960938,782.893798828125,801.4285888671875,794.1758422851562
638,795.3846435546875,790.5494384765625,796.1904907226562,788.5347900390625
639,794.5787353515625,796.1904907226562,795.3846435546875,789.7435913085938
640,796.996337890625,792.1611938476562,796.5933837890625,786.5201416015625
641,794.1758422851562,788.5347900390625,796.1904907226562,777.6557006835938
642,798.2051391601562,788.937744140625,796.996337890625,782.893798828125
643,794.1758422851562,786.1171875,796.5933837890625,785.7142944335938
644,787.7289428710938,789.7435913085938,791.7582397460938,786.1171875
645,790.1465454101562,795.7875366210938,793.3699340820312,792.1611938476562
646,794.981689453125,796.1904907226562,794.5787353515625,794.981689453125
647,799.4139404296875,793.3699340820312,787.3259887695312,792.967041015625
648,792.1611938476562,793.7728881835938,789.7435913085938,786.5201416015625
649,784.908447265625,796.5933837890625,796.5933837890625,783.2966918945312
650,790.5494384765625,797.3992919921875,796.5933837890625,788.1318969726562
651,794.5787353515625,797.8021850585938,791.7582397460938,792.5640869140625
652,788.5347900390625,795.3846435546875,790.952392578125,788.5347900390625
653,783.6996459960938,789.3406372070312,795.3846435546875,782.087890625
654,789.3406372070312,790.5494384765625,797.3992919921875,783.6996459960938
655,790.5494384765625,793.3699340820312,795.7875366210938,789.3406372070312
656,785.7142944335938,793.3699340820312,792.1611938476562,779.6703491210938
657,790.5494384765625,796.5933837890625,794.1758422851562,782.4908447265625
658,791.3552856445312,793.7728881835938,793.3699340820312,786.5201416015625
659,790.952392578125,794.981689453125,790.952392578125,788.1318969726562
660,794.5787353515625,793.7728881835938,791.3552856445312,792.967041015625
661,790.952392578125,783.2966918945312,788.1318969726562,790.5494384765625
662,786.5201416015625,778.4615478515625,784.908447265625,790.952392578125
663,784.1025390625,782.893798828125,788.5347900390625,788.5347900390625
664,788.937744140625,790.5494384765625,792.1611938476562,788.937744140625
665,792.5640869140625,790.5494384765625,789.7435913085938,790.1465454101562
666,786.1171875,791.3552856445312,786.923095703125,786.5201416015625
667,789.7435913085938,793.3699340820312,788.937744140625,790.1465454101562
668,799.4139404296875,794.1758422851562,791.3552856445312,798.2051391601562
669,799.010986328125,791.3552856445312,790.1465454101562,795.7875366210938
670,790.5494384765625,786.1171875,792.5640869140625,787.7289428710938
671,792.967041015625,789.3406372070312,799.8168334960938,784.908447265625
672,795.7875366210938,789.3406372070312,799.4139404296875,788.5347900390625
673,790.952392578125,778.8644409179688,793.7728881835938,795.3846435546875
674,786.5201416015625,780.879150390625,783.6996459960938,798.2051391601562
675,786.5201416015625,793.3699340820312,786.923095703125,789.7435913085938
676,787.3259887695312,799.010986328125,792.1611938476562,787.7289428710938
677,786.5201416015625,802.2344360351562,790.1465454101562,794.1758422851562
678,791.7582397460938,803.4432373046875,790.5494384765625,798.2051391601562
679,791.7582397460938,798.6080322265625,795.7875366210938,795.3846435546875
680,789.3406372070312,797.3992919921875,797.3992919921875,791.3552856445312
681,794.981689453125,798.2051391601562,792.1611938476562,788.937744140625
682,791.3552856445312,792.967041015625,792.5640869140625,788.937744140625
683,786.1171875,792.967041015625,796.5933837890625,787.3259887695312
684,790.5494384765625,791.7582397460938,791.7582397460938,788.1318969726562
685,799.010986328125,789.7435913085938,788.937744140625,791.7582397460938
686,796.1904907226562,795.3846435546875,789.3406372070312,789.3406372070312
687,786.5201416015625,798.2051391601562,785.3113403320312,787.7289428710938
688,787.3259887695312,802.2344360351562,787.3259887695312,792.1611938476562
689,787.3259887695312,800.2197875976562,788.1318969726562,797.8021850585938
690,789.3406372070312,794.981689453125,792.967041015625,801.8314819335938
691,793.7728881835938,794.1758422851562,792.967041015625,796.1904907226562
692,794.1758422851562,800.2197875976562,791.3552856445312,796.5933837890625
693,794.1758422851562,797.8021850585938,794.1758422851562,805.4578857421875
694,799.010986328125,785.7142944335938,795.7875366210938,807.87548828125
695,796.1904907226562,782.4908447265625,795.7875366210938,800.2197875976562
696,785.3113403320312,792.5640869140625,794.1758422851562,790.5494384765625
697,784.1025390625,799.010986328125,791.3552856445312,790.5494384765625
698,788.1318969726562,793.7728881835938,795.3846435546875,786.1171875
699,791.7582397460938,787.7289428710938,795.7875366210938,782.087890625
700,794.981689453125,792.967041015625,797.8021850585938,789.7435913085938
701,791.3552856445312,790.1465454101562,799.4139404296875,802.2344360351562
702,790.952392578125,788.1318969726562,794.1758422851562,794.981689453125
703,791.3552856445312,793.3699340820312,790.1465454101562,787.7289428710938
704,787.3259887695312,790.5494384765625,796.5933837890625,784.1025390625
705,792.967041015625,782.087890625,799.4139404296875,784.908447265625
706,799.8168334960938,789.3406372070312,792.967041015625,788.937744140625
707,801.8314819335938,794.5787353515625,790.952392578125,790.952392578125
708,797.3992919921875,789.7435913085938,791.7582397460938,792.967041015625
709,790.1465454101562,789.7435913085938,790.1465454101562,788.937744140625
710,797.3992919921875,791.3552856445312,790.5494384765625,794.5787353515625
711,803.040283203125,793.3699340820312,791.7582397460938,801.4285888671875
712,799.4139404296875,792.967041015625,785.3113403320312,806.2637329101562
713,795.7875366210938,795.3846435546875,787.7289428710938,804.2490844726562
714,794.5787353515625,801.8314819335938,795.3846435546875,803.4432373046875
715,795.3846435546875,796.1904907226562,796.5933837890625,806.6666870117188
716,798.6080322265625,800.6226806640625,795.3846435546875,805.054931640625
717,803.040283203125,805.054931640625,794.5787353515625,801.025634765625
718,805.8607788085938,801.8314819335938,794.5787353515625,802.2344360351562
719,802.2344360351562,801.8314819335938,795.3846435546875,806.2637329101562
720,794.981689453125,795.7875366210938,799.010986328125,803.8461303710938
721,797.8021850585938,797.3992919921875,799.8168334960938,799.8168334960938
722,794.981689453125,797.3992919921875,796.996337890625,796.5933837890625
723,786.923095703125,789.7435913085938,794.981689453125,796.5933837890625
724,793.7728881835938,786.5201416015625,796.5933837890625,800.6226806640625
725,791.7582397460938,789.3406372070312,797.8021850585938,792.967041015625
726,783.6996459960938,792.5640869140625,793.3699340820312,789.7435913085938
727,783.2966918945312,790.952392578125,788.937744140625,792.967041015625
728,783.6996459960938,794.981689453125,786.5201416015625,790.1465454101562
729,785.3113403320312,795.3846435546875,788.1318969726562,779.2673950195312
730,788.1318969726562,792.967041015625,784.908447265625,772.4176025390625
731,784.908447265625,793.3699340820312,782.893798828125,773.6264038085938
732,776.8497924804688,794.5787353515625,786.5201416015625,774.8351440429688
733,778.05859375,790.952392578125,788.1318969726562,778.4615478515625
734,782.087890625,789.7435913085938,787.3259887695312,785.3113403320312
735,785.7142944335938,788.937744140625,786.5201416015625,784.908447265625
736,788.5347900390625,790.5494384765625,788.1318969726562,780.879150390625
737,788.5347900390625,799.010986328125,788.937744140625,782.4908447265625
738,791.7582397460938,799.8168334960938,787.7289428710938,786.5201416015625
739,792.967041015625,794.5787353515625,788.937744140625,791.7582397460938
740,782.4908447265625,794.981689453125,792.1611938476562,788.937744140625
741,779.6703491210938,794.981689453125,788.5347900390625,786.923095703125
742,787.7289428710938,791.3552856445312,792.967041015625,794.981689453125
743,794.1758422851562,787.3259887695312,794.1758422851562,790.1465454101562
744,794.5787353515625,778.8644409179688,792.967041015625,788.5347900390625
745,790.5494384765625,781.2820434570312,797.8021850585938,796.1904907226562
746,787.3259887695312,788.5347900390625,792.1611938476562,788.937744140625
747,789.3406372070312,791.3552856445312,790.952392578125,792.5640869140625
748,788.1318969726562,793.3699340820312,798.2051391601562,801.025634765625
749,788.1318969726562,791.7582397460938,805.4578857421875,799.010986328125
750,794.1758422851562,789.3406372070312,805.4578857421875,803.8461303710938
751,793.7728881835938,787.7289428710938,796.996337890625,810.2930297851562
752,792.1611938476562,792.967041015625,801.4285888671875,802.2344360351562
753,790.1465454101562,787.7289428710938,807.069580078125,793.3699340820312
754,794.981689453125,788.5347900390625,803.040283203125,788.937744140625
755,796.996337890625,796.5933837890625,794.1758422851562,787.7289428710938
756,790.5494384765625,791.3552856445312,795.7875366210938,788.1318969726562
757,792.967041015625,794.1758422851562,799.8168334960938,791.7582397460938
758,796.996337890625,804.6520385742188,794.981689453125,795.3846435546875
759,793.3699340820312,803.8461303710938,790.952392578125,793.3699340820312
760,794.1758422851562,801.025634765625,792.1611938476562,796.996337890625
761,795.7875366210938,796.996337890625,795.7875366210938,799.8168334960938
762,798.2051391601562,790.952392578125,798.2051391601562,801.4285888671875
763,800.6226806640625,797.3992919921875,799.010986328125,794.1758422851562
764,799.4139404296875,800.2197875976562,790.952392578125,783.6996459960938
765,799.4139404296875,796.5933837890625,788.1318969726562,785.3113403320312
766,792.1611938476562,789.7435913085938,794.5787353515625,784.5054931640625
767,786.5201416015625,787.3259887695312,792.5640869140625,776.4468994140625
768,794.1758422851562,793.7728881835938,790.952392578125,778.4615478515625
769,796.1904907226562,798.6080322265625,792.967041015625,785.7142944335938
770,795.7875366210938,798.2051391601562,789.3406372070312,789.7435913085938
771,798.6080322265625,794.5787353515625,795.3846435546875,791.7582397460938
772,796.5933837890625,793.7728881835938,798.2051391601562,792.5640869140625
773,796.5933837890625,791.7582397460938,791.7582397460938,789.7435913085938
774,796.1904907226562,786.923095703125,792.5640869140625,795.3846435546875
775,789.3406372070312,791.7582397460938,796.5933837890625,797.8021850585938
776,787.7289428710938,795.7875366210938,793.7728881835938,796.5933837890625
777,787.7289428710938,789.7435913085938,791.3552856445312,802.6373901367188
778,788.1318969726562,781.2820434570312,795.3846435546875,803.4432373046875
779,788.1318969726562,786.1171875,796.1904907226562,799.010986328125
780,787.3259887695312,791.3552856445312,796.5933837890625,790.952392578125
781,792.5640869140625,794.1758422851562,793.7728881835938,789.3406372070312
782,788.1318969726562,797.8021850585938,791.7582397460938,789.3406372070312
783,790.5494384765625,795.7875366210938,794.1758422851562,791.7582397460938
784,792.5640869140625,796.5933837890625,794.1758422851562,798.2051391601562
785,791.7582397460938,787.7289428710938,793.7728881835938,802.2344360351562
786,794.5787353515625,787.7289428710938,795.7875366210938,798.2051391601562
787,792.1611938476562,796.5933837890625,796.5933837890625,790.952392578125
788,793.7728881835938,801.025634765625,799.4139404296875,792.5640869140625
789,797.3992919921875,801.025634765625,804.6520385742188,802.6373901367188
790,796.5933837890625,799.4139404296875,799.010986328125,807.4725341796875
791,793.7728881835938,800.6226806640625,798.6080322265625,801.025634765625
792,784.1025390625,796.1904907226562,802.6373901367188,792.5640869140625
793,784.908447265625,793.7728881835938,799.4139404296875,792.1611938476562
794,792.5640869140625,795.7875366210938,799.8168334960938,798.6080322265625
795,799.010986328125,796.5933837890625,802.2344360351562,809.084228515625
796,801.8314819335938,799.010986328125,801.8314819335938,810.2930297851562
797,801.4285888671875,796.996337890625,797.3992919921875,809.4871826171875
798,793.7728881835938,793.3699340820312,795.3846435546875,804.6520385742188
799,793.3699340820312,798.2051391601562,796.5933837890625,805.054931640625
800,799.4139404296875,796.996337890625,795.3846435546875,809.89013671875
801,797.8021850585938,794.5787353515625,799.4139404296875,805.8607788085938
802,792.967041015625,792.5640869140625,799.8168334960938,792.967041015625
803,787.7289428710938,783.6996459960938,793.3699340820312,788.1318969726562
804,788.1318969726562,788.5347900390625,794.1758422851562,796.5933837890625
805,786.1171875,797.3992919921875,800.2197875976562,798.6080322265625
806,780.879150390625,796.1904907226562,797.8021850585938,794.5787353515625
807,782.893798828125,797.3992919921875,798.6080322265625,794.981689453125
808,788.5347900390625,796.1904907226562,801.025634765625,799.4139404296875
809,788.937744140625,792.967041015625,798.6080322265625,798.2051391601562
810,790.1465454101562,792.967041015625,797.8021850585938,794.1758422851562
811,798.2051391601562,790.5494384765625,794.1758422851562,796.996337890625
812,804.2490844726562,785.3113403320312,794.1758422851562,798.6080322265625
813,795.7875366210938,788.937744140625,799.4139404296875,795.7875366210938
814,791.7582397460938,795.7875366210938,798.2051391601562,790.5494384765625
815,794.5787353515625,791.3552856445312,797.8021850585938,786.1171875
816,797.3992919921875,791.3552856445312,804.2490844726562,788.5347900390625
817,795.3846435546875,793.7728881835938,804.2490844726562,783.2966918945312
818,785.7142944335938,786.923095703125,796.996337890625,781.6849975585938
819,788.5347900390625,789.3406372070312,790.5494384765625,789.7435913085938
820,789.7435913085938,794.981689453125,790.5494384765625,794.1758422851562
821,781.2820434570312,791.7582397460938,791.7582397460938,790.5494384765625
822,780.4761962890625,793.3699340820312,789.7435913085938,783.2966918945312
823,785.3113403320312,794.1758422851562,792.5640869140625,790.952392578125
824,780.0732421875,784.5054931640625,792.5640869140625,795.3846435546875
825,773.6264038085938,786.5201416015625,795.3846435546875,791.3552856445312
826,775.6410522460938,796.5933837890625,793.3699340820312,785.7142944335938
827,777.6557006835938,790.5494384765625,788.5347900390625,780.879150390625
828,776.4468994140625,784.1025390625,790.1465454101562,786.5201416015625
829,780.879150390625,791.3552856445312,799.010986328125,788.937744140625
830,785.7142944335938,795.3846435546875,803.040283203125,790.952392578125
831,788.937744140625,786.5201416015625,799.4139404296875,797.8021850585938
832,788.1318969726562,789.7435913085938,791.3552856445312,794.5787353515625
833,786.1171875,795.7875366210938,789.3406372070312,792.5640869140625
834,791.3552856445312,796.996337890625,793.3699340820312,794.5787353515625
835,799.010986328125,797.8021850585938,794.1758422851562,800.6226806640625
836,798.6080322265625,798.2051391601562,794.1758422851562,796.1904907226562
837,799.010986328125,797.3992919921875,796.1904907226562,788.1318969726562
838,801.8314819335938,793.7728881835938,793.3699340820312,797.3992919921875
839,799.8168334960938,790.952392578125,794.981689453125,807.069580078125
840,799.010986328125,796.5933837890625,799.8168334960938,800.2197875976562
841,803.8461303710938,801.025634765625,800.2197875976562,795.7875366210938
842,805.054931640625,800.2197875976562,798.6080322265625,799.4139404296875
843,796.5933837890625,798.2051391601562,795.3846435546875,800.2197875976562
844,790.952392578125,796.1904907226562,796.1904907226562,803.040283203125
845,788.5347900390625,795.7875366210938,793.3699340820312,793.7728881835938
846,787.7289428710938,791.7582397460938,789.3406372070312,792.5640869140625
847,788.5347900390625,789.7435913085938,793.3699340820312,803.8461303710938
848,790.1465454101562,790.952392578125,796.1904907226562,799.010986328125
849,794.5787353515625,788.937744140625,793.7728881835938,796.5933837890625
850,796.1904907226562,787.3259887695312,788.937744140625,798.6080322265625
851,789.3406372070312,788.1318969726562,789.3406372070312,791.3552856445312
852,786.5201416015625,783.6996459960938,792.5640869140625,788.5347900390625
853,787.7289428710938,785.3113403320312,790.952392578125,795.3846435546875
854,788.1318969726562,791.3552856445312,792.1611938476562,794.1758422851562
855,793.7728881835938,791.7582397460938,791.3552856445312,790.952392578125
856,790.952392578125,786.1171875,789.3406372070312,788.937744140625
857,787.3259887695312,785.3113403320312,791.3552856445312,789.3406372070312
858,790.952392578125,787.7289428710938,793.3699340820312,797.3992919921875
859,791.7582397460938,795.7875366210938,794.5787353515625,795.3846435546875
860,788.937744140625,794.1758422851562,792.967041015625,794.981689453125
861,789.7435913085938,785.3113403320312,790.5494384765625,801.025634765625
862,790.1465454101562,789.3406372070312,789.7435913085938,800.6226806640625
863,793.3699340820312,797.3992919921875,792.5640869140625,798.6080322265625
864,795.7875366210938,796.996337890625,792.1611938476562,801.8314819335938
865,789.7435913085938,798.6080322265625,790.5494384765625,798.6080322265625
866,778.4615478515625,796.5933837890625,790.5494384765625,780.879150390625
867,774.8351440429688,789.3406372070312,786.923095703125,772.4176025390625
868,788.1318969726562,791.7582397460938,789.3406372070312,779.6703491210938
869,790.5494384765625,793.3699340820312,784.1025390625,782.893798828125
870,790.952392578125,793.7728881835938,784.908447265625,793.3699340820312
871,795.7875366210938,797.3992919921875,788.937744140625,793.3699340820312
872,796.1904907226562,794.981689453125,785.3113403320312,787.7289428710938
873,792.967041015625,788.937744140625,784.1025390625,792.1611938476562
874,789.7435913085938,794.1758422851562,787.7289428710938,793.3699340820312
875,787.3259887695312,795.7875366210938,793.3699340820312,787.7289428710938
876,790.952392578125,791.7582397460938,792.5640869140625,787.3259887695312
877,791.3552856445312,797.3992919921875,792.1611938476562,791.3552856445312
878,792.5640869140625,802.2344360351562,790.1465454101562,794.5787353515625
879,796.5933837890625,796.1904907226562,787.7289428710938,790.952392578125
880,798.2051391601562,790.952392578125,788.1318969726562,790.952392578125
881,795.7875366210938,789.7435913085938,793.7728881835938,795.3846435546875
882,789.3406372070312,790.5494384765625,797.3992919921875,790.5494384765625
883,785.7142944335938,791.3552856445312,792.967041015625,795.3846435546875
884,786.1171875,788.937744140625,793.3699340820312,802.2344360351562
885,785.7142944335938,791.3552856445312,796.996337890625,796.1904907226562
886,787.7289428710938,798.6080322265625,792.967041015625,790.5494384765625
887,791.7582397460938,803.040283203125,796.1904907226562,786.923095703125
888,791.7582397460938,799.4139404296875,800.2197875976562,789.3406372070312
889,787.3259887695312,791.7582397460938,800.2197875976562,800.2197875976562
890,786.1171875,794.981689453125,800.2197875976562,792.5640869140625
891,792.967041015625,795.7875366210938,799.010986328125,784.1025390625
892,796.1904907226562,790.952392578125,799.8168334960938,792.5640869140625
893,792.1611938476562,786.1171875,794.981689453125,801.8314819335938
894,789.3406372070312,793.3699340820312,790.5494384765625,796.996337890625
895,787.7289428710938,796.5933837890625,793.7728881835938,790.1465454101562
896,784.5054931640625,795.3846435546875,796.5933837890625,790.952392578125
897,790.1465454101562,796.1904907226562,799.010986328125,795.7875366210938
898,793.3699340820312,796.5933837890625,795.7875366210938,792.967041015625
899,789.3406372070312,797.3992919921875,794.5787353515625,786.923095703125
900,789.3406372070312,795.3846435546875,791.7582397460938,791.3552856445312
901,795.3846435546875,798.2051391601562,791.7582397460938,793.3699340820312
902,795.3846435546875,800.6226806640625,792.967041015625,788.1318969726562
903,801.8314819335938,790.5494384765625,794.1758422851562,794.981689453125
904,808.2783813476562,783.2966918945312,793.7728881835938,802.6373901367188
905,802.2344360351562,788.5347900390625,792.967041015625,792.1611938476562
906,801.4285888671875,790.5494384765625,790.1465454101562,788.5347900390625
907,804.2490844726562,794.5787353515625,785.7142944335938,792.5640869140625
908,803.040283203125,796.996337890625,788.1318969726562,792.1611938476562
909,802.6373901367188,798.6080322265625,786.923095703125,791.7582397460938
910,800.2197875976562,802.6373901367188,787.3259887695312,790.5494384765625
911,796.1904907226562,801.025634765625,793.7728881835938,792.1611938476562
912,796.1904907226562,794.981689453125,795.3846435546875,793.7728881835938
913,795.3846435546875,794.1758422851562,794.5787353515625,790.952392578125
914,794.1758422851562,799.010986328125,791.3552856445312,786.5201416015625
915,796.1904907226562,794.5787353515625,788.1318969726562,789.7435913085938
916,794.5787353515625,794.5787353515625,794.1758422851562,790.1465454101562
917,795.3846435546875,799.8168334960938,801.025634765625,792.967041015625
918,795.3846435546875,799.8168334960938,799.010986328125,790.952392578125
919,792.967041015625,793.7728881835938,792.967041015625,786.1171875
920,794.5787353515625,790.5494384765625,794.981689453125,794.1758422851562
921,795.7875366210938,798.6080322265625,799.4139404296875,797.3992919921875
922,795.3846435546875,799.8168334960938,792.967041015625,789.3406372070312
923,798.2051391601562,793.3699340820312,790.5494384765625,792.1611938476562
924,799.010986328125,793.3699340820312,798.6080322265625,802.2344360351562
925,790.952392578125,792.967041015625,796.5933837890625,801.025634765625
926,788.937744140625,791.7582397460938,790.5494384765625,795.7875366210938
927,794.1758422851562,796.996337890625,789.3406372070312,796.5933837890625
928,792.1611938476562,798.2051391601562,792.967041015625,796.996337890625
929,790.5494384765625,801.8314819335938,791.3552856445312,790.1465454101562
930,793.7728881835938,801.025634765625,791.3552856445312,790.952392578125
931,795.7875366210938,793.7728881835938,797.8021850585938,805.8607788085938
932,790.1465454101562,796.1904907226562,800.2197875976562,801.8314819335938
933,789.3406372070312,801.8314819335938,794.1758422851562,785.7142944335938
934,788.5347900390625,804.2490844726562,789.7435913085938,778.8644409179688
935,785.7142944335938,799.4139404296875,796.1904907226562,780.0732421875
936,784.5054931640625,796.1904907226562,797.8021850585938,779.6703491210938
937,785.3113403320312,798.6080322265625,798.2051391601562,781.6849975585938
938,788.5347900390625,799.010986328125,797.3992919921875,792.1611938476562
939,788.937744140625,798.6080322265625,798.2051391601562,793.3699340820312
940,789.7435913085938,792.967041015625,798.2051391601562,792.1611938476562
941,794.1758422851562,789.7435913085938,795.3846435546875,793.3699340820312
942,801.025634765625,796.5933837890625,797.3992919921875,800.2197875976562
943,799.4139404296875,797.3992919921875,797.8021850585938,811.5018310546875
944,791.3552856445312,791.7582397460938,796.5933837890625,803.040283203125
945,796.1904907226562,794.5787353515625,790.5494384765625,797.8021850585938
946,799.4139404296875,797.3992919921875,790.5494384765625,801.8314819335938
947,792.967041015625,797.8021850585938,792.5640869140625,799.010986328125
948,793.3699340820312,795.3846435546875,789.3406372070312,797.8021850585938
949,796.5933837890625,794.5787353515625,792.1611938476562,796.996337890625
950,797.3992919921875,796.5933837890625,794.981689453125,803.040283203125
951,793.7728881835938,792.5640869140625,791.7582397460938,803.8461303710938
952,792.967041015625,794.1758422851562,792.5640869140625,798.6080322265625
953,798.6080322265625,799.010986328125,796.996337890625,799.4139404296875
954,796.1904907226562,796.1904907226562,792.967041015625,801.8314819335938
955,790.952392578125,794.5787353515625,790.1465454101562,794.1758422851562
956,790.1465454101562,794.1758422851562,793.3699340820312,788.1318969726562
957,790.5494384765625,795.7875366210938,796.996337890625,790.952392578125
958,788.937744140625,795.7875366210938,799.010986328125,789.7435913085938
959,783.6996459960938,795.7875366210938,793.7728881835938,789.3406372070312
960,782.893798828125,797.3992919921875,787.3259887695312,782.893798828125
961,786.5201416015625,794.981689453125,786.923095703125,781.2820434570312
962,788.5347900390625,792.1611938476562,789.7435913085938,783.6996459960938
963,785.3113403320312,787.7289428710938,791.3552856445312,779.6703491210938
964,789.7435913085938,788.937744140625,787.7289428710938,782.893798828125
965,798.6080322265625,793.3699340820312,792.1611938476562,798.2051391601562
966,800.2197875976562,798.6080322265625,796.5933837890625,803.8461303710938
967,794.5787353515625,801.4285888671875,796.1904907226562,796.996337890625
968,794.1758422851562,799.4139404296875,797.8021850585938,794.5787353515625
969,789.3406372070312,796.996337890625,793.3699340820312,790.1465454101562
970,786.923095703125,797.3992919921875,794.5787353515625,787.3259887695312
971,786.1171875,797.8021850585938,795.7875366210938,792.967041015625
972,783.6996459960938,793.3699340820312,789.3406372070312,795.3846435546875
973,795.3846435546875,790.1465454101562,792.5640869140625,801.4285888671875
974,796.5933837890625,791.7582397460938,798.2051391601562,804.6520385742188
975,790.952392578125,792.5640869140625,795.7875366210938,801.4285888671875
976,795.3846435546875,797.3992919921875,799.010986328125,800.2197875976562
977,800.6226806640625,792.967041015625,798.2051391601562,803.4432373046875
978,794.1758422851562,786.923095703125,794.981689453125,800.6226806640625
979,793.7728881835938,794.1758422851562,796.1904907226562,791.3552856445312
980,799.010986328125,796.996337890625,796.1904907226562,796.1904907226562
981,797.8021850585938,797.3992919921875,795.3846435546875,798.6080322265625
982,793.7728881835938,796.5933837890625,793.3699340820312,795.3846435546875
983,786.1171875,788.1318969726562,794.5787353515625,787.7289428710938
984,787.3259887695312,787.7289428710938,800.2197875976562,786.923095703125
985,791.3552856445312,794.5787353515625,801.8314819335938,790.5494384765625
986,790.1465454101562,795.7875366210938,800.6226806640625,790.1465454101562
987,793.7728881835938,791.7582397460938,797.8021850585938,792.967041015625
988,803.040283203125,787.3259887695312,793.7728881835938,791.7582397460938
989,798.6080322265625,789.7435913085938,791.7582397460938,788.5347900390625
990,786.1171875,789.7435913085938,797.3992919921875,786.5201416015625
991,787.3259887695312,788.1318969726562,800.6226806640625,790.952392578125
992,786.1171875,793.3699340820312,796.996337890625,789.7435913085938
993,788.5347900390625,797.3992919921875,794.5787353515625,789.3406372070312
994,791.3552856445312,796.1904907226562,792.967041015625,792.1611938476562
995,794.1758422851562,794.981689453125,795.7875366210938,794.981689453125
996,794.981689453125,791.7582397460938,796.5933837890625,799.4139404296875
997,794.981689453125,792.967041015625,796.996337890625,809.084228515625
998,792.1611938476562,788.5347900390625,795.3846435546875,813.113525390625
999,794.5787353515625,782.087890625,794.5787353515625,801.4285888671875
1000,800.6226806640625,784.5054931640625,790.5494384765625,803.040283203125
1001,799.010986328125,792.5640869140625,794.981689453125,803.4432373046875
1002,788.5347900390625,792.967041015625,799.4139404296875,780.879150390625
1003,787.7289428710938,789.7435913085938,796.1904907226562,775.2380981445312
1004,788.937744140625,791.7582397460938,794.981689453125,776.0439453125
1005,788.937744140625,795.3846435546875,795.7875366210938,780.4761962890625
1006,788.937744140625,792.967041015625,801.4285888671875,788.1318969726562
1007,785.7142944335938,792.1611938476562,799.8168334960938,792.967041015625
1008,784.908447265625,792.967041015625,800.6226806640625,796.5933837890625
1009,785.3113403320312,794.5787353515625,809.89013671875,798.2051391601562
1010,790.1465454101562,796.5933837890625,804.2490844726562,800.6226806640625
1011,794.981689453125,792.1611938476562,802.6373901367188,803.8461303710938
1012,790.952392578125,794.981689453125,803.040283203125,802.6373901367188
1013,788.5347900390625,799.010986328125,799.010986328125,796.996337890625
1014,794.981689453125,800.2197875976562,799.8168334960938,799.4139404296875
1015,801.025634765625,802.2344360351562,796.1904907226562,806.6666870117188
1016,805.054931640625,801.025634765625,797.8021850585938,813.113525390625
1017,806.6666870117188,805.054931640625,795.3846435546875,813.113525390625
1018,807.87548828125,804.2490844726562,789.3406372070312,809.084228515625
1019,802.6373901367188,799.8168334960938,792.5640869140625,809.89013671875
1020,803.4432373046875,802.6373901367188,796.1904907226562,807.4725341796875
1021,805.4578857421875,802.6373901367188,792.1611938476562,799.8168334960938
1022,806.6666870117188,795.7875366210938,790.1465454101562,799.010986328125
1023,804.6520385742188,792.5640869140625,793.3699340820312,804.2490844726562
1024,799.8168334960938,794.981689453125,791.3552856445312,805.4578857421875
1025,798.2051391601562,794.1758422851562,794.1758422851562,802.2344360351562
1026,797.3992919921875,790.952392578125,797.3992919921875,799.8168334960938
1027,797.3992919921875,794.981689453125,792.1611938476562,798.6080322265625
1028,795.7875366210938,798.2051391601562,792.967041015625,790.1465454101562
1029,792.5640869140625,799.010986328125,792.5640869140625,783.2966918945312
1030,792.5640869140625,796.996337890625,791.3552856445312,791.3552856445312
1031,788.937744140625,793.7728881835938,792.967041015625,791.7582397460938
1032,782.4908447265625,791.7582397460938,794.5787353515625,788.1318969726562
1033,784.908447265625,790.5494384765625,794.981689453125,797.3992919921875
1034,784.1025390625,783.2966918945312,792.1611938476562,803.040283203125
1035,786.1171875,782.087890625,790.952392578125,803.4432373046875
1036,786.5201416015625,787.7289428710938,790.952392578125,803.4432373046875
1037,784.5054931640625,792.1611938476562,792.5640869140625,796.1904907226562
1038,788.5347900390625,792.967041015625,790.5494384765625,788.1318969726562
1039,786.923095703125,791.7582397460938,791.7582397460938,787.3259887695312
1040,782.4908447265625,790.5494384765625,790.5494384765625,780.0732421875
1041,788.1318969726562,788.5347900390625,786.5201416015625,788.1318969726562
1042,794.1758422851562,790.1465454101562,790.5494384765625,792.967041015625
1043,790.952392578125,792.1611938476562,790.952392578125,790.1465454101562
1044,799.010986328125,793.3699340820312,787.3259887695312,798.6080322265625
1045,805.4578857421875,790.952392578125,795.3846435546875,799.8168334960938
1046,801.025634765625,789.3406372070312,801.4285888671875,795.3846435546875
1047,798.6080322265625,792.5640869140625,798.6080322265625,799.8168334960938
1048,800.2197875976562,800.6226806640625,796.996337890625,803.8461303710938
1049,802.2344360351562,803.040283203125,798.2051391601562,803.8461303710938
1050,798.6080322265625,798.6080322265625,794.981689453125,802.2344360351562
1051,795.3846435546875,796.1904907226562,798.6080322265625,803.4432373046875
1052,796.1904907226562,796.5933837890625,805.8607788085938,811.90478515625
1053,799.4139404296875,798.6080322265625,804.2490844726562,815.93408203125
1054,797.8021850585938,790.952392578125,803.040283203125,806.6666870117188
1055,788.5347900390625,788.1318969726562,800.6226806640625,793.3699340820312
1056,788.1318969726562,789.7435913085938,798.2051391601562,793.3699340820312
1057,792.1611938476562,787.7289428710938,801.025634765625,795.3846435546875
1058,790.5494384765625,784.908447265625,795.3846435546875,796.996337890625
1059,787.3259887695312,793.7728881835938,790.1465454101562,790.5494384765625
1060,783.6996459960938,803.4432373046875,786.923095703125,780.879150390625
1061,780.4761962890625,798.6080322265625,786.923095703125,784.908447265625
1062,780.0732421875,798.2051391601562,790.952392578125,790.5494384765625
1063,781.6849975585938,801.025634765625,790.952392578125,782.087890625
1064,782.893798828125,793.3699340820312,789.7435913085938,772.8204956054688
1065,780.879150390625,783.6996459960938,792.1611938476562,781.2820434570312
1066,785.3113403320312,783.2966918945312,793.3699340820312,789.3406372070312
1067,788.5347900390625,787.3259887695312,790.5494384765625,788.937744140625
1068,785.3113403320312,793.7728881835938,788.1318969726562,781.6849975585938
1069,787.3259887695312,797.8021850585938,787.7289428710938,778.05859375
1070,784.1025390625,792.5640869140625,790.5494384765625,778.4615478515625
1071,782.4908447265625,787.3259887695312,791.3552856445312,784.1025390625
1072,791.3552856445312,792.5640869140625,785.7142944335938,794.1758422851562
1073,798.6080322265625,794.5787353515625,784.1025390625,803.8461303710938
1074,790.952392578125,791.7582397460938,786.923095703125,800.2197875976562
1075,784.5054931640625,790.1465454101562,796.1904907226562,792.1611938476562
1076,782.4908447265625,790.952392578125,801.8314819335938,788.1318969726562
1077,783.2966918945312,789.3406372070312,793.7728881835938,784.5054931640625
1078,790.5494384765625,787.7289428710938,791.3552856445312,788.5347900390625
1079,789.3406372070312,785.3113403320312,792.967041015625,786.923095703125
1080,783.2966918945312,788.1318969726562,786.5201416015625,782.087890625
1081,787.3259887695312,795.3846435546875,790.1465454101562,786.1171875
1082,796.1904907226562,795.3846435546875,791.7582397460938,789.3406372070312
1083,795.7875366210938,794.5787353515625,789.7435913085938,787.7289428710938
1084,791.3552856445312,792.967041015625,791.3552856445312,794.1758422851562
1085,794.1758422851562,797.8021850585938,794.5787353515625,798.6080322265625
1086,794.981689453125,801.025634765625,800.2197875976562,791.3552856445312
1087,792.967041015625,796.5933837890625,798.2051391601562,790.952392578125
1088,795.7875366210938,797.3992919921875,797.3992919921875,796.5933837890625
1089,797.3992919921875,800.6226806640625,802.2344360351562,798.6080322265625
1090,794.981689453125,796.996337890625,796.5933837890625,799.010986328125
1091,797.8021850585938,798.6080322265625,790.952392578125,805.054931640625
1092,805.054931640625,804.2490844726562,789.7435913085938,808.2783813476562
1093,803.4432373046875,801.8314819335938,789.3406372070312,803.4432373046875
1094,796.1904907226562,792.5640869140625,794.5787353515625,799.8168334960938
1095,791.3552856445312,792.1611938476562,796.1904907226562,800.6226806640625
1096,793.3699340820312,801.4285888671875,791.3552856445312,805.4578857421875
1097,797.3992919921875,805.4578857421875,793.3699340820312,797.8021850585938
1098,795.3846435546875,801.4285888671875,795.3846435546875,783.6996459960938
1099,792.967041015625,797.3992919921875,793.7728881835938,783.6996459960938
1100,789.7435913085938,796.1904907226562,794.981689453125,787.7289428710938
1101,783.2966918945312,793.7728881835938,798.6080322265625,789.7435913085938
1102,782.893798828125,796.1904907226562,801.025634765625,792.967041015625
1103,787.7289428710938,796.5933837890625,796.996337890625,793.7728881835938
1104,791.7582397460938,792.5640869140625,790.1465454101562,790.1465454101562
1105,787.7289428710938,786.1171875,790.1465454101562,787.7289428710938
1106,781.6849975585938,786.1171875,792.967041015625,784.908447265625
1107,783.2966918945312,791.7582397460938,791.7582397460938,785.7142944335938
1108,788.937744140625,794.5787353515625,792.967041015625,789.3406372070312
1109,790.1465454101562,795.7875366210938,796.996337890625,786.5201416015625
1110,785.7142944335938,793.3699340820312,797.8021850585938,787.7289428710938
1111,790.5494384765625,792.967041015625,792.1611938476562,788.1318969726562
1112,796.996337890625,796.1904907226562,792.1611938476562,786.5201416015625
1113,792.1611938476562,788.5347900390625,795.3846435546875,790.1465454101562
1114,797.8021850585938,785.3113403320312,791.3552856445312,796.5933837890625
1115,804.2490844726562,792.967041015625,793.7728881835938,796.5933837890625
1116,801.8314819335938,794.5787353515625,797.8021850585938,796.996337890625
1117,795.7875366210938,796.5933837890625,796.996337890625,800.2197875976562
1118,795.3846435546875,798.6080322265625,802.6373901367188,801.8314819335938
1119,797.3992919921875,792.5640869140625,795.7875366210938,795.7875366210938
1120,799.010986328125,792.967041015625,794.1758422851562,793.7728881835938
1121,798.6080322265625,794.981689453125,796.1904907226562,790.952392578125
1122,796.5933837890625,792.5640869140625,793.3699340820312,789.7435913085938
1123,795.3846435546875,789.3406372070312,796.996337890625,791.7582397460938
1124,790.1465454101562,786.5201416015625,796.996337890625,779.6703491210938
1125,791.7582397460938,792.1611938476562,798.2051391601562,773.6264038085938
1126,796.5933837890625,793.3699340820312,799.4139404296875,783.2966918945312
1127,792.967041015625,791.7582397460938,796.1904907226562,787.3259887695312
1128,782.087890625,793.3699340820312,797.8021850585938,782.893798828125
1129,778.4615478515625,794.981689453125,800.6226806640625,786.923095703125
1130,782.4908447265625,790.5494384765625,796.996337890625,790.952392578125
1131,785.3113403320312,784.5054931640625,791.3552856445312,789.7435913085938
1132,784.1025390625,789.3406372070312,795.7875366210938,791.7582397460938
1133,786.1171875,792.967041015625,801.4285888671875,787.3259887695312
1134,792.967041015625,793.3699340820312,795.3846435546875,785.3113403320312
1135,792.5640869140625,796.996337890625,794.1758422851562,790.952392578125
1136,790.1465454101562,790.952392578125,795.3846435546875,788.5347900390625
1137,789.7435913085938,779.2673950195312,790.952392578125,786.5201416015625
1138,787.3259887695312,781.2820434570312,787.3259887695312,796.1904907226562
1139,788.5347900390625,791.7582397460938,792.1611938476562,806.2637329101562
1140,788.937744140625,794.5787353515625,792.5640869140625,794.1758422851562
1141,790.5494384765625,799.010986328125,792.1611938476562,786.923095703125
1142,794.5787353515625,796.996337890625,787.3259887695312,789.7435913085938
1143,797.8021850585938,789.3406372070312,778.8644409179688,790.5494384765625
1144,797.3992919921875,791.3552856445312,786.1171875,794.981689453125
1145,796.5933837890625,797.8021850585938,796.5933837890625,798.2051391601562
1146,798.2051391601562,797.8021850585938,795.7875366210938,806.6666870117188
1147,793.7728881835938,791.7582397460938,794.1758422851562,801.4285888671875
1148,791.7582397460938,788.5347900390625,792.5640869140625,796.1904907226562
1149,786.1171875,792.5640869140625,789.7435913085938,797.8021850585938
1150,781.2820434570312,790.5494384765625,794.5787353515625,800.2197875976562
1151,784.1025390625,787.7289428710938,795.3846435546875,801.025634765625
1152,792.1611938476562,794.981689453125,792.5640869140625,799.4139404296875
1153,794.1758422851562,796.5933837890625,791.7582397460938,795.7875366210938
1154,791.7582397460938,790.1465454101562,784.908447265625,787.7289428710938
1155,793.3699340820312,788.937744140625,785.7142944335938,787.7289428710938
1156,794.981689453125,791.7582397460938,791.7582397460938,791.3552856445312
1157,795.3846435546875,792.1611938476562,792.1611938476562,794.981689453125
1158,791.7582397460938,791.7582397460938,791.3552856445312,795.3846435546875
1159,791.7582397460938,788.937744140625,787.3259887695312,786.923095703125
1160,782.4908447265625,783.2966918945312,785.3113403320312,783.6996459960938
1161,775.2380981445312,781.6849975585938,787.3259887695312,785.7142944335938
1162,782.4908447265625,784.1025390625,794.1758422851562,792.5640869140625
1163,783.2966918945312,782.4908447265625,799.4139404296875,792.5640869140625
1164,790.952392578125,783.2966918945312,795.7875366210938,796.996337890625
1165,798.6080322265625,786.5201416015625,794.1758422851562,807.87548828125
1166,790.952392578125,787.3259887695312,794.5787353515625,802.6373901367188
1167,782.087890625,787.3259887695312,796.1904907226562,792.967041015625
1168,785.3113403320312,787.7289428710938,795.7875366210938,789.3406372070312
1169,790.1465454101562,788.1318969726562,798.2051391601562,793.3699340820312
1170,789.7435913085938,794.1758422851562,801.4285888671875,791.7582397460938
1171,785.7142944335938,798.6080322265625,797.3992919921875,787.3259887695312
1172,786.1171875,792.967041015625,797.3992919921875,790.952392578125
1173,790.1465454101562,785.7142944335938,799.4139404296875,788.5347900390625
1174,793.3699340820312,788.1318969726562,794.981689453125,793.7728881835938
1175,795.3846435546875,790.1465454101562,795.7875366210938,801.4285888671875
1176,796.5933837890625,787.7289428710938,795.3846435546875,799.010986328125
1177,797.3992919921875,788.1318969726562,794.981689453125,797.3992919921875
1178,801.025634765625,781.2820434570312,793.7728881835938,794.1758422851562
1179,801.4285888671875,780.879150390625,790.1465454101562,788.1318969726562
1180,799.8168334960938,794.5787353515625,794.981689453125,791.3552856445312
1181,799.4139404296875,801.4285888671875,798.2051391601562,794.981689453125
1182,798.6080322265625,802.6373901367188,798.2051391601562,789.3406372070312
1183,797.3992919921875,797.3992919921875,800.2197875976562,788.5347900390625
1184,796.996337890625,798.2051391601562,799.4139404296875,791.7582397460938
1185,796.996337890625,802.2344360351562,796.1904907226562,799.8168334960938
1186,787.7289428710938,796.5933837890625,799.010986328125,799.010986328125
1187,783.2966918945312,794.5787353515625,792.967041015625,790.952392578125
1188,791.7582397460938,798.2051391601562,788.1318969726562,794.5787353515625
1189,792.967041015625,795.3846435546875,796.5933837890625,798.6080322265625
1190,794.1758422851562,786.5201416015625,796.996337890625,793.7728881835938
1191,791.7582397460938,790.5494384765625,788.937744140625,785.3113403320312
1192,783.6996459960938,794.981689453125,786.923095703125,792.1611938476562
1193,783.6996459960938,793.3699340820312,793.7728881835938,802.2344360351562
1194,788.937744140625,797.3992919921875,795.7875366210938,792.967041015625
1195,791.3552856445312,795.3846435546875,792.5640869140625,790.1465454101562
1196,786.1171875,790.952392578125,792.967041015625,791.3552856445312
1197,782.893798828125,790.5494384765625,794.1758422851562,788.937744140625
1198,787.7289428710938,792.1611938476562,792.967041015625,790.952392578125
1199,788.937744140625,791.3552856445312,791.3552856445312,797.3992919921875
1200,788.937744140625,788.937744140625,790.952392578125,803.8461303710938
1201,793.7728881835938,791.3552856445312,790.1465454101562,801.8314819335938
1202,801.025634765625,794.1758422851562,793.7728881835938,799.010986328125
1203,802.2344360351562,789.7435913085938,792.967041015625,798.2051391601562
1204,796.1904907226562,786.1171875,792.5640869140625,796.996337890625
1205,799.010986328125,794.981689453125,800.2197875976562,798.6080322265625
1206,802.6373901367188,797.8021850585938,802.6373901367188,803.8461303710938
1207,800.6226806640625,792.1611938476562,799.4139404296875,804.6520385742188
1208,795.7875366210938,794.5787353515625,799.010986328125,805.8607788085938
1209,794.981689453125,795.3846435546875,802.6373901367188,809.084228515625
1210,797.8021850585938,797.8021850585938,799.010986328125,807.87548828125
1211,799.4139404296875,796.5933837890625,799.8168334960938,803.8461303710938
1212,799.010986328125,788.1318969726562,804.6520385742188,806.2637329101562
1213,796.1904907226562,785.3113403320312,801.8314819335938,808.2783813476562
1214,795.7875366210938,791.3552856445312,799.010986328125,808.2783813476562
1215,797.8021850585938,793.7728881835938,799.010986328125,806.6666870117188
1216,798.2051391601562,790.952392578125,799.010986328125,801.4285888671875
1217,793.3699340820312,789.7435913085938,792.967041015625,794.5787353515625
1218,792.5640869140625,789.3406372070312,790.952392578125,790.5494384765625
1219,794.5787353515625,791.7582397460938,793.3699340820312,796.5933837890625
1220,786.5201416015625,788.1318969726562,794.1758422851562,796.996337890625
1221,784.908447265625,790.5494384765625,794.5787353515625,791.3552856445312
1222,792.1611938476562,797.3992919921875,794.981689453125,792.1611938476562
1223,791.3552856445312,800.6226806640625,794.1758422851562,792.1611938476562
1224,789.3406372070312,801.4285888671875,792.5640869140625,791.3552856445312
1225,795.7875366210938,796.996337890625,790.1465454101562,794.5787353515625
1226,801.025634765625,796.996337890625,790.952392578125,799.8168334960938
1227,785.7142944335938,791.3552856445312,792.1611938476562,789.7435913085938
1228,779.2673950195312,787.7289428710938,788.1318969726562,778.8644409179688
1229,786.923095703125,793.3699340820312,791.3552856445312,784.5054931640625
1230,792.5640869140625,798.2051391601562,794.981689453125,791.7582397460938
1231,795.7875366210938,799.8168334960938,795.7875366210938,796.1904907226562
1232,796.996337890625,797.3992919921875,796.1904907226562,795.3846435546875
1233,792.967041015625,798.2051391601562,787.3259887695312,787.3259887695312
1234,795.7875366210938,791.7582397460938,784.908447265625,791.7582397460938
1235,795.3846435546875,792.1611938476562,788.937744140625,795.3846435546875
1236,792.5640869140625,801.8314819335938,790.1465454101562,794.5787353515625
1237,803.040283203125,803.8461303710938,791.7582397460938,797.8021850585938
1238,807.87548828125,798.6080322265625,791.3552856445312,805.8607788085938
1239,801.4285888671875,795.3846435546875,791.3552856445312,814.3223266601562
1240,798.2051391601562,793.7728881835938,796.996337890625,805.4578857421875
1241,796.1904907226562,790.952392578125,791.7582397460938,792.967041015625
1242,798.2051391601562,796.1904907226562,794.1758422851562,802.2344360351562
1243,794.5787353515625,795.7875366210938,802.2344360351562,806.6666870117188
1244,788.5347900390625,790.952392578125,799.4139404296875,799.010986328125
1245,790.1465454101562,784.908447265625,793.7728881835938,797.3992919921875
1246,786.923095703125,787.3259887695312,793.7728881835938,793.3699340820312
1247,782.4908447265625,794.981689453125,795.7875366210938,786.5201416015625
1248,784.908447265625,799.8168334960938,801.4285888671875,792.1611938476562
1249,782.893798828125,796.1904907226562,803.4432373046875,795.3846435546875
1250,780.0732421875,792.5640869140625,799.010986328125,791.3552856445312
1251,785.3113403320312,796.996337890625,796.996337890625,794.1758422851562
1252,786.5201416015625,794.1758422851562,800.6226806640625,801.8314819335938
1253,789.7435913085938,790.5494384765625,804.6520385742188,803.8461303710938
1254,792.5640869140625,794.981689453125,799.4139404296875,806.2637329101562
1255,784.1025390625,798.6080322265625,796.5933837890625,795.3846435546875
1256,782.893798828125,797.8021850585938,799.4139404296875,788.937744140625
1257,785.7142944335938,791.3552856445312,794.1758422851562,787.7289428710938
1258,782.087890625,792.5640869140625,790.5494384765625,782.4908447265625
1259,780.4761962890625,796.5933837890625,793.3699340820312,782.893798828125
1260,782.893798828125,790.1465454101562,794.5787353515625,783.6996459960938
1261,786.923095703125,792.967041015625,792.1611938476562,786.1171875
1262,784.908447265625,794.981689453125,788.937744140625,788.937744140625
1263,775.2380981445312,784.5054931640625,787.7289428710938,789.7435913085938
1264,772.4176025390625,784.908447265625,788.937744140625,789.7435913085938
1265,770.8058471679688,786.923095703125,787.3259887695312,798.6080322265625
1266,771.6116943359375,791.7582397460938,787.3259887695312,796.996337890625
1267,778.05859375,797.8021850585938,788.937744140625,787.3259887695312
1268,780.4761962890625,790.1465454101562,787.7289428710938,794.5787353515625
1269,780.879150390625,785.3113403320312,786.1171875,789.7435913085938
1270,783.2966918945312,792.5640869140625,788.5347900390625,781.6849975585938
1271,782.4908447265625,794.981689453125,783.6996459960938,788.1318969726562
1272,776.4468994140625,794.5787353515625,782.4908447265625,786.923095703125
1273,776.4468994140625,797.3992919921875,791.7582397460938,784.908447265625
1274,783.6996459960938,796.1904907226562,793.7728881835938,788.937744140625
1275,783.6996459960938,794.5787353515625,790.952392578125,788.5347900390625
1276,779.6703491210938,797.3992919921875,790.1465454101562,789.7435913085938
1277,784.908447265625,795.7875366210938,785.7142944335938,800.2197875976562
1278,789.7435913085938,794.5787353515625,786.1171875,804.2490844726562
1279,790.5494384765625,789.7435913085938,788.1318969726562,804.2490844726562
1280,793.3699340820312,790.1465454101562,788.5347900390625,798.6080322265625
1281,792.967041015625,793.7728881835938,790.952392578125,781.2820434570312
1282,792.5640869140625,786.1171875,796.996337890625,782.893798828125
1283,788.937744140625,784.908447265625,794.5787353515625,790.1465454101562
1284,786.5201416015625,790.5494384765625,787.7289428710938,787.7289428710938
1285,794.981689453125,799.8168334960938,795.7875366210938,793.3699340820312
1286,788.5347900390625,799.4139404296875,796.5933837890625,801.025634765625
1287,782.087890625,794.1758422851562,791.7582397460938,803.4432373046875
1288,786.923095703125,794.5787353515625,792.1611938476562,807.87548828125
1289,783.2966918945312,794.1758422851562,793.7728881835938,803.4432373046875
1290,785.7142944335938,790.1465454101562,797.8021850585938,795.3846435546875
1291,786.5201416015625,788.5347900390625,797.3992919921875,791.7582397460938
1292,787.7289428710938,792.1611938476562,792.5640869140625,790.5494384765625
1293,792.5640869140625,784.5054931640625,790.952392578125,784.1025390625
1294,792.5640869140625,784.908447265625,796.1904907226562,782.893798828125
1295,792.1611938476562,795.3846435546875,798.2051391601562,784.5054931640625
1296,791.3552856445312,794.981689453125,796.5933837890625,785.7142944335938
1297,788.937744140625,794.5787353515625,797.8021850585938,788.1318969726562
1298,784.908447265625,794.1758422851562,792.967041015625,780.879150390625
1299,787.3259887695312,795.3846435546875,789.3406372070312,779.2673950195312
1300,786.923095703125,796.1904907226562,790.1465454101562,782.087890625
1301,784.1025390625,796.1904907226562,791.7582397460938,783.2966918945312
1302,789.7435913085938,793.7728881835938,795.7875366210938,788.5347900390625
1303,795.7875366210938,789.3406372070312,793.7728881835938,796.996337890625
1304,788.1318969726562,788.5347900390625,797.8021850585938,798.6080322265625
1305,788.1318969726562,792.1611938476562,804.2490844726562,798.6080322265625
1306,793.3699340820312,790.5494384765625,802.2344360351562,801.025634765625
1307,791.7582397460938,790.1465454101562,798.2051391601562,792.1611938476562
1308,789.3406372070312,792.967041015625,792.1611938476562,787.7289428710938
1309,788.5347900390625,796.1904907226562,791.3552856445312,792.1611938476562
1310,788.1318969726562,794.981689453125,792.967041015625,791.3552856445312
1311,784.5054931640625,790.952392578125,794.981689453125,793.3699340820312
1312,790.952392578125,789.7435913085938,796.996337890625,803.4432373046875
1313,805.054931640625,791.7582397460938,799.010986328125,804.6520385742188
1314,804.6520385742188,790.952392578125,803.4432373046875,801.025634765625
1315,793.3699340820312,790.952392578125,801.4285888671875,795.7875366210938
1316,778.8644409179688,793.3699340820312,800.2197875976562,784.5054931640625
1317,778.05859375,792.1611938476562,801.4285888671875,782.4908447265625
1318,784.908447265625,794.5787353515625,800.6226806640625,793.7728881835938
1319,787.3259887695312,796.1904907226562,798.2051391601562,796.996337890625
1320,788.1318969726562,794.5787353515625,796.5933837890625,792.1611938476562
1321,793.7728881835938,799.010986328125,788.5347900390625,795.3846435546875
1322,801.4285888671875,801.025634765625,798.2051391601562,794.5787353515625
1323,794.981689453125,796.5933837890625,805.8607788085938,793.3699340820312
1324,793.3699340820312,795.7875366210938,800.2197875976562,798.6080322265625
1325,797.8021850585938,800.6226806640625,801.025634765625,796.1904907226562
1326,792.5640869140625,801.025634765625,801.025634765625,788.1318969726562
1327,790.1465454101562,799.010986328125,799.8168334960938,786.923095703125
1328,796.996337890625,800.6226806640625,799.8168334960938,785.3113403320312
1329,798.6080322265625,790.952392578125,796.5933837890625,788.1318969726562
1330,793.3699340820312,789.7435913085938,795.7875366210938,787.3259887695312
1331,785.3113403320312,797.8021850585938,796.1904907226562,780.879150390625
1332,781.6849975585938,794.1758422851562,792.967041015625,783.6996459960938
1333,782.893798828125,794.981689453125,796.996337890625,791.3552856445312
1334,784.908447265625,795.7875366210938,796.1904907226562,795.7875366210938
1335,787.7289428710938,797.8021850585938,793.3699340820312,790.952392578125
1336,791.3552856445312,799.010986328125,798.2051391601562,791.3552856445312
1337,790.5494384765625,796.996337890625,794.981689453125,790.5494384765625
1338,789.7435913085938,794.1758422851562,790.952392578125,796.996337890625
1339,786.5201416015625,792.5640869140625,795.7875366210938,799.8168334960938
1340,784.908447265625,791.3552856445312,793.3699340820312,792.967041015625
1341,793.7728881835938,791.3552856445312,788.5347900390625,793.7728881835938
1342,797.8021850585938,783.2966918945312,792.5640869140625,789.7435913085938
1343,795.7875366210938,786.5201416015625,790.5494384765625,790.5494384765625
1344,795.7875366210938,796.996337890625,790.952392578125,795.3846435546875
1345,796.996337890625,796.996337890625,797.8021850585938,798.2051391601562
1346,793.7728881835938,794.5787353515625,797.8021850585938,799.8168334960938
1347,794.5787353515625,798.2051391601562,799.4139404296875,801.8314819335938
1348,793.3699340820312,801.8314819335938,798.2051391601562,801.025634765625
1349,787.3259887695312,798.2051391601562,796.1904907226562,794.981689453125
1350,795.3846435546875,796.5933837890625,793.3699340820312,803.040283203125
1351,794.1758422851562,798.2051391601562,792.967041015625,801.8314819335938
1352,792.1611938476562,796.5933837890625,798.2051391601562,796.5933837890625
1353,797.3992919921875,796.1904907226562,801.4285888671875,798.6080322265625
1354,793.7728881835938,798.6080322265625,802.6373901367188,800.2197875976562
1355,794.1758422851562,792.967041015625,803.8461303710938,800.6226806640625
1356,793.3699340820312,794.981689453125,800.2197875976562,797.3992919921875
1357,789.3406372070312,805.8607788085938,799.010986328125,795.7875366210938
1358,788.5347900390625,803.040283203125,797.8021850585938,794.981689453125
1359,793.3699340820312,800.2197875976562,800.2197875976562,794.5787353515625
1360,793.7728881835938,804.6520385742188,804.6520385742188,797.3992919921875
1361,790.1465454101562,800.2197875976562,799.8168334960938,805.8607788085938
1362,785.7142944335938,792.5640869140625,794.1758422851562,802.6373901367188
1363,784.908447265625,792.5640869140625,793.3699340820312,784.1025390625
1364,788.5347900390625,790.1465454101562,793.3699340820312,782.4908447265625
1365,792.5640869140625,792.5640869140625,794.5787353515625,788.5347900390625
1366,791.3552856445312,797.3992919921875,799.010986328125,789.3406372070312
1367,790.5494384765625,794.5787353515625,795.3846435546875,789.3406372070312
1368,791.3552856445312,796.1904907226562,792.967041015625,787.7289428710938
1369,791.7582397460938,803.8461303710938,790.952392578125,785.7142944335938
1370,797.3992919921875,799.010986328125,788.937744140625,784.908447265625
1371,799.010986328125,794.1758422851562,794.1758422851562,784.5054931640625
1372,793.7728881835938,799.8168334960938,794.5787353515625,790.1465454101562
1373,793.3699340820312,796.996337890625,797.3992919921875,797.8021850585938
1374,794.1758422851562,793.7728881835938,801.025634765625,794.1758422851562
1375,792.5640869140625,794.5787353515625,799.010986328125,788.5347900390625
1376,795.7875366210938,785.3113403320312,795.7875366210938,797.3992919921875
1377,793.7728881835938,786.1171875,793.3699340820312,800.6226806640625
1378,788.1318969726562,789.7435913085938,795.3846435546875,794.981689453125
1379,792.967041015625,788.937744140625,790.5494384765625,789.7435913085938
1380,795.7875366210938,792.5640869140625,787.3259887695312,788.5347900390625
1381,784.1025390625,796.1904907226562,796.1904907226562,790.5494384765625
1382,784.908447265625,798.2051391601562,796.996337890625,794.1758422851562
1383,790.1465454101562,796.5933837890625,796.996337890625,794.981689453125
1384,784.1025390625,793.7728881835938,805.054931640625,801.025634765625
1385,788.937744140625,792.967041015625,803.8461303710938,805.4578857421875
1386,795.3846435546875,793.3699340820312,798.6080322265625,800.2197875976562
1387,795.3846435546875,792.5640869140625,800.6226806640625,795.7875366210938
1388,795.3846435546875,790.952392578125,801.4285888671875,793.7728881835938
1389,794.5787353515625,791.3552856445312,794.981689453125,796.5933837890625
1390,803.4432373046875,799.8168334960938,794.981689453125,805.054931640625
1391,807.069580078125,799.8168334960938,798.6080322265625,802.6373901367188
1392,794.1758422851562,794.1758422851562,796.996337890625,792.5640869140625
1393,788.1318969726562,799.4139404296875,794.5787353515625,791.7582397460938
1394,793.7728881835938,802.6373901367188,795.3846435546875,796.5933837890625
1395,795.3846435546875,793.7728881835938,798.6080322265625,801.025634765625
1396,794.5787353515625,790.1465454101562,800.6226806640625,805.8607788085938
1397,789.3406372070312,792.1611938476562,797.3992919921875,787.7289428710938
1398,785.3113403320312,789.7435913085938,795.7875366210938,774.029296875
1399,796.5933837890625,797.3992919921875,804.2490844726562,790.5494384765625
1400,800.6226806640625,794.1758422851562,804.6520385742188,792.5640869140625
1401,796.996337890625,787.3259887695312,793.7728881835938,778.4615478515625
1402,795.3846435546875,792.1611938476562,794.1758422851562,782.087890625
1403,794.1758422851562,792.5640869140625,798.2051391601562,794.981689453125
1404,794.981689453125,798.2051391601562,802.6373901367188,798.2051391601562
1405,795.3846435546875,805.4578857421875,805.4578857421875,793.3699340820312
1406,791.7582397460938,797.3992919921875,799.4139404296875,795.3846435546875
1407,787.3259887695312,791.3552856445312,800.6226806640625,801.8314819335938
1408,782.4908447265625,791.7582397460938,803.4432373046875,795.7875366210938
1409,784.908447265625,787.7289428710938,803.8461303710938,792.5640869140625
1410,787.3259887695312,787.7289428710938,803.4432373046875,795.3846435546875
1411,788.1318969726562,788.1318969726562,798.6080322265625,801.8314819335938
1412,782.893798828125,783.6996459960938,797.8021850585938,794.1758422851562
1413,777.6557006835938,788.5347900390625,796.1904907226562,786.5201416015625
1414,775.6410522460938,793.3699340820312,792.967041015625,784.908447265625
1415,780.4761962890625,794.5787353515625,795.7875366210938,786.923095703125
1416,792.5640869140625,799.4139404296875,795.7875366210938,794.1758422851562
1417,789.7435913085938,792.967041015625,793.3699340820312,787.3259887695312
1418,788.937744140625,785.7142944335938,789.7435913085938,786.1171875
1419,792.5640869140625,790.5494384765625,788.5347900390625,796.5933837890625
1420,786.5201416015625,787.7289428710938,788.1318969726562,798.2051391601562
1421,788.937744140625,784.5054931640625,792.5640869140625,800.2197875976562
1422,792.967041015625,789.3406372070312,797.8021850585938,811.5018310546875
1423,786.5201416015625,792.5640869140625,796.1904907226562,813.5164794921875
1424,782.893798828125,790.1465454101562,794.1758422851562,797.8021850585938
1425,785.3113403320312,790.1465454101562,791.7582397460938,788.5347900390625
1426,787.7289428710938,790.1465454101562,790.952392578125,794.1758422851562
1427,786.5201416015625,787.7289428710938,790.5494384765625,796.1904907226562
1428,780.4761962890625,786.1171875,790.952392578125,791.7582397460938
1429,780.4761962890625,784.5054931640625,795.7875366210938,800.6226806640625
1430,790.1465454101562,789.7435913085938,793.7728881835938,806.2637329101562
1431,799.8168334960938,792.1611938476562,794.1758422851562,801.8314819335938
1432,796.1904907226562,788.937744140625,800.2197875976562,794.1758422851562
1433,784.908447265625,794.1758422851562,799.8168334960938,790.1465454101562
1434,779.6703491210938,793.7728881835938,796.5933837890625,786.1171875
1435,776.8497924804688,786.5201416015625,796.1904907226562,783.6996459960938
1436,778.8644409179688,789.7435913085938,798.2051391601562,786.1171875
1437,785.3113403320312,793.3699340820312,799.010986328125,790.1465454101562
1438,780.4761962890625,790.1465454101562,796.5933837890625,792.1611938476562
1439,783.2966918945312,789.7435913085938,799.4139404296875,794.1758422851562
1440,791.3552856445312,788.5347900390625,797.3992919921875,786.923095703125
1441,794.5787353515625,790.952392578125,791.3552856445312,778.05859375
1442,796.5933837890625,791.7582397460938,788.937744140625,790.1465454101562
1443,794.1758422851562,785.7142944335938,794.1758422851562,798.6080322265625
1444,790.1465454101562,787.7289428710938,798.6080322265625,799.4139404296875
1445,793.3699340820312,792.1611938476562,794.981689453125,803.4432373046875
1446,801.025634765625,789.3406372070312,791.3552856445312,816.3369750976562
1447,790.5494384765625,787.3259887695312,794.981689453125,809.4871826171875
1448,774.029296875,788.937744140625,795.7875366210938,786.1171875
1449,774.8351440429688,793.3699340820312,795.7875366210938,782.893798828125
1450,781.2820434570312,790.5494384765625,796.996337890625,790.1465454101562
1451,773.2234497070312,787.3259887695312,788.5347900390625,785.3113403320312
1452,772.0146484375,788.5347900390625,791.3552856445312,781.6849975585938
1453,778.4615478515625,785.7142944335938,799.010986328125,780.4761962890625
1454,775.6410522460938,784.908447265625,794.981689453125,777.6557006835938
1455,771.2088012695312,788.1318969726562,790.5494384765625,775.6410522460938
1456,774.4322509765625,793.3699340820312,788.937744140625,778.8644409179688
1457,783.6996459960938,797.8021850585938,792.5640869140625,786.1171875
1458,786.1171875,794.5787353515625,799.8168334960938,791.3552856445312
1459,784.908447265625,794.5787353515625,799.010986328125,794.1758422851562
1460,786.1171875,795.3846435546875,795.3846435546875,792.5640869140625
1461,791.7582397460938,791.3552856445312,796.5933837890625,790.1465454101562
1462,792.1611938476562,793.3699340820312,799.8168334960938,791.3552856445312
1463,790.952392578125,792.1611938476562,797.8021850585938,795.7875366210938
1464,787.3259887695312,786.923095703125,793.7728881835938,793.3699340820312
1465,781.2820434570312,788.937744140625,792.5640869140625,796.996337890625
1466,790.952392578125,792.5640869140625,799.010986328125,796.996337890625
1467,801.8314819335938,789.3406372070312,803.040283203125,797.3992919921875
1468,797.3992919921875,788.937744140625,794.5787353515625,795.3846435546875
1469,792.967041015625,792.967041015625,791.3552856445312,795.7875366210938
1470,789.7435913085938,794.1758422851562,791.7582397460938,789.7435913085938
1471,790.952392578125,792.967041015625,792.967041015625,786.1171875
1472,794.1758422851562,792.5640869140625,797.8021850585938,788.1318969726562
1473,790.952392578125,793.3699340820312,794.1758422851562,784.908447265625
1474,792.967041015625,792.5640869140625,791.3552856445312,785.7142944335938
1475,794.981689453125,794.5787353515625,790.952392578125,786.1171875
1476,790.952392578125,792.5640869140625,789.7435913085938,792.1611938476562
1477,794.1758422851562,791.7582397460938,793.7728881835938,794.5787353515625
1478,796.1904907226562,790.1465454101562,799.8168334960938,794.981689453125
1479,795.7875366210938,790.952392578125,798.2051391601562,797.3992919921875
1480,795.3846435546875,794.5787353515625,794.981689453125,799.8168334960938
1481,788.937744140625,794.1758422851562,796.996337890625,796.5933837890625
1482,779.6703491210938,792.5640869140625,795.7875366210938,788.5347900390625
1483,784.908447265625,791.3552856445312,796.5933837890625,799.4139404296875
1484,787.7289428710938,793.7728881835938,796.996337890625,804.6520385742188
1485,787.3259887695312,799.4139404296875,795.3846435546875,797.3992919921875
1486,794.1758422851562,798.6080322265625,798.2051391601562,797.3992919921875
1487,801.4285888671875,794.5787353515625,796.996337890625,799.4139404296875
1488,800.6226806640625,792.967041015625,797.3992919921875,801.025634765625
1489,792.1611938476562,792.5640869140625,799.8168334960938,796.1904907226562
1490,786.5201416015625,791.3552856445312,797.8021850585938,787.3259887695312
1491,787.3259887695312,790.5494384765625,794.981689453125,782.893798828125
1492,791.3552856445312,792.967041015625,794.1758422851562,791.3552856445312
1493,791.7582397460938,795.7875366210938,800.2197875976562,790.1465454101562
1494,793.7728881835938,802.2344360351562,804.2490844726562,786.923095703125
1495,793.7728881835938,801.4285888671875,798.2051391601562,787.7289428710938
1496,789.7435913085938,795.7875366210938,796.996337890625,783.6996459960938
1497,792.5640869140625,803.040283203125,799.4139404296875,778.8644409179688
1498,798.6080322265625,805.8607788085938,801.8314819335938,784.908447265625
1499,789.3406372070312,798.2051391601562,801.4285888671875,786.923095703125
1500,776.4468994140625,792.1611938476562,794.1758422851562,783.2966918945312
1501,780.879150390625,795.3846435546875,794.981689453125,786.1171875
1502,786.1171875,791.7582397460938,800.2197875976562,782.893798828125
1503,786.5201416015625,785.7142944335938,794.5787353515625,787.3259887695312
1504,787.7289428710938,787.7289428710938,794.5787353515625,792.967041015625
1505,782.087890625,792.967041015625,799.4139404296875,784.5054931640625
1506,783.2966918945312,790.5494384765625,797.8021850585938,788.937744140625
1507,794.1758422851562,787.3259887695312,798.6080322265625,802.6373901367188
1508,800.6226806640625,794.1758422851562,801.4285888671875,801.4285888671875
1509,804.6520385742188,798.6080322265625,791.3552856445312,792.1611938476562
1510,803.8461303710938,797.8021850585938,793.7728881835938,793.3699340820312
1511,794.1758422851562,794.981689453125,794.1758422851562,790.1465454101562
1512,792.967041015625,792.5640869140625,790.952392578125,793.7728881835938
1513,805.8607788085938,794.981689453125,795.7875366210938,807.87548828125
1514,812.7106323242188,799.010986328125,797.3992919921875,817.94873046875
1515,798.2051391601562,796.5933837890625,795.3846435546875,807.069580078125
1516,782.087890625,795.3846435546875,791.7582397460938,792.1611938476562
1517,783.6996459960938,801.8314819335938,794.981689453125,788.937744140625
1518,796.1904907226562,807.069580078125,797.8021850585938,800.2197875976562
1519,799.010986328125,801.4285888671875,792.1611938476562,808.2783813476562
1520,790.5494384765625,801.8314819335938,793.7728881835938,793.7728881835938
1521,798.6080322265625,803.040283203125,794.5787353515625,788.1318969726562
1522,796.1904907226562,797.3992919921875,796.996337890625,785.3113403320312
1523,787.7289428710938,798.6080322265625,797.3992919921875,782.4908447265625
1524,786.5201416015625,800.2197875976562,792.5640869140625,786.923095703125
1525,785.7142944335938,795.7875366210938,792.967041015625,787.3259887695312
1526,788.5347900390625,792.5640869140625,793.7728881835938,784.908447265625
1527,784.908447265625,789.3406372070312,795.3846435546875,781.2820434570312
1528,786.5201416015625,792.5640869140625,793.3699340820312,786.5201416015625
1529,788.937744140625,795.7875366210938,792.5640869140625,794.1758422851562
1530,787.7289428710938,793.7728881835938,790.5494384765625,796.5933837890625
1531,792.5640869140625,794.5787353515625,790.1465454101562,796.5933837890625
1532,794.1758422851562,802.2344360351562,794.5787353515625,790.952392578125
1533,792.1611938476562,802.2344360351562,797.8021850585938,792.967041015625
1534,789.7435913085938,790.1465454101562,796.5933837890625,792.5640869140625
1535,790.1465454101562,791.7582397460938,794.981689453125,795.3846435546875
1536,788.937744140625,794.5787353515625,795.3846435546875,799.4139404296875
1537,788.5347900390625,794.981689453125,792.1611938476562,794.1758422851562
1538,790.5494384765625,803.040283203125,789.7435913085938,792.5640869140625
1539,797.8021850585938,801.8314819335938,791.7582397460938,796.1904907226562
1540,797.8021850585938,799.8168334960938,793.3699340820312,788.1318969726562
1541,798.6080322265625,803.4432373046875,791.3552856445312,783.6996459960938
1542,802.6373901367188,805.8607788085938,792.967041015625,789.3406372070312
1543,803.4432373046875,809.4871826171875,792.5640869140625,795.3846435546875
1544,801.025634765625,803.4432373046875,800.6226806640625,792.967041015625
1545,797.8021850585938,796.5933837890625,803.4432373046875,792.1611938476562
1546,803.4432373046875,802.6373901367188,801.025634765625,798.6080322265625
1547,809.4871826171875,806.2637329101562,806.6666870117188,802.6373901367188
1548,804.6520385742188,799.4139404296875,803.4432373046875,801.025634765625
1549,797.3992919921875,790.952392578125,798.2051391601562,804.6520385742188
1550,791.7582397460938,792.967041015625,798.6080322265625,804.6520385742188
1551,788.937744140625,795.3846435546875,799.8168334960938,800.2197875976562
1552,787.7289428710938,799.4139404296875,801.025634765625,801.025634765625
1553,788.1318969726562,794.981689453125,799.8168334960938,805.054931640625
1554,786.923095703125,792.5640869140625,790.5494384765625,803.4432373046875
1555,784.5054931640625,797.8021850585938,788.1318969726562,792.5640869140625
1556,785.7142944335938,796.5933837890625,788.937744140625,788.5347900390625
1557,789.3406372070312,792.5640869140625,790.952392578125,786.1171875
1558,784.1025390625,797.3992919921875,791.3552856445312,780.0732421875
1559,779.6703491210938,802.2344360351562,789.7435913085938,782.087890625
1560,788.937744140625,802.6373901367188,788.1318969726562,786.923095703125
1561,790.5494384765625,797.8021850585938,787.3259887695312,792.1611938476562
1562,788.5347900390625,797.3992919921875,792.1611938476562,800.2197875976562
1563,786.5201416015625,801.025634765625,794.5787353515625,794.981689453125
1564,792.967041015625,795.7875366210938,798.2051391601562,792.1611938476562
1565,797.3992919921875,790.952392578125,796.996337890625,795.7875366210938
1566,786.1171875,792.1611938476562,796.5933837890625,791.7582397460938
1567,784.5054931640625,787.3259887695312,796.1904907226562,791.3552856445312
1568,786.1171875,792.5640869140625,791.7582397460938,790.952392578125
1569,781.6849975585938,797.8021850585938,794.981689453125,790.5494384765625
1570,778.05859375,793.7728881835938,795.7875366210938,786.923095703125
1571,784.1025390625,792.5640869140625,794.981689453125,791.3552856445312
1572,788.1318969726562,790.1465454101562,796.996337890625,794.1758422851562
1573,777.6557006835938,787.7289428710938,796.996337890625,786.1171875
1574,779.2673950195312,793.3699340820312,801.4285888671875,790.5494384765625
1575,790.952392578125,796.1904907226562,805.054931640625,790.1465454101562
1576,796.5933837890625,793.7728881835938,801.025634765625,798.2051391601562
1577,795.7875366210938,793.7728881835938,794.5787353515625,807.069580078125
1578,793.3699340820312,797.3992919921875,795.3846435546875,793.7728881835938
1579,790.1465454101562,796.1904907226562,795.7875366210938,788.5347900390625
1580,791.3552856445312,788.5347900390625,794.1758422851562,793.3699340820312
