timestamp,RAW_TP9,RAW_AF7,RAW_AF8,RAW_TP10
1,783.2966918945312,786.5201416015625,789.7435913085938,790.952392578125
2,782.4908447265625,788.1318969726562,790.952392578125,791.3552856445312
3,782.4908447265625,791.7582397460938,788.937744140625,786.1171875
4,783.2966918945312,789.7435913085938,792.1611938476562,781.2820434570312
5,783.2966918945312,784.5054931640625,790.5494384765625,782.087890625
6,783.2966918945312,784.5054931640625,791.7582397460938,788.5347900390625
7,790.952392578125,784.908447265625,793.7728881835938,799.4139404296875
8,789.7435913085938,785.3113403320312,792.967041015625,800.6226806640625
9,782.893798828125,790.1465454101562,792.1611938476562,787.7289428710938
10,786.5201416015625,790.952392578125,792.5640869140625,790.1465454101562
11,787.3259887695312,784.5054931640625,796.5933837890625,793.3699340820312
12,785.3113403320312,784.1025390625,794.981689453125,789.3406372070312
13,786.5201416015625,794.981689453125,794.981689453125,784.908447265625
14,789.7435913085938,796.1904907226562,797.3992919921875,784.908447265625
15,796.1904907226562,793.3699340820312,799.4139404296875,793.3699340820312
16,791.7582397460938,790.952392578125,800.2197875976562,792.5640869140625
17,787.3259887695312,791.3552856445312,798.6080322265625,790.952392578125
18,788.937744140625,795.7875366210938,796.1904907226562,788.1318969726562
19,790.952392578125,793.7728881835938,792.1611938476562,790.952392578125
20,788.937744140625,790.1465454101562,792.5640869140625,790.952392578125
21,786.923095703125,795.7875366210938,797.3992919921875,788.1318969726562
22,782.4908447265625,793.3699340820312,800.2197875976562,793.7728881835938
23,780.0732421875,788.937744140625,799.010986328125,784.5054931640625
24,788.937744140625,792.967041015625,801.4285888671875,780.0732421875
25,790.5494384765625,795.3846435546875,801.8314819335938,786.5201416015625
26,779.2673950195312,789.3406372070312,795.7875366210938,784.908447265625
27,781.2820434570312,785.3113403320312,795.3846435546875,786.923095703125
28,786.923095703125,788.5347900390625,798.2051391601562,789.7435913085938
29,785.3113403320312,785.7142944335938,795.7875366210938,787.7289428710938
30,788.5347900390625,780.4761962890625,789.3406372070312,789.3406372070312
31,790.5494384765625,778.4615478515625,790.1465454101562,796.996337890625
32,786.1171875,785.7142944335938,792.967041015625,801.8314819335938
33,781.6849975585938,790.5494384765625,790.952392578125,791.3552856445312
34,782.087890625,785.3113403320312,786.923095703125,792.5640869140625
35,786.5201416015625,783.2966918945312,788.937744140625,808.2783813476562
36,788.937744140625,786.923095703125,793.3699340820312,806.2637329101562
37,786.1171875,789.3406372070312,790.1465454101562,802.2344360351562
38,782.087890625,790.952392578125,786.1171875,800.2197875976562
39,787.3259887695312,790.952392578125,790.952392578125,792.967041015625
40,788.937744140625,795.7875366210938,794.1758422851562,788.937744140625
41,788.937744140625,794.5787353515625,792.967041015625,789.7435913085938
42,785.3113403320312,788.1318969726562,793.3699340820312,788.5347900390625
43,780.0732421875,784.5054931640625,792.1611938476562,784.908447265625
44,788.1318969726562,780.879150390625,796.1904907226562,782.893798828125
45,794.1758422851562,782.893798828125,795.3846435546875,781.6849975585938
46,797.8021850585938,779.2673950195312,789.7435913085938,790.5494384765625
47,796.5933837890625,787.3259887695312,792.1611938476562,792.5640869140625
48,787.7289428710938,792.967041015625,794.1758422851562,783.6996459960938
49,788.1318969726562,790.1465454101562,793.3699340820312,784.908447265625
50,795.7875366210938,788.5347900390625,796.5933837890625,790.952392578125
51,796.1904907226562,784.5054931640625,799.8168334960938,795.3846435546875
52,796.996337890625,792.1611938476562,801.8314819335938,796.5933837890625
53,805.054931640625,796.5933837890625,801.025634765625,799.010986328125
54,805.054931640625,794.981689453125,797.3992919921875,801.025634765625
55,798.2051391601562,794.1758422851562,791.7582397460938,804.6520385742188
56,799.010986328125,786.1171875,792.1611938476562,807.069580078125
57,796.1904907226562,788.5347900390625,801.8314819335938,805.4578857421875
58,797.3992919921875,794.5787353515625,797.3992919921875,802.2344360351562
59,802.6373901367188,792.5640869140625,794.981689453125,804.6520385742188
60,797.8021850585938,790.5494384765625,797.8021850585938,798.6080322265625
61,796.5933837890625,792.1611938476562,797.3992919921875,789.7435913085938
62,795.7875366210938,791.3552856445312,797.8021850585938,791.7582397460938
63,790.952392578125,788.5347900390625,798.6080322265625,791.3552856445312
64,793.3699340820312,788.937744140625,799.4139404296875,786.5201416015625
65,801.025634765625,786.5201416015625,796.5933837890625,796.1904907226562
66,799.8168334960938,783.6996459960938,794.981689453125,799.010986328125
67,794.1758422851562,785.7142944335938,798.6080322265625,788.1318969726562
68,792.1611938476562,785.7142944335938,795.7875366210938,793.7728881835938
69,790.1465454101562,782.893798828125,791.3552856445312,795.7875366210938
70,793.3699340820312,788.1318969726562,796.5933837890625,786.923095703125
71,791.3552856445312,792.967041015625,797.8021850585938,785.3113403320312
72,789.7435913085938,792.5640869140625,795.3846435546875,787.7289428710938
73,794.981689453125,794.5787353515625,798.2051391601562,788.5347900390625
74,791.3552856445312,795.7875366210938,796.5933837890625,779.2673950195312
75,788.937744140625,791.7582397460938,792.967041015625,774.8351440429688
76,797.8021850585938,786.1171875,792.5640869140625,784.1025390625
77,800.6226806640625,786.5201416015625,791.3552856445312,787.3259887695312
78,794.981689453125,790.952392578125,791.3552856445312,783.6996459960938
79,799.010986328125,790.5494384765625,791.7582397460938,783.2966918945312
80,797.3992919921875,790.1465454101562,790.1465454101562,786.1171875
81,790.5494384765625,787.7289428710938,790.1465454101562,784.908447265625
82,792.5640869140625,788.5347900390625,793.7728881835938,780.4761962890625
83,794.1758422851562,794.981689453125,799.4139404296875,784.908447265625
84,796.996337890625,799.010986328125,801.025634765625,788.1318969726562
85,788.1318969726562,792.5640869140625,794.981689453125,783.6996459960938
86,786.5201416015625,790.5494384765625,788.937744140625,784.5054931640625
87,797.3992919921875,795.3846435546875,791.7582397460938,792.967041015625
88,791.7582397460938,791.3552856445312,793.7728881835938,794.1758422851562
89,789.7435913085938,788.5347900390625,790.952392578125,790.952392578125
90,794.981689453125,789.7435913085938,787.3259887695312,789.3406372070312
91,793.3699340820312,791.3552856445312,787.7289428710938,790.952392578125
92,797.3992919921875,796.996337890625,792.967041015625,799.010986328125
93,792.5640869140625,796.5933837890625,794.1758422851562,796.5933837890625
94,782.4908447265625,791.7582397460938,789.3406372070312,790.5494384765625
95,780.4761962890625,784.908447265625,789.7435913085938,790.5494384765625
96,783.2966918945312,783.2966918945312,794.5787353515625,791.3552856445312
97,796.996337890625,794.1758422851562,793.3699340820312,798.6080322265625
98,793.3699340820312,791.7582397460938,792.5640869140625,797.8021850585938
99,790.1465454101562,789.3406372070312,795.3846435546875,796.996337890625
100,796.996337890625,794.1758422851562,799.8168334960938,797.8021850585938
101,803.8461303710938,794.5787353515625,796.996337890625,795.3846435546875
102,801.8314819335938,795.3846435546875,793.7728881835938,787.7289428710938
103,798.2051391601562,790.1465454101562,791.7582397460938,791.3552856445312
104,801.8314819335938,786.1171875,786.5201416015625,791.3552856445312
105,791.7582397460938,789.7435913085938,786.923095703125,778.4615478515625
106,784.1025390625,791.7582397460938,786.923095703125,781.2820434570312
107,786.5201416015625,790.952392578125,790.952392578125,786.5201416015625
108,790.952392578125,787.7289428710938,794.981689453125,788.1318969726562
109,792.967041015625,788.5347900390625,795.3846435546875,793.7728881835938
110,794.981689453125,792.967041015625,796.996337890625,803.8461303710938
111,792.967041015625,788.937744140625,794.5787353515625,807.4725341796875
112,795.7875366210938,785.3113403320312,795.7875366210938,808.6813354492188
113,795.7875366210938,787.3259887695312,795.7875366210938,808.2783813476562
114,786.923095703125,786.923095703125,790.5494384765625,805.054931640625
115,786.1171875,784.5054931640625,792.1611938476562,801.8314819335938
116,785.3113403320312,784.1025390625,794.5787353515625,795.7875366210938
117,782.4908447265625,785.7142944335938,801.4285888671875,790.952392578125
118,783.6996459960938,787.3259887695312,802.2344360351562,792.967041015625
119,785.7142944335938,782.087890625,794.5787353515625,802.6373901367188
120,786.5201416015625,782.4908447265625,788.1318969726562,795.7875366210938
121,794.5787353515625,792.967041015625,789.7435913085938,792.967041015625
122,800.2197875976562,791.7582397460938,793.7728881835938,786.5201416015625
123,794.981689453125,790.5494384765625,793.3699340820312,777.2527465820312
124,791.3552856445312,795.3846435546875,792.1611938476562,782.4908447265625
125,789.7435913085938,796.1904907226562,792.5640869140625,779.6703491210938
126,782.893798828125,793.7728881835938,792.967041015625,776.0439453125
127,774.8351440429688,789.7435913085938,787.7289428710938,780.4761962890625
128,776.0439453125,790.5494384765625,787.7289428710938,780.4761962890625
129,780.0732421875,793.7728881835938,790.952392578125,782.087890625
130,780.4761962890625,791.3552856445312,791.3552856445312,792.967041015625
131,786.5201416015625,788.5347900390625,794.981689453125,797.8021850585938
132,796.996337890625,787.7289428710938,799.010986328125,790.5494384765625
133,800.2197875976562,786.5201416015625,801.025634765625,791.3552856445312
134,795.7875366210938,790.1465454101562,795.7875366210938,793.3699340820312
135,792.1611938476562,799.010986328125,796.1904907226562,794.1758422851562
136,785.7142944335938,803.040283203125,796.5933837890625,783.6996459960938
137,785.3113403320312,799.010986328125,796.1904907226562,783.2966918945312
138,792.967041015625,792.5640869140625,798.6080322265625,797.8021850585938
139,790.952392578125,789.3406372070312,800.2197875976562,794.981689453125
140,786.1171875,788.1318969726562,802.6373901367188,788.937744140625
141,788.937744140625,792.1611938476562,799.010986328125,790.952392578125
142,795.3846435546875,789.3406372070312,793.3699340820312,797.8021850585938
143,797.3992919921875,784.1025390625,791.3552856445312,796.5933837890625
144,798.6080322265625,787.7289428710938,790.1465454101562,793.7728881835938
145,794.1758422851562,792.1611938476562,794.1758422851562,791.3552856445312
146,788.1318969726562,798.2051391601562,793.3699340820312,784.1025390625
147,788.5347900390625,803.8461303710938,792.1611938476562,786.1171875
148,783.2966918945312,801.8314819335938,797.3992919921875,787.3259887695312
149,782.893798828125,796.5933837890625,793.7728881835938,783.6996459960938
150,783.2966918945312,797.3992919921875,794.5787353515625,784.1025390625
151,777.2527465820312,798.6080322265625,799.010986328125,782.893798828125
152,776.4468994140625,793.3699340820312,799.8168334960938,780.4761962890625
153,776.4468994140625,786.923095703125,799.4139404296875,789.3406372070312
154,774.4322509765625,788.1318969726562,799.010986328125,794.1758422851562
155,768.7911987304688,784.1025390625,794.5787353515625,787.7289428710938
156,763.5531005859375,782.087890625,789.7435913085938,786.923095703125
157,765.970703125,792.1611938476562,792.967041015625,790.1465454101562
158,769.1941528320312,796.5933837890625,795.7875366210938,792.5640869140625
159,765.5677490234375,791.3552856445312,795.7875366210938,792.5640869140625
160,769.1941528320312,785.7142944335938,796.996337890625,794.981689453125
161,774.8351440429688,780.879150390625,793.3699340820312,795.7875366210938
162,774.8351440429688,780.0732421875,795.3846435546875,792.5640869140625
163,779.2673950195312,783.6996459960938,793.7728881835938,790.1465454101562
164,792.5640869140625,784.5054931640625,789.7435913085938,793.3699340820312
165,799.010986328125,782.087890625,790.952392578125,796.5933837890625
166,797.8021850585938,783.6996459960938,792.1611938476562,789.7435913085938
167,803.040283203125,787.7289428710938,796.1904907226562,786.1171875
168,803.8461303710938,789.3406372070312,797.8021850585938,786.1171875
169,804.6520385742188,788.5347900390625,792.967041015625,789.3406372070312
170,807.4725341796875,786.1171875,792.967041015625,788.5347900390625
171,800.6226806640625,788.1318969726562,789.7435913085938,782.893798828125
172,800.6226806640625,795.3846435546875,787.7289428710938,788.5347900390625
173,801.8314819335938,802.6373901367188,787.7289428710938,790.952392578125
174,796.996337890625,801.4285888671875,784.5054931640625,788.5347900390625
175,796.996337890625,798.2051391601562,785.7142944335938,787.7289428710938
176,789.7435913085938,797.3992919921875,784.908447265625,784.5054931640625
177,779.2673950195312,797.3992919921875,784.908447265625,779.2673950195312
178,774.029296875,799.8168334960938,786.5201416015625,772.4176025390625
179,774.4322509765625,797.3992919921875,785.3113403320312,780.0732421875
180,774.4322509765625,792.5640869140625,786.5201416015625,788.937744140625
181,774.029296875,786.1171875,788.937744140625,786.5201416015625
182,774.8351440429688,784.908447265625,789.7435913085938,787.3259887695312
183,778.05859375,784.5054931640625,785.3113403320312,790.5494384765625
184,780.4761962890625,779.2673950195312,784.5054931640625,791.3552856445312
185,780.879150390625,781.2820434570312,788.937744140625,788.1318969726562
186,784.5054931640625,792.5640869140625,788.1318969726562,784.908447265625
187,791.3552856445312,797.8021850585938,780.879150390625,786.1171875
188,793.7728881835938,793.7728881835938,781.6849975585938,794.1758422851562
189,799.010986328125,797.3992919921875,788.937744140625,794.1758422851562
190,808.2783813476562,801.025634765625,792.1611938476562,787.3259887695312
191,808.2783813476562,795.3846435546875,790.1465454101562,795.7875366210938
192,807.87548828125,792.967041015625,791.7582397460938,801.4285888671875
193,813.113525390625,796.5933837890625,796.5933837890625,803.8461303710938
194,813.91943359375,794.981689453125,794.1758422851562,810.2930297851562
195,810.6959838867188,786.1171875,795.3846435546875,811.90478515625
196,808.2783813476562,787.7289428710938,797.3992919921875,811.098876953125
197,802.2344360351562,791.3552856445312,796.1904907226562,812.3076782226562
198,797.8021850585938,788.5347900390625,797.3992919921875,812.7106323242188
199,797.3992919921875,790.1465454101562,801.025634765625,817.1428833007812
200,794.981689453125,793.7728881835938,803.8461303710938,821.97802734375
201,788.5347900390625,796.5933837890625,803.4432373046875,817.1428833007812
202,780.0732421875,793.3699340820312,804.6520385742188,810.2930297851562
203,782.087890625,788.5347900390625,809.084228515625,807.4725341796875
204,784.1025390625,791.3552856445312,809.084228515625,805.8607788085938
205,779.6703491210938,794.1758422851562,810.2930297851562,801.4285888671875
206,772.0146484375,784.5054931640625,809.084228515625,795.3846435546875
207,767.9853515625,784.1025390625,803.040283203125,786.5201416015625
208,776.4468994140625,794.981689453125,801.025634765625,782.087890625
209,780.879150390625,796.1904907226562,801.8314819335938,783.6996459960938
210,784.1025390625,790.1465454101562,797.8021850585938,789.3406372070312
211,785.7142944335938,786.1171875,795.3846435546875,786.5201416015625
212,783.6996459960938,792.967041015625,794.1758422851562,776.4468994140625
213,792.967041015625,794.981689453125,794.1758422851562,778.8644409179688
214,798.2051391601562,794.981689453125,795.3846435546875,780.879150390625
215,796.996337890625,796.5933837890625,797.3992919921875,784.908447265625
216,792.967041015625,792.967041015625,799.010986328125,788.1318969726562
217,784.908447265625,792.1611938476562,795.7875366210938,781.2820434570312
218,786.1171875,794.5787353515625,795.7875366210938,786.5201416015625
219,793.3699340820312,794.1758422851562,794.981689453125,790.1465454101562
220,801.025634765625,795.3846435546875,797.3992919921875,786.1171875
221,804.2490844726562,797.3992919921875,800.2197875976562,791.3552856445312
222,800.2197875976562,789.7435913085938,792.5640869140625,794.981689453125
223,793.3699340820312,787.3259887695312,788.5347900390625,793.7728881835938
224,790.952392578125,794.5787353515625,792.967041015625,792.5640869140625
225,792.5640869140625,794.5787353515625,801.025634765625,796.996337890625
226,789.7435913085938,789.3406372070312,799.8168334960938,806.6666870117188
227,788.5347900390625,794.1758422851562,796.1904907226562,811.90478515625
228,786.5201416015625,795.3846435546875,795.3846435546875,803.040283203125
229,784.1025390625,788.5347900390625,792.967041015625,793.7728881835938
230,787.7289428710938,791.7582397460938,793.7728881835938,799.4139404296875
231,792.5640869140625,797.8021850585938,794.1758422851562,801.8314819335938
232,789.7435913085938,799.8168334960938,793.7728881835938,793.7728881835938
233,789.7435913085938,791.3552856445312,788.1318969726562,792.1611938476562
234,795.3846435546875,790.952392578125,789.3406372070312,791.7582397460938
235,795.7875366210938,795.3846435546875,793.3699340820312,793.7728881835938
236,794.5787353515625,795.3846435546875,794.1758422851562,793.3699340820312
237,792.967041015625,795.3846435546875,794.981689453125,787.7289428710938
238,796.1904907226562,786.5201416015625,794.1758422851562,798.6080322265625
239,799.8168334960938,793.3699340820312,791.3552856445312,801.025634765625
240,798.2051391601562,796.996337890625,791.7582397460938,794.1758422851562
241,798.2051391601562,789.7435913085938,790.952392578125,782.893798828125
242,799.4139404296875,790.1465454101562,788.1318969726562,775.2380981445312
243,792.5640869140625,791.7582397460938,791.3552856445312,781.2820434570312
244,792.5640869140625,792.5640869140625,791.3552856445312,787.3259887695312
245,796.5933837890625,788.937744140625,791.3552856445312,792.1611938476562
246,791.7582397460938,792.1611938476562,794.1758422851562,792.967041015625
247,788.5347900390625,795.3846435546875,791.7582397460938,792.967041015625
248,786.1171875,794.981689453125,789.7435913085938,788.5347900390625
249,789.3406372070312,793.3699340820312,790.952392578125,793.7728881835938
250,795.7875366210938,791.7582397460938,791.7582397460938,799.010986328125
251,792.1611938476562,795.3846435546875,791.7582397460938,787.7289428710938
252,787.7289428710938,793.7728881835938,789.7435913085938,788.937744140625
253,788.5347900390625,790.952392578125,790.952392578125,791.7582397460938
254,789.7435913085938,786.1171875,792.967041015625,795.7875366210938
255,786.923095703125,782.893798828125,789.3406372070312,790.5494384765625
256,788.937744140625,782.4908447265625,790.952392578125,781.6849975585938
257,796.1904907226562,783.2966918945312,789.7435913085938,785.7142944335938
258,796.996337890625,788.5347900390625,788.5347900390625,782.087890625
259,794.981689453125,789.3406372070312,792.1611938476562,783.2966918945312
260,796.996337890625,793.3699340820312,796.1904907226562,790.5494384765625
261,800.6226806640625,790.5494384765625,792.5640869140625,788.937744140625
262,804.6520385742188,787.3259887695312,792.967041015625,792.967041015625
263,816.7399291992188,792.5640869140625,795.3846435546875,806.2637329101562
264,815.93408203125,796.996337890625,794.981689453125,801.025634765625
265,802.2344360351562,800.6226806640625,799.8168334960938,786.1171875
266,807.069580078125,801.8314819335938,798.6080322265625,793.3699340820312
267,811.90478515625,788.937744140625,799.010986328125,794.981689453125
268,797.3992919921875,782.893798828125,796.1904907226562,794.981689453125
269,799.4139404296875,792.1611938476562,793.7728881835938,805.8607788085938
270,806.2637329101562,793.7728881835938,799.010986328125,803.040283203125
271,798.6080322265625,795.3846435546875,794.1758422851562,788.1318969726562
272,797.3992919921875,799.010986328125,792.1611938476562,787.7289428710938
273,800.2197875976562,796.1904907226562,791.3552856445312,800.6226806640625
274,788.937744140625,795.3846435546875,792.5640869140625,794.5787353515625
275,787.3259887695312,798.6080322265625,793.7728881835938,788.5347900390625
276,789.7435913085938,794.1758422851562,792.1611938476562,786.923095703125
277,783.2966918945312,785.3113403320312,792.5640869140625,787.7289428710938
278,782.087890625,784.908447265625,791.3552856445312,788.937744140625
279,783.6996459960938,789.3406372070312,792.5640869140625,789.7435913085938
280,783.6996459960938,793.3699340820312,794.5787353515625,798.6080322265625
281,787.3259887695312,794.5787353515625,796.1904907226562,797.8021850585938
282,793.3699340820312,788.937744140625,795.7875366210938,791.7582397460938
283,791.3552856445312,786.1171875,789.3406372070312,790.952392578125
284,785.3113403320312,787.7289428710938,786.923095703125,791.3552856445312
285,782.087890625,787.3259887695312,789.7435913085938,788.937744140625
286,784.5054931640625,788.937744140625,787.3259887695312,785.7142944335938
287,788.1318969726562,789.3406372070312,785.3113403320312,791.7582397460938
288,789.3406372070312,788.5347900390625,790.1465454101562,800.6226806640625
289,784.908447265625,792.5640869140625,788.937744140625,796.5933837890625
290,781.6849975585938,795.7875366210938,787.7289428710938,793.7728881835938
291,788.5347900390625,794.5787353515625,794.1758422851562,799.010986328125
292,793.3699340820312,790.5494384765625,796.5933837890625,799.010986328125
293,794.5787353515625,790.952392578125,792.5640869140625,790.5494384765625
294,800.2197875976562,790.1465454101562,793.3699340820312,788.937744140625
295,800.2197875976562,784.1025390625,796.996337890625,797.3992919921875
296,793.7728881835938,786.1171875,797.3992919921875,799.8168334960938
297,796.996337890625,798.6080322265625,799.4139404296875,799.8168334960938
298,798.2051391601562,801.025634765625,798.2051391601562,800.6226806640625
299,797.8021850585938,796.1904907226562,797.3992919921875,801.4285888671875
300,796.5933837890625,798.6080322265625,795.7875366210938,808.2783813476562
301,797.3992919921875,800.2197875976562,794.5787353515625,804.6520385742188
302,800.2197875976562,798.6080322265625,795.7875366210938,806.2637329101562
303,795.3846435546875,794.981689453125,795.7875366210938,810.2930297851562
304,794.5787353515625,795.7875366210938,796.996337890625,806.2637329101562
305,797.3992919921875,795.7875366210938,795.7875366210938,804.6520385742188
306,795.3846435546875,788.5347900390625,793.3699340820312,800.2197875976562
307,796.5933837890625,787.7289428710938,792.967041015625,799.010986328125
308,794.981689453125,793.7728881835938,796.1904907226562,798.6080322265625
309,799.8168334960938,796.5933837890625,798.2051391601562,794.5787353515625
310,802.2344360351562,795.3846435546875,796.5933837890625,795.7875366210938
311,798.6080322265625,796.1904907226562,792.967041015625,790.5494384765625
312,802.2344360351562,800.6226806640625,791.7582397460938,789.3406372070312
313,808.2783813476562,803.040283203125,792.1611938476562,797.8021850585938
314,809.89013671875,797.3992919921875,787.7289428710938,796.5933837890625
315,804.2490844726562,794.5787353515625,787.7289428710938,791.3552856445312
316,801.025634765625,796.5933837890625,791.3552856445312,790.952392578125
317,804.6520385742188,792.1611938476562,788.1318969726562,787.3259887695312
318,803.8461303710938,792.967041015625,784.5054931640625,788.937744140625
319,803.8461303710938,795.3846435546875,787.7289428710938,792.5640869140625
320,804.2490844726562,791.7582397460938,792.5640869140625,793.7728881835938
321,803.040283203125,794.5787353515625,793.3699340820312,798.6080322265625
322,800.2197875976562,796.1904907226562,790.1465454101562,807.87548828125
323,791.3552856445312,795.7875366210938,793.7728881835938,805.8607788085938
324,788.937744140625,800.6226806640625,799.4139404296875,799.8168334960938
325,787.3259887695312,792.967041015625,795.3846435546875,798.6080322265625
326,777.2527465820312,784.1025390625,794.981689453125,791.7582397460938
327,778.4615478515625,788.937744140625,798.6080322265625,794.1758422851562
328,784.908447265625,786.923095703125,800.2197875976562,799.010986328125
329,786.923095703125,782.893798828125,794.981689453125,800.6226806640625
330,789.7435913085938,792.967041015625,792.967041015625,800.2197875976562
331,788.5347900390625,792.1611938476562,796.5933837890625,792.1611938476562
332,795.7875366210938,787.7289428710938,798.6080322265625,793.7728881835938
333,803.040283203125,794.1758422851562,795.3846435546875,798.2051391601562
334,798.2051391601562,794.5787353515625,792.967041015625,794.1758422851562
335,796.996337890625,794.981689453125,799.8168334960938,789.7435913085938
336,796.1904907226562,801.025634765625,801.8314819335938,792.967041015625
337,795.7875366210938,802.6373901367188,801.8314819335938,794.5787353515625
338,801.025634765625,796.5933837890625,805.4578857421875,796.996337890625
339,797.8021850585938,795.3846435546875,803.8461303710938,796.5933837890625
340,786.923095703125,792.5640869140625,799.4139404296875,794.981689453125
341,784.1025390625,789.3406372070312,800.2197875976562,798.6080322265625
342,786.5201416015625,796.5933837890625,800.2197875976562,798.6080322265625
343,787.3259887695312,791.7582397460938,795.3846435546875,795.3846435546875
344,787.7289428710938,784.5054931640625,788.5347900390625,789.7435913085938
345,785.7142944335938,786.5201416015625,786.923095703125,788.1318969726562
346,783.2966918945312,790.952392578125,790.952392578125,795.3846435546875
347,779.6703491210938,792.1611938476562,796.1904907226562,790.1465454101562
348,781.6849975585938,789.7435913085938,794.5787353515625,778.4615478515625
349,786.5201416015625,790.952392578125,790.1465454101562,784.1025390625
350,786.1171875,792.967041015625,788.5347900390625,787.7289428710938
351,788.5347900390625,797.3992919921875,790.1465454101562,787.3259887695312
352,789.3406372070312,792.1611938476562,792.1611938476562,791.7582397460938
353,790.5494384765625,789.3406372070312,790.952392578125,792.1611938476562
354,793.7728881835938,796.1904907226562,792.5640869140625,788.5347900390625
355,793.3699340820312,794.1758422851562,796.1904907226562,790.952392578125
356,792.967041015625,791.3552856445312,795.3846435546875,796.1904907226562
357,795.7875366210938,794.1758422851562,794.981689453125,807.4725341796875
358,798.6080322265625,799.010986328125,796.996337890625,805.054931640625
359,795.3846435546875,798.2051391601562,798.2051391601562,794.5787353515625
360,798.6080322265625,790.1465454101562,799.010986328125,796.1904907226562
361,799.8168334960938,791.7582397460938,798.6080322265625,796.996337890625
362,794.5787353515625,799.4139404296875,798.2051391601562,797.3992919921875
363,796.996337890625,799.4139404296875,798.6080322265625,798.2051391601562
364,799.8168334960938,796.1904907226562,796.1904907226562,798.6080322265625
365,800.2197875976562,790.952392578125,799.010986328125,793.7728881835938
366,796.5933837890625,790.952392578125,798.6080322265625,794.5787353515625
367,795.7875366210938,801.8314819335938,790.5494384765625,791.7582397460938
368,798.6080322265625,800.2197875976562,789.7435913085938,794.5787353515625
369,796.1904907226562,794.1758422851562,791.3552856445312,794.981689453125
370,787.7289428710938,791.7582397460938,785.7142944335938,780.4761962890625
371,785.7142944335938,792.5640869140625,787.7289428710938,776.8497924804688
372,782.4908447265625,792.1611938476562,790.952392578125,780.4761962890625
373,782.4908447265625,789.7435913085938,787.7289428710938,779.2673950195312
374,784.1025390625,787.7289428710938,793.7728881835938,778.4615478515625
375,777.6557006835938,779.6703491210938,795.7875366210938,777.2527465820312
376,779.2673950195312,785.3113403320312,794.5787353515625,777.6557006835938
377,777.6557006835938,797.8021850585938,795.3846435546875,781.6849975585938
378,775.6410522460938,796.1904907226562,792.1611938476562,780.4761962890625
379,778.4615478515625,787.7289428710938,787.7289428710938,779.6703491210938
380,778.4615478515625,787.3259887695312,784.1025390625,782.893798828125
381,784.908447265625,794.1758422851562,790.952392578125,782.893798828125
382,784.908447265625,794.5787353515625,791.3552856445312,773.6264038085938
383,778.05859375,789.7435913085938,791.7582397460938,774.8351440429688
384,781.6849975585938,789.3406372070312,793.3699340820312,781.2820434570312
385,791.3552856445312,788.5347900390625,792.1611938476562,780.879150390625
386,794.5787353515625,787.3259887695312,796.5933837890625,786.5201416015625
387,786.1171875,786.923095703125,792.1611938476562,794.1758422851562
388,784.1025390625,789.7435913085938,788.5347900390625,795.7875366210938
389,794.5787353515625,792.967041015625,794.5787353515625,795.3846435546875
390,793.3699340820312,790.952392578125,794.5787353515625,792.967041015625
391,782.087890625,786.5201416015625,792.5640869140625,794.981689453125
392,781.6849975585938,786.923095703125,791.3552856445312,801.8314819335938
393,786.5201416015625,792.1611938476562,790.5494384765625,790.5494384765625
394,783.2966918945312,790.1465454101562,788.937744140625,784.5054931640625
395,786.923095703125,793.7728881835938,790.1465454101562,791.7582397460938
396,790.952392578125,790.952392578125,790.1465454101562,786.1171875
397,790.5494384765625,782.893798828125,792.5640869140625,782.087890625
398,788.5347900390625,783.2966918945312,795.3846435546875,786.1171875
399,789.3406372070312,789.3406372070312,791.3552856445312,788.5347900390625
400,792.1611938476562,794.1758422851562,792.1611938476562,790.952392578125
401,794.5787353515625,797.8021850585938,794.5787353515625,794.981689453125
402,793.7728881835938,803.4432373046875,796.5933837890625,790.5494384765625
403,791.7582397460938,799.8168334960938,794.5787353515625,795.7875366210938
404,792.1611938476562,799.010986328125,791.3552856445312,798.2051391601562
405,790.5494384765625,797.3992919921875,789.7435913085938,786.923095703125
406,794.981689453125,792.1611938476562,791.7582397460938,792.1611938476562
407,803.4432373046875,792.967041015625,794.981689453125,801.4285888671875
408,805.054931640625,795.3846435546875,792.1611938476562,795.7875366210938
409,796.5933837890625,795.3846435546875,790.5494384765625,788.937744140625
410,794.981689453125,789.3406372070312,794.5787353515625,792.5640869140625
411,800.6226806640625,790.5494384765625,797.8021850585938,794.981689453125
412,797.8021850585938,791.7582397460938,797.3992919921875,791.7582397460938
413,794.5787353515625,795.3846435546875,796.1904907226562,790.1465454101562
414,800.6226806640625,795.7875366210938,794.5787353515625,799.8168334960938
415,800.2197875976562,792.5640869140625,795.3846435546875,807.4725341796875
416,796.996337890625,796.1904907226562,799.010986328125,805.054931640625
417,795.7875366210938,795.7875366210938,796.996337890625,796.996337890625
418,797.3992919921875,794.5787353515625,792.967041015625,793.7728881835938
419,801.4285888671875,794.1758422851562,790.1465454101562,792.1611938476562
420,798.2051391601562,793.3699340820312,790.952392578125,786.5201416015625
421,794.5787353515625,789.3406372070312,792.967041015625,790.5494384765625
422,790.1465454101562,789.3406372070312,790.1465454101562,792.5640869140625
423,786.1171875,788.937744140625,788.1318969726562,786.5201416015625
424,785.7142944335938,791.3552856445312,786.5201416015625,788.5347900390625
425,784.5054931640625,790.1465454101562,786.923095703125,791.3552856445312
426,788.1318969726562,790.952392578125,790.1465454101562,789.3406372070312
427,791.7582397460938,796.1904907226562,791.7582397460938,788.937744140625
428,788.5347900390625,798.6080322265625,791.7582397460938,788.1318969726562
429,794.5787353515625,796.5933837890625,791.3552856445312,798.2051391601562
430,809.4871826171875,790.952392578125,792.5640869140625,811.5018310546875
431,801.8314819335938,795.3846435546875,789.3406372070312,799.4139404296875
432,787.3259887695312,797.3992919921875,788.937744140625,784.5054931640625
433,789.3406372070312,793.3699340820312,789.7435913085938,785.3113403320312
434,792.5640869140625,792.967041015625,794.1758422851562,795.3846435546875
435,793.7728881835938,796.996337890625,796.1904907226562,796.1904907226562
436,796.996337890625,796.996337890625,793.7728881835938,788.5347900390625
437,795.3846435546875,794.981689453125,794.1758422851562,788.5347900390625
438,794.981689453125,797.8021850585938,792.967041015625,792.5640869140625
439,793.7728881835938,794.1758422851562,794.981689453125,795.7875366210938
440,791.7582397460938,794.981689453125,794.5787353515625,793.7728881835938
441,794.1758422851562,794.1758422851562,794.1758422851562,801.4285888671875
442,795.3846435546875,790.5494384765625,792.967041015625,803.8461303710938
443,792.5640869140625,790.952392578125,790.952392578125,794.5787353515625
444,792.1611938476562,794.981689453125,792.5640869140625,794.5787353515625
445,798.2051391601562,796.996337890625,796.996337890625,797.3992919921875
446,798.6080322265625,793.7728881835938,796.996337890625,798.2051391601562
447,796.5933837890625,797.3992919921875,789.3406372070312,801.025634765625
448,792.967041015625,796.996337890625,790.5494384765625,797.3992919921875
449,801.8314819335938,793.3699340820312,796.5933837890625,806.6666870117188
450,806.6666870117188,799.4139404296875,799.4139404296875,817.5457763671875
451,802.2344360351562,809.084228515625,801.8314819335938,802.2344360351562
452,807.069580078125,810.6959838867188,800.6226806640625,802.6373901367188
453,805.054931640625,808.2783813476562,800.2197875976562,812.7106323242188
454,804.2490844726562,807.4725341796875,801.4285888671875,807.4725341796875
455,800.2197875976562,808.6813354492188,801.025634765625,805.8607788085938
456,796.1904907226562,808.2783813476562,799.8168334960938,810.2930297851562
457,801.8314819335938,804.2490844726562,801.8314819335938,813.5164794921875
458,801.025634765625,799.8168334960938,799.4139404296875,807.87548828125
459,794.1758422851562,794.5787353515625,795.7875366210938,797.3992919921875
460,794.1758422851562,800.6226806640625,796.996337890625,799.010986328125
461,797.3992919921875,804.2490844726562,796.1904907226562,802.2344360351562
462,799.8168334960938,800.2197875976562,798.2051391601562,800.2197875976562
463,797.8021850585938,795.3846435546875,794.981689453125,796.1904907226562
464,793.7728881835938,793.3699340820312,790.1465454101562,801.4285888671875
465,790.5494384765625,790.952392578125,794.1758422851562,799.4139404296875
466,793.3699340820312,788.937744140625,795.3846435546875,784.908447265625
467,796.1904907226562,788.5347900390625,792.5640869140625,792.1611938476562
468,796.1904907226562,794.5787353515625,791.3552856445312,795.7875366210938
469,798.2051391601562,789.7435913085938,793.7728881835938,788.5347900390625
470,797.3992919921875,782.4908447265625,797.3992919921875,786.5201416015625
471,794.1758422851562,794.5787353515625,796.996337890625,788.5347900390625
472,795.7875366210938,802.2344360351562,799.010986328125,801.4285888671875
473,794.5787353515625,802.2344360351562,798.6080322265625,802.6373901367188
474,790.5494384765625,796.5933837890625,794.981689453125,797.3992919921875
475,793.7728881835938,791.7582397460938,794.5787353515625,800.6226806640625
476,799.4139404296875,791.7582397460938,797.8021850585938,805.4578857421875
477,801.8314819335938,797.8021850585938,799.8168334960938,801.4285888671875
478,794.1758422851562,800.2197875976562,799.8168334960938,794.1758422851562
479,792.1611938476562,796.996337890625,797.3992919921875,795.3846435546875
480,791.3552856445312,785.3113403320312,794.5787353515625,792.5640869140625
481,791.7582397460938,780.879150390625,795.7875366210938,795.3846435546875
482,796.5933837890625,790.1465454101562,796.5933837890625,804.2490844726562
483,793.7728881835938,797.8021850585938,794.1758422851562,805.4578857421875
484,788.937744140625,792.967041015625,794.5787353515625,801.8314819335938
485,790.1465454101562,788.1318969726562,794.1758422851562,796.5933837890625
486,788.937744140625,797.3992919921875,790.952392578125,794.5787353515625
487,786.923095703125,801.025634765625,790.1465454101562,796.1904907226562
488,786.5201416015625,797.3992919921875,791.3552856445312,799.010986328125
489,786.5201416015625,801.4285888671875,794.981689453125,795.7875366210938
490,783.6996459960938,795.7875366210938,790.952392578125,795.3846435546875
491,781.6849975585938,788.937744140625,788.1318969726562,792.1611938476562
492,788.5347900390625,791.7582397460938,789.7435913085938,791.3552856445312
493,788.1318969726562,786.5201416015625,789.7435913085938,786.923095703125
494,786.923095703125,784.1025390625,792.1611938476562,779.2673950195312
495,792.967041015625,792.1611938476562,789.7435913085938,780.879150390625
496,784.1025390625,793.3699340820312,786.1171875,779.6703491210938
497,784.1025390625,791.7582397460938,786.5201416015625,781.2820434570312
498,789.7435913085938,792.967041015625,788.1318969726562,788.937744140625
499,786.5201416015625,790.952392578125,786.5201416015625,792.5640869140625
500,784.5054931640625,795.3846435546875,787.3259887695312,792.5640869140625
501,788.1318969726562,798.2051391601562,787.3259887695312,791.7582397460938
502,791.3552856445312,790.1465454101562,789.7435913085938,791.3552856445312
503,796.5933837890625,786.923095703125,786.5201416015625,792.5640869140625
504,796.5933837890625,795.7875366210938,786.1171875,786.923095703125
505,791.3552856445312,796.996337890625,795.7875366210938,778.8644409179688
506,793.3699340820312,789.7435913085938,796.1904907226562,777.6557006835938
507,790.952392578125,788.937744140625,794.1758422851562,777.2527465820312
508,786.1171875,794.1758422851562,795.7875366210938,778.05859375
509,787.3259887695312,796.1904907226562,795.3846435546875,781.6849975585938
510,782.893798828125,792.1611938476562,793.7728881835938,789.7435913085938
511,780.4761962890625,794.1758422851562,799.4139404296875,799.8168334960938
512,788.937744140625,798.6080322265625,799.8168334960938,798.6080322265625
513,796.1904907226562,798.6080322265625,792.967041015625,789.7435913085938
514,793.3699340820312,790.1465454101562,788.937744140625,792.1611938476562
515,790.1465454101562,784.1025390625,788.5347900390625,792.967041015625
516,789.7435913085938,790.5494384765625,790.952392578125,785.3113403320312
517,791.3552856445312,791.7582397460938,790.952392578125,783.2966918945312
518,793.3699340820312,790.952392578125,790.5494384765625,784.908447265625
519,791.7582397460938,788.937744140625,784.908447265625,789.3406372070312
520,789.3406372070312,786.923095703125,782.087890625,786.923095703125
521,788.937744140625,789.7435913085938,784.5054931640625,783.6996459960938
522,794.5787353515625,786.5201416015625,787.7289428710938,788.5347900390625
523,798.2051391601562,792.1611938476562,790.1465454101562,795.3846435546875
524,795.3846435546875,796.5933837890625,792.967041015625,793.7728881835938
525,790.952392578125,791.7582397460938,792.1611938476562,792.5640869140625
526,799.010986328125,794.981689453125,787.7289428710938,798.2051391601562
527,800.6226806640625,793.7728881835938,790.5494384765625,796.1904907226562
528,791.3552856445312,785.7142944335938,792.5640869140625,796.5933837890625
529,791.7582397460938,784.1025390625,788.1318969726562,802.6373901367188
530,792.967041015625,789.7435913085938,786.923095703125,800.6226806640625
531,793.7728881835938,793.7728881835938,790.952392578125,796.5933837890625
532,794.1758422851562,792.5640869140625,790.1465454101562,793.3699340820312
533,790.1465454101562,793.7728881835938,790.5494384765625,785.3113403320312
534,787.7289428710938,790.5494384765625,796.1904907226562,787.7289428710938
535,785.7142944335938,787.7289428710938,794.5787353515625,792.1611938476562
536,782.087890625,788.937744140625,788.937744140625,787.3259887695312
537,787.3259887695312,784.908447265625,792.967041015625,790.952392578125
538,792.5640869140625,784.1025390625,796.996337890625,792.1611938476562
539,794.1758422851562,784.5054931640625,796.5933837890625,792.1611938476562
540,798.2051391601562,788.5347900390625,797.3992919921875,798.2051391601562
541,796.996337890625,795.7875366210938,798.6080322265625,795.7875366210938
542,792.967041015625,797.8021850585938,794.1758422851562,793.3699340820312
543,788.937744140625,793.3699340820312,791.7582397460938,789.3406372070312
544,787.7289428710938,790.5494384765625,790.952392578125,790.952392578125
545,790.5494384765625,790.952392578125,790.1465454101562,802.2344360351562
546,792.967041015625,792.1611938476562,794.5787353515625,803.8461303710938
547,791.7582397460938,794.5787353515625,793.3699340820312,801.4285888671875
548,790.5494384765625,794.981689453125,794.1758422851562,797.3992919921875
549,796.1904907226562,795.3846435546875,792.1611938476562,801.025634765625
550,797.8021850585938,790.952392578125,790.952392578125,804.6520385742188
551,793.3699340820312,783.6996459960938,796.1904907226562,796.996337890625
552,793.7728881835938,789.3406372070312,793.7728881835938,792.1611938476562
553,797.3992919921875,798.2051391601562,794.1758422851562,796.1904907226562
554,794.981689453125,793.7728881835938,798.2051391601562,798.2051391601562
555,794.981689453125,790.1465454101562,794.1758422851562,794.1758422851562
556,797.8021850585938,791.3552856445312,789.3406372070312,796.1904907226562
557,797.8021850585938,792.967041015625,788.1318969726562,795.7875366210938
558,794.981689453125,798.2051391601562,787.7289428710938,791.7582397460938
559,797.8021850585938,796.1904907226562,790.1465454101562,799.010986328125
560,798.2051391601562,792.967041015625,791.7582397460938,804.6520385742188
561,792.5640869140625,792.1611938476562,792.967041015625,798.6080322265625
562,788.1318969726562,794.5787353515625,791.3552856445312,788.937744140625
563,782.4908447265625,796.1904907226562,792.967041015625,787.3259887695312
564,783.2966918945312,794.5787353515625,788.5347900390625,784.908447265625
565,786.923095703125,794.5787353515625,788.5347900390625,785.7142944335938
566,782.893798828125,789.7435913085938,794.1758422851562,781.2820434570312
567,778.4615478515625,788.937744140625,790.952392578125,784.908447265625
568,778.4615478515625,784.1025390625,790.1465454101562,792.5640869140625
569,779.6703491210938,780.0732421875,790.952392578125,794.1758422851562
570,782.4908447265625,790.952392578125,795.7875366210938,797.8021850585938
571,781.6849975585938,796.5933837890625,795.7875366210938,792.1611938476562
572,782.4908447265625,794.1758422851562,794.1758422851562,796.1904907226562
573,783.6996459960938,796.5933837890625,797.3992919921875,798.6080322265625
574,785.7142944335938,797.8021850585938,795.3846435546875,792.1611938476562
575,788.5347900390625,798.2051391601562,794.5787353515625,794.5787353515625
576,788.937744140625,796.1904907226562,795.7875366210938,795.3846435546875
577,789.3406372070312,788.1318969726562,796.1904907226562,791.3552856445312
578,792.1611938476562,784.5054931640625,794.5787353515625,795.3846435546875
579,798.6080322265625,790.952392578125,792.967041015625,803.040283203125
580,796.1904907226562,790.5494384765625,796.996337890625,797.3992919921875
581,790.952392578125,784.908447265625,797.8021850585938,791.7582397460938
582,791.3552856445312,788.1318969726562,796.5933837890625,789.7435913085938
583,788.937744140625,790.1465454101562,794.5787353515625,787.7289428710938
584,792.5640869140625,789.7435913085938,797.8021850585938,789.3406372070312
585,791.3552856445312,786.5201416015625,799.4139404296875,787.3259887695312
586,788.5347900390625,783.6996459960938,794.981689453125,788.5347900390625
587,792.5640869140625,784.5054931640625,792.5640869140625,787.7289428710938
588,796.5933837890625,786.923095703125,799.4139404296875,791.3552856445312
589,800.6226806640625,788.1318969726562,804.2490844726562,796.996337890625
590,798.2051391601562,791.3552856445312,800.6226806640625,798.2051391601562
591,786.5201416015625,791.3552856445312,796.996337890625,796.1904907226562
592,779.2673950195312,792.967041015625,792.5640869140625,794.981689453125
593,782.087890625,794.5787353515625,789.3406372070312,796.5933837890625
594,792.967041015625,792.1611938476562,792.1611938476562,801.8314819335938
595,796.1904907226562,783.2966918945312,792.967041015625,803.040283203125
596,786.5201416015625,779.2673950195312,792.5640869140625,796.996337890625
597,787.7289428710938,791.7582397460938,794.5787353515625,797.8021850585938
598,786.923095703125,792.5640869140625,796.1904907226562,798.2051391601562
599,787.7289428710938,786.5201416015625,795.3846435546875,796.5933837890625
600,793.3699340820312,788.1318969726562,797.8021850585938,790.5494384765625
601,792.5640869140625,794.5787353515625,799.010986328125,793.7728881835938
602,791.3552856445312,797.3992919921875,797.3992919921875,794.5787353515625
603,794.1758422851562,789.3406372070312,797.8021850585938,796.1904907226562
604,792.1611938476562,786.923095703125,798.2051391601562,798.2051391601562
605,791.3552856445312,795.7875366210938,799.8168334960938,794.981689453125
606,791.7582397460938,792.967041015625,796.5933837890625,799.4139404296875
607,790.5494384765625,792.1611938476562,795.7875366210938,802.6373901367188
608,788.937744140625,794.981689453125,796.996337890625,797.8021850585938
609,782.087890625,791.3552856445312,794.981689453125,790.5494384765625
610,786.5201416015625,788.937744140625,798.2051391601562,800.2197875976562
611,792.5640869140625,789.7435913085938,801.8314819335938,801.8314819335938
612,788.937744140625,794.5787353515625,799.4139404296875,790.1465454101562
613,787.7289428710938,798.2051391601562,796.996337890625,792.1611938476562
614,786.1171875,791.7582397460938,794.5787353515625,795.3846435546875
615,789.7435913085938,785.3113403320312,791.7582397460938,796.996337890625
616,794.1758422851562,787.3259887695312,795.3846435546875,794.981689453125
617,792.1611938476562,786.1171875,793.3699340820312,791.3552856445312
618,788.937744140625,786.1171875,788.1318969726562,795.7875366210938
619,790.5494384765625,788.937744140625,791.7582397460938,799.010986328125
620,791.3552856445312,793.7728881835938,798.6080322265625,797.3992919921875
621,794.981689453125,797.8021850585938,797.8021850585938,798.2051391601562
622,797.3992919921875,797.3992919921875,797.8021850585938,799.8168334960938
623,793.3699340820312,799.4139404296875,797.8021850585938,797.3992919921875
624,799.4139404296875,805.054931640625,799.8168334960938,792.967041015625
625,801.025634765625,803.4432373046875,801.4285888671875,799.8168334960938
626,796.996337890625,801.025634765625,797.8021850585938,801.8314819335938
627,794.5787353515625,797.3992919921875,794.981689453125,795.3846435546875
628,790.5494384765625,794.5787353515625,792.967041015625,796.5933837890625
629,793.7728881835938,795.3846435546875,793.3699340820312,801.4285888671875
630,792.967041015625,799.010986328125,794.981689453125,796.996337890625
631,786.5201416015625,795.3846435546875,796.5933837890625,788.5347900390625
632,789.7435913085938,792.1611938476562,799.010986328125,787.3259887695312
633,792.967041015625,790.952392578125,797.3992919921875,795.7875366210938
634,791.7582397460938,787.3259887695312,793.3699340820312,799.4139404296875
635,796.5933837890625,786.923095703125,791.7582397460938,786.1171875
636,798.6080322265625,790.952392578125,788.1318969726562,783.2966918945312
637,797.3992919921875,795.3846435546875,786.923095703125,791.3552856445312
638,796.996337890625,796.1904907226562,787.7289428710938,797.3992919921875
639,795.7875366210938,793.3699340820312,790.5494384765625,796.5933837890625
640,802.6373901367188,794.981689453125,791.3552856445312,792.5640869140625
641,806.2637329101562,793.7728881835938,791.7582397460938,787.7289428710938
642,797.8021850585938,790.5494384765625,793.7728881835938,786.923095703125
643,788.937744140625,789.3406372070312,790.952392578125,782.087890625
644,792.967041015625,792.5640869140625,792.1611938476562,787.3259887695312
645,800.6226806640625,798.6080322265625,798.2051391601562,809.4871826171875
646,798.6080322265625,797.8021850585938,798.2051391601562,809.084228515625
647,794.5787353515625,785.3113403320312,792.1611938476562,796.996337890625
648,794.981689453125,788.1318969726562,796.5933837890625,802.2344360351562
649,788.937744140625,801.4285888671875,799.010986328125,799.8168334960938
650,784.908447265625,797.8021850585938,795.3846435546875,792.5640869140625
651,789.3406372070312,796.1904907226562,795.3846435546875,787.3259887695312
652,786.923095703125,796.5933837890625,794.1758422851562,784.908447265625
653,785.7142944335938,795.3846435546875,793.7728881835938,786.5201416015625
654,793.3699340820312,791.7582397460938,796.5933837890625,784.908447265625
655,799.4139404296875,792.967041015625,796.996337890625,790.1465454101562
656,796.1904907226562,797.3992919921875,796.5933837890625,792.967041015625
657,790.1465454101562,794.5787353515625,794.5787353515625,786.1171875
658,791.7582397460938,793.7728881835938,797.3992919921875,783.6996459960938
659,793.3699340820312,792.5640869140625,798.6080322265625,788.5347900390625
660,794.5787353515625,787.3259887695312,793.3699340820312,800.6226806640625
661,796.1904907226562,790.1465454101562,792.1611938476562,804.2490844726562
662,801.025634765625,796.5933837890625,797.3992919921875,796.1904907226562
663,802.2344360351562,797.8021850585938,797.8021850585938,793.7728881835938
664,795.7875366210938,796.996337890625,796.1904907226562,793.3699340820312
665,793.7728881835938,797.8021850585938,796.1904907226562,794.981689453125
666,792.967041015625,794.1758422851562,791.7582397460938,800.6226806640625
667,790.5494384765625,790.1465454101562,785.7142944335938,800.2197875976562
668,792.1611938476562,794.1758422851562,789.3406372070312,806.2637329101562
669,793.3699340820312,798.2051391601562,790.1465454101562,811.90478515625
670,792.1611938476562,791.7582397460938,787.3259887695312,803.4432373046875
671,793.7728881835938,790.952392578125,792.5640869140625,801.8314819335938
672,789.7435913085938,799.010986328125,793.7728881835938,794.1758422851562
673,778.4615478515625,793.7728881835938,795.3846435546875,781.2820434570312
674,771.2088012695312,786.923095703125,797.8021850585938,780.4761962890625
675,775.2380981445312,800.6226806640625,791.7582397460938,788.1318969726562
676,777.2527465820312,805.054931640625,792.5640869140625,783.6996459960938
677,779.6703491210938,799.8168334960938,796.1904907226562,778.4615478515625
678,788.5347900390625,791.3552856445312,792.1611938476562,780.4761962890625
679,784.5054931640625,782.4908447265625,791.7582397460938,790.1465454101562
680,778.4615478515625,789.7435913085938,794.5787353515625,794.981689453125
681,784.1025390625,792.967041015625,793.3699340820312,783.2966918945312
682,787.7289428710938,788.937744140625,791.7582397460938,784.1025390625
683,782.893798828125,791.7582397460938,793.7728881835938,792.1611938476562
684,781.2820434570312,793.7728881835938,790.1465454101562,791.7582397460938
685,786.5201416015625,788.937744140625,792.1611938476562,791.7582397460938
686,790.1465454101562,787.3259887695312,793.3699340820312,791.3552856445312
687,791.3552856445312,792.5640869140625,790.1465454101562,790.1465454101562
688,788.5347900390625,795.7875366210938,792.5640869140625,789.7435913085938
689,783.2966918945312,795.7875366210938,795.3846435546875,784.1025390625
690,789.3406372070312,797.3992919921875,792.967041015625,785.7142944335938
691,796.1904907226562,793.7728881835938,793.7728881835938,796.996337890625
692,796.1904907226562,792.967041015625,799.4139404296875,795.7875366210938
693,797.3992919921875,798.2051391601562,797.3992919921875,793.3699340820312
694,796.5933837890625,800.2197875976562,796.996337890625,799.010986328125
695,791.3552856445312,797.3992919921875,799.010986328125,791.7582397460938
696,792.967041015625,796.5933837890625,796.1904907226562,788.1318969726562
697,797.8021850585938,798.6080322265625,798.2051391601562,792.967041015625
698,792.5640869140625,794.1758422851562,798.6080322265625,797.3992919921875
699,790.952392578125,794.981689453125,796.1904907226562,801.8314819335938
700,796.5933837890625,799.8168334960938,792.1611938476562,796.5933837890625
701,793.7728881835938,795.3846435546875,787.7289428710938,798.6080322265625
702,792.5640869140625,788.1318969726562,790.5494384765625,801.8314819335938
703,793.3699340820312,789.3406372070312,796.1904907226562,792.1611938476562
704,789.3406372070312,790.5494384765625,798.2051391601562,791.7582397460938
705,790.1465454101562,790.952392578125,797.3992919921875,790.1465454101562
706,790.952392578125,787.7289428710938,796.5933837890625,784.908447265625
707,788.937744140625,788.1318969726562,795.3846435546875,781.2820434570312
708,793.3699340820312,789.7435913085938,795.3846435546875,773.6264038085938
709,795.3846435546875,789.3406372070312,798.2051391601562,780.0732421875
710,791.7582397460938,793.3699340820312,797.3992919921875,784.908447265625
711,787.3259887695312,796.5933837890625,794.981689453125,790.1465454101562
712,788.937744140625,797.3992919921875,794.1758422851562,794.5787353515625
713,789.7435913085938,794.981689453125,792.967041015625,797.8021850585938
714,788.1318969726562,789.3406372070312,792.1611938476562,808.6813354492188
715,794.5787353515625,783.6996459960938,794.5787353515625,805.8607788085938
716,791.3552856445312,783.6996459960938,795.7875366210938,791.3552856445312
717,788.5347900390625,784.5054931640625,789.7435913085938,786.923095703125
718,793.7728881835938,788.937744140625,788.1318969726562,789.3406372070312
719,792.1611938476562,793.3699340820312,790.5494384765625,790.952392578125
720,781.2820434570312,791.7582397460938,789.7435913085938,791.7582397460938
721,778.4615478515625,787.3259887695312,788.1318969726562,794.5787353515625
722,787.7289428710938,784.908447265625,791.7582397460938,802.2344360351562
723,790.5494384765625,790.952392578125,797.3992919921875,803.8461303710938
724,796.1904907226562,791.7582397460938,797.8021850585938,799.010986328125
725,790.5494384765625,788.937744140625,796.1904907226562,794.1758422851562
726,779.6703491210938,786.923095703125,792.1611938476562,790.1465454101562
727,788.5347900390625,786.1171875,792.1611938476562,795.7875366210938
728,790.952392578125,787.7289428710938,793.7728881835938,796.996337890625
729,792.1611938476562,790.1465454101562,791.3552856445312,799.4139404296875
730,796.1904907226562,790.5494384765625,790.1465454101562,804.6520385742188
731,785.3113403320312,789.7435913085938,793.3699340820312,794.1758422851562
732,788.1318969726562,790.5494384765625,795.3846435546875,791.7582397460938
733,791.3552856445312,790.1465454101562,792.5640869140625,792.967041015625
734,786.5201416015625,791.3552856445312,788.1318969726562,787.3259887695312
735,790.5494384765625,788.937744140625,789.3406372070312,788.1318969726562
736,793.3699340820312,784.908447265625,790.952392578125,790.952392578125
737,790.952392578125,785.7142944335938,794.1758422851562,796.1904907226562
738,796.5933837890625,784.1025390625,797.3992919921875,803.040283203125
739,800.2197875976562,786.5201416015625,792.967041015625,807.4725341796875
740,795.3846435546875,792.967041015625,791.3552856445312,809.084228515625
741,792.1611938476562,788.5347900390625,788.937744140625,809.89013671875
742,794.1758422851562,789.7435913085938,790.1465454101562,803.8461303710938
743,795.7875366210938,795.7875366210938,792.1611938476562,795.7875366210938
744,796.996337890625,793.7728881835938,787.3259887695312,798.6080322265625
745,791.3552856445312,791.3552856445312,788.937744140625,796.996337890625
746,783.2966918945312,791.7582397460938,789.7435913085938,789.7435913085938
747,789.3406372070312,790.952392578125,789.7435913085938,784.908447265625
748,791.7582397460938,789.3406372070312,788.5347900390625,785.7142944335938
749,788.1318969726562,788.5347900390625,786.923095703125,790.5494384765625
750,792.967041015625,792.5640869140625,789.7435913085938,794.981689453125
751,794.981689453125,796.996337890625,790.952392578125,795.7875366210938
752,792.967041015625,796.5933837890625,792.5640869140625,797.3992919921875
753,794.1758422851562,794.981689453125,794.1758422851562,800.6226806640625
754,796.996337890625,801.025634765625,790.5494384765625,797.8021850585938
755,796.5933837890625,802.6373901367188,792.967041015625,792.5640869140625
756,788.1318969726562,794.5787353515625,800.2197875976562,788.5347900390625
757,787.3259887695312,794.5787353515625,800.2197875976562,788.5347900390625
758,790.5494384765625,795.3846435546875,798.2051391601562,783.2966918945312
759,788.937744140625,793.3699340820312,796.5933837890625,786.923095703125
760,794.1758422851562,788.937744140625,795.7875366210938,793.7728881835938
761,793.3699340820312,785.7142944335938,794.5787353515625,791.7582397460938
762,792.1611938476562,786.1171875,795.3846435546875,790.5494384765625
763,803.040283203125,786.1171875,792.967041015625,798.2051391601562
764,806.2637329101562,792.1611938476562,787.3259887695312,805.8607788085938
765,792.5640869140625,794.5787353515625,790.952392578125,792.967041015625
766,782.893798828125,794.1758422851562,792.1611938476562,776.4468994140625
767,789.7435913085938,790.1465454101562,790.952392578125,780.879150390625
768,796.996337890625,787.3259887695312,793.7728881835938,785.7142944335938
769,793.7728881835938,790.1465454101562,797.8021850585938,786.1171875
770,791.3552856445312,790.1465454101562,796.996337890625,790.1465454101562
771,790.952392578125,792.967041015625,794.981689453125,787.3259887695312
772,784.5054931640625,792.967041015625,797.3992919921875,790.1465454101562
773,785.7142944335938,796.1904907226562,798.2051391601562,794.1758422851562
774,791.7582397460938,794.981689453125,797.3992919921875,795.3846435546875
775,790.1465454101562,784.5054931640625,795.3846435546875,797.3992919921875
776,785.7142944335938,791.7582397460938,800.6226806640625,798.2051391601562
777,787.3259887695312,794.981689453125,800.2197875976562,787.7289428710938
778,785.3113403320312,788.5347900390625,791.7582397460938,774.029296875
779,784.1025390625,786.923095703125,792.5640869140625,775.6410522460938
780,791.7582397460938,790.952392578125,795.3846435546875,790.952392578125
781,793.3699340820312,797.3992919921875,800.6226806640625,799.010986328125
782,786.923095703125,795.7875366210938,797.8021850585938,792.967041015625
783,789.7435913085938,793.3699340820312,795.3846435546875,790.1465454101562
784,794.981689453125,796.1904907226562,797.8021850585938,791.3552856445312
785,795.3846435546875,794.981689453125,799.4139404296875,792.5640869140625
786,798.6080322265625,795.3846435546875,799.010986328125,803.040283203125
787,796.1904907226562,791.3552856445312,799.4139404296875,807.87548828125
788,791.3552856445312,790.952392578125,798.6080322265625,803.4432373046875
789,792.1611938476562,792.967041015625,793.3699340820312,803.8461303710938
790,796.1904907226562,792.5640869140625,788.937744140625,805.054931640625
791,796.5933837890625,796.5933837890625,793.3699340820312,803.8461303710938
792,799.010986328125,800.2197875976562,794.981689453125,801.025634765625
793,794.981689453125,802.2344360351562,793.7728881835938,800.6226806640625
794,790.952392578125,799.010986328125,795.7875366210938,806.6666870117188
795,793.3699340820312,794.1758422851562,793.3699340820312,804.6520385742188
796,788.5347900390625,790.5494384765625,792.1611938476562,800.6226806640625
797,783.2966918945312,791.3552856445312,793.7728881835938,793.7728881835938
798,780.4761962890625,791.7582397460938,789.3406372070312,790.1465454101562
799,777.2527465820312,787.3259887695312,786.923095703125,791.3552856445312
800,779.2673950195312,783.2966918945312,786.923095703125,781.2820434570312
801,785.3113403320312,788.5347900390625,789.7435913085938,784.1025390625
802,786.923095703125,793.3699340820312,794.981689453125,790.952392578125
803,782.4908447265625,791.3552856445312,790.5494384765625,788.1318969726562
804,782.893798828125,792.967041015625,785.3113403320312,786.5201416015625
805,786.1171875,792.1611938476562,786.5201416015625,784.1025390625
806,788.1318969726562,789.3406372070312,788.5347900390625,778.8644409179688
807,790.1465454101562,790.1465454101562,794.5787353515625,782.087890625
808,786.1171875,792.5640869140625,794.1758422851562,786.5201416015625
809,782.4908447265625,790.952392578125,787.7289428710938,786.1171875
810,790.5494384765625,786.1171875,788.1318969726562,791.3552856445312
811,799.010986328125,786.5201416015625,791.7582397460938,795.3846435546875
812,802.6373901367188,792.5640869140625,793.7728881835938,798.6080322265625
813,795.7875366210938,793.7728881835938,794.1758422851562,798.6080322265625
814,788.937744140625,791.7582397460938,792.1611938476562,802.2344360351562
815,791.7582397460938,791.7582397460938,790.1465454101562,793.3699340820312
816,792.967041015625,789.7435913085938,791.7582397460938,786.923095703125
817,795.3846435546875,787.7289428710938,792.5640869140625,789.7435913085938
818,797.8021850585938,793.7728881835938,793.3699340820312,784.1025390625
819,796.1904907226562,802.2344360351562,796.5933837890625,783.2966918945312
820,792.1611938476562,800.2197875976562,795.3846435546875,779.6703491210938
821,788.5347900390625,789.3406372070312,794.981689453125,782.4908447265625
822,784.908447265625,788.937744140625,793.3699340820312,789.7435913085938
823,784.5054931640625,794.5787353515625,794.1758422851562,787.3259887695312
824,783.6996459960938,782.893798828125,801.4285888671875,784.5054931640625
825,784.5054931640625,779.2673950195312,798.6080322265625,786.5201416015625
826,786.5201416015625,791.3552856445312,795.7875366210938,789.3406372070312
827,788.937744140625,788.937744140625,798.6080322265625,790.1465454101562
828,792.5640869140625,789.7435913085938,799.4139404296875,783.6996459960938
829,792.1611938476562,798.2051391601562,800.2197875976562,783.6996459960938
830,791.3552856445312,796.1904907226562,797.3992919921875,790.1465454101562
831,796.5933837890625,793.3699340820312,799.010986328125,796.5933837890625
832,800.2197875976562,793.3699340820312,801.025634765625,799.010986328125
833,801.025634765625,792.5640869140625,797.3992919921875,800.6226806640625
834,801.025634765625,790.952392578125,795.7875366210938,800.6226806640625
835,795.3846435546875,793.7728881835938,794.981689453125,790.952392578125
836,799.010986328125,794.5787353515625,794.981689453125,795.7875366210938
837,796.5933837890625,784.5054931640625,792.967041015625,802.2344360351562
838,788.937744140625,783.6996459960938,792.967041015625,792.1611938476562
839,789.3406372070312,788.937744140625,794.5787353515625,793.7728881835938
840,788.1318969726562,790.5494384765625,786.923095703125,805.054931640625
841,788.1318969726562,792.1611938476562,789.7435913085938,803.040283203125
842,790.5494384765625,792.967041015625,799.010986328125,792.967041015625
843,785.3113403320312,788.5347900390625,799.4139404296875,786.1171875
844,781.2820434570312,786.1171875,796.5933837890625,784.5054931640625
845,790.5494384765625,785.7142944335938,786.923095703125,783.2966918945312
846,802.2344360351562,786.923095703125,787.7289428710938,795.3846435546875
847,802.6373901367188,790.952392578125,790.1465454101562,801.8314819335938
848,793.7728881835938,784.5054931640625,792.1611938476562,802.6373901367188
849,788.5347900390625,780.4761962890625,794.1758422851562,794.5787353515625
850,790.952392578125,787.3259887695312,793.3699340820312,784.5054931640625
851,796.996337890625,794.5787353515625,793.3699340820312,792.967041015625
852,799.010986328125,795.7875366210938,796.5933837890625,800.2197875976562
853,796.5933837890625,797.8021850585938,794.5787353515625,796.5933837890625
854,788.937744140625,799.010986328125,788.937744140625,788.5347900390625
855,795.3846435546875,799.4139404296875,790.952392578125,794.981689453125
856,801.025634765625,798.6080322265625,789.7435913085938,804.6520385742188
857,791.3552856445312,794.981689453125,790.952392578125,802.6373901367188
858,793.7728881835938,789.3406372070312,789.7435913085938,799.010986328125
859,800.2197875976562,788.937744140625,785.7142944335938,794.981689453125
860,802.6373901367188,793.3699340820312,790.952392578125,803.8461303710938
861,796.5933837890625,790.952392578125,794.5787353515625,801.4285888671875
862,790.952392578125,787.7289428710938,794.981689453125,794.981689453125
863,793.7728881835938,793.3699340820312,794.981689453125,804.2490844726562
864,799.010986328125,794.5787353515625,800.2197875976562,805.8607788085938
865,799.8168334960938,795.7875366210938,801.025634765625,799.010986328125
866,798.6080322265625,801.025634765625,798.2051391601562,794.981689453125
867,799.8168334960938,795.7875366210938,794.1758422851562,795.7875366210938
868,797.3992919921875,790.1465454101562,789.7435913085938,792.5640869140625
869,803.4432373046875,789.7435913085938,798.6080322265625,791.3552856445312
870,810.2930297851562,792.967041015625,805.4578857421875,797.8021850585938
871,804.2490844726562,791.7582397460938,801.025634765625,805.054931640625
872,795.3846435546875,788.5347900390625,799.8168334960938,802.2344360351562
873,794.5787353515625,795.3846435546875,801.025634765625,794.981689453125
874,799.4139404296875,799.4139404296875,802.2344360351562,792.967041015625
875,797.3992919921875,791.7582397460938,805.054931640625,796.5933837890625
876,786.923095703125,787.3259887695312,801.4285888671875,795.3846435546875
877,790.1465454101562,794.1758422851562,799.010986328125,797.8021850585938
878,794.1758422851562,793.3699340820312,800.6226806640625,803.8461303710938
879,789.3406372070312,792.1611938476562,803.4432373046875,801.8314819335938
880,791.7582397460938,793.7728881835938,805.054931640625,799.010986328125
881,791.3552856445312,790.952392578125,799.8168334960938,799.010986328125
882,791.7582397460938,792.1611938476562,795.3846435546875,799.8168334960938
883,792.967041015625,794.981689453125,796.1904907226562,805.4578857421875
884,788.1318969726562,794.981689453125,796.996337890625,794.5787353515625
885,788.937744140625,790.952392578125,795.7875366210938,782.4908447265625
886,796.1904907226562,786.923095703125,793.3699340820312,788.1318969726562
887,792.967041015625,789.7435913085938,793.7728881835938,788.937744140625
888,790.1465454101562,790.952392578125,793.3699340820312,784.908447265625
889,792.967041015625,790.952392578125,793.3699340820312,783.6996459960938
890,792.5640869140625,788.937744140625,793.3699340820312,786.923095703125
891,793.3699340820312,789.7435913085938,792.967041015625,790.5494384765625
892,795.7875366210938,796.5933837890625,789.7435913085938,789.7435913085938
893,796.1904907226562,796.996337890625,786.5201416015625,789.3406372070312
894,794.981689453125,792.5640869140625,786.5201416015625,789.3406372070312
895,790.5494384765625,797.3992919921875,786.5201416015625,786.5201416015625
896,791.3552856445312,802.2344360351562,790.1465454101562,790.5494384765625
897,787.3259887695312,790.952392578125,791.7582397460938,786.1171875
898,784.5054931640625,784.1025390625,789.3406372070312,782.893798828125
899,788.1318969726562,789.7435913085938,784.1025390625,792.5640869140625
900,791.7582397460938,791.3552856445312,789.7435913085938,796.996337890625
901,795.3846435546875,792.5640869140625,792.967041015625,792.1611938476562
902,796.996337890625,792.1611938476562,790.1465454101562,792.1611938476562
903,792.5640869140625,793.7728881835938,794.1758422851562,799.010986328125
904,787.3259887695312,798.6080322265625,792.1611938476562,793.3699340820312
905,788.1318969726562,798.6080322265625,791.7582397460938,792.1611938476562
906,784.5054931640625,795.3846435546875,792.1611938476562,796.5933837890625
907,776.4468994140625,792.5640869140625,788.1318969726562,791.7582397460938
908,776.4468994140625,789.7435913085938,784.5054931640625,783.2966918945312
909,790.952392578125,786.923095703125,792.967041015625,786.923095703125
910,796.996337890625,785.3113403320312,794.981689453125,796.5933837890625
911,792.967041015625,796.1904907226562,790.952392578125,790.1465454101562
912,798.2051391601562,802.6373901367188,794.1758422851562,788.1318969726562
913,807.87548828125,794.5787353515625,800.2197875976562,794.981689453125
914,809.084228515625,799.4139404296875,802.2344360351562,796.1904907226562
915,805.054931640625,807.069580078125,798.6080322265625,793.7728881835938
916,804.6520385742188,802.2344360351562,799.010986328125,795.7875366210938
917,799.010986328125,794.5787353515625,799.010986328125,792.5640869140625
918,796.996337890625,796.1904907226562,797.3992919921875,795.7875366210938
919,789.7435913085938,794.1758422851562,799.010986328125,804.6520385742188
920,784.908447265625,790.952392578125,796.996337890625,797.3992919921875
921,793.7728881835938,792.967041015625,795.3846435546875,800.6226806640625
922,791.7582397460938,797.8021850585938,794.1758422851562,802.2344360351562
923,791.7582397460938,798.2051391601562,797.3992919921875,802.6373901367188
924,794.981689453125,796.996337890625,795.3846435546875,802.6373901367188
925,790.1465454101562,804.2490844726562,792.5640869140625,799.010986328125
926,791.7582397460938,805.4578857421875,791.3552856445312,791.3552856445312
927,792.1611938476562,803.4432373046875,791.3552856445312,782.4908447265625
928,788.1318969726562,802.6373901367188,791.3552856445312,786.5201416015625
929,793.7728881835938,801.025634765625,790.1465454101562,789.3406372070312
930,797.3992919921875,803.4432373046875,798.2051391601562,788.937744140625
931,791.7582397460938,796.996337890625,799.4139404296875,790.952392578125
932,794.5787353515625,793.7728881835938,793.3699340820312,792.1611938476562
933,801.025634765625,796.996337890625,790.5494384765625,796.1904907226562
934,798.2051391601562,797.3992919921875,791.7582397460938,794.5787353515625
935,790.5494384765625,795.7875366210938,791.7582397460938,782.4908447265625
936,784.5054931640625,792.5640869140625,790.5494384765625,783.6996459960938
937,786.5201416015625,792.5640869140625,792.967041015625,790.5494384765625
938,788.5347900390625,791.7582397460938,794.981689453125,789.3406372070312
939,786.1171875,792.5640869140625,791.7582397460938,785.3113403320312
940,792.5640869140625,791.7582397460938,793.3699340820312,784.908447265625
941,797.3992919921875,794.981689453125,796.996337890625,787.7289428710938
942,790.952392578125,795.3846435546875,793.3699340820312,782.893798828125
943,790.5494384765625,791.3552856445312,794.1758422851562,784.1025390625
944,794.5787353515625,794.5787353515625,799.010986328125,792.967041015625
945,792.967041015625,792.5640869140625,798.6080322265625,799.8168334960938
946,799.8168334960938,793.3699340820312,797.3992919921875,796.996337890625
947,801.4285888671875,795.3846435546875,799.4139404296875,794.5787353515625
948,792.967041015625,791.7582397460938,799.010986328125,796.5933837890625
949,794.1758422851562,790.1465454101562,797.3992919921875,797.3992919921875
950,795.7875366210938,795.7875366210938,797.3992919921875,795.3846435546875
951,792.967041015625,799.8168334960938,796.5933837890625,796.1904907226562
952,793.3699340820312,795.7875366210938,795.3846435546875,797.8021850585938
953,793.3699340820312,794.5787353515625,796.5933837890625,794.5787353515625
954,792.1611938476562,792.967041015625,795.3846435546875,794.981689453125
955,803.040283203125,792.1611938476562,797.8021850585938,799.8168334960938
956,806.6666870117188,792.967041015625,802.2344360351562,805.8607788085938
957,799.4139404296875,790.1465454101562,805.054931640625,804.6520385742188
958,802.6373901367188,790.5494384765625,801.8314819335938,796.1904907226562
959,801.8314819335938,792.967041015625,793.3699340820312,791.7582397460938
960,801.8314819335938,797.3992919921875,796.996337890625,789.7435913085938
961,800.2197875976562,791.7582397460938,798.2051391601562,781.6849975585938
962,799.010986328125,790.5494384765625,789.7435913085938,777.2527465820312
963,796.5933837890625,798.2051391601562,788.937744140625,785.7142944335938
964,796.1904907226562,803.040283203125,787.3259887695312,788.937744140625
965,799.010986328125,800.6226806640625,786.5201416015625,794.981689453125
966,799.010986328125,795.7875366210938,789.7435913085938,799.8168334960938
967,806.2637329101562,792.1611938476562,793.7728881835938,805.4578857421875
968,806.6666870117188,788.1318969726562,796.5933837890625,804.2490844726562
969,799.4139404296875,798.2051391601562,799.010986328125,793.3699340820312
970,798.6080322265625,799.4139404296875,796.996337890625,788.5347900390625
971,795.7875366210938,790.5494384765625,794.1758422851562,791.7582397460938
972,792.1611938476562,797.3992919921875,796.1904907226562,801.025634765625
973,788.937744140625,797.8021850585938,792.967041015625,795.7875366210938
974,789.3406372070312,792.1611938476562,792.967041015625,795.7875366210938
975,788.1318969726562,791.3552856445312,794.1758422851562,801.8314819335938
976,785.7142944335938,791.3552856445312,791.3552856445312,797.3992919921875
977,784.908447265625,788.937744140625,791.3552856445312,794.5787353515625
978,786.5201416015625,782.893798828125,788.1318969726562,790.1465454101562
979,789.7435913085938,784.908447265625,789.3406372070312,789.7435913085938
980,787.7289428710938,785.3113403320312,794.5787353515625,783.6996459960938
981,783.2966918945312,776.8497924804688,791.3552856445312,776.8497924804688
982,782.087890625,782.893798828125,789.3406372070312,784.5054931640625
983,786.1171875,786.923095703125,788.1318969726562,791.7582397460938
984,782.4908447265625,782.4908447265625,789.7435913085938,786.923095703125
985,782.893798828125,790.1465454101562,794.981689453125,787.3259887695312
986,794.5787353515625,793.7728881835938,795.7875366210938,795.7875366210938
987,794.5787353515625,793.3699340820312,791.7582397460938,798.2051391601562
988,786.923095703125,794.5787353515625,794.1758422851562,796.1904907226562
989,791.7582397460938,794.5787353515625,799.010986328125,799.4139404296875
990,798.6080322265625,788.5347900390625,798.6080322265625,807.069580078125
991,802.2344360351562,792.5640869140625,797.8021850585938,813.113525390625
992,799.8168334960938,796.996337890625,795.3846435546875,805.8607788085938
993,790.952392578125,790.5494384765625,796.1904907226562,798.6080322265625
994,789.7435913085938,786.923095703125,794.981689453125,806.6666870117188
995,788.5347900390625,788.5347900390625,794.5787353515625,806.2637329101562
996,788.937744140625,792.967041015625,797.8021850585938,793.3699340820312
997,788.5347900390625,788.937744140625,798.2051391601562,795.3846435546875
998,787.3259887695312,791.7582397460938,792.967041015625,794.1758422851562
999,791.3552856445312,793.3699340820312,786.5201416015625,782.087890625
1000,790.5494384765625,788.1318969726562,786.5201416015625,781.2820434570312
1001,789.7435913085938,784.908447265625,791.3552856445312,787.3259887695312
1002,796.1904907226562,781.6849975585938,792.1611938476562,790.5494384765625
1003,799.8168334960938,784.908447265625,788.5347900390625,790.952392578125
1004,794.981689453125,792.5640869140625,790.1465454101562,791.7582397460938
1005,788.937744140625,792.1611938476562,792.1611938476562,793.7728881835938
1006,793.7728881835938,790.952392578125,790.952392578125,802.2344360351562
1007,796.5933837890625,794.1758422851562,792.967041015625,805.4578857421875
1008,792.1611938476562,794.5787353515625,790.5494384765625,799.8168334960938
1009,789.7435913085938,794.981689453125,792.5640869140625,803.040283203125
1010,797.3992919921875,796.996337890625,796.996337890625,810.2930297851562
1011,797.3992919921875,794.1758422851562,796.5933837890625,802.2344360351562
1012,788.5347900390625,788.5347900390625,790.1465454101562,788.5347900390625
1013,786.923095703125,787.3259887695312,788.5347900390625,782.4908447265625
1014,787.7289428710938,788.5347900390625,792.5640869140625,785.7142944335938
1015,792.967041015625,792.967041015625,794.5787353515625,787.3259887695312
1016,794.1758422851562,796.1904907226562,799.010986328125,783.2966918945312
1017,791.3552856445312,792.967041015625,799.8168334960938,781.6849975585938
1018,786.1171875,792.967041015625,798.6080322265625,781.2820434570312
1019,784.5054931640625,795.7875366210938,800.2197875976562,783.6996459960938
1020,788.1318969726562,792.1611938476562,799.010986328125,785.7142944335938
1021,788.1318969726562,790.5494384765625,801.4285888671875,785.3113403320312
1022,790.952392578125,793.7728881835938,801.025634765625,787.3259887695312
1023,786.1171875,790.952392578125,793.3699340820312,785.7142944335938
1024,779.6703491210938,790.952392578125,790.952392578125,783.2966918945312
1025,778.4615478515625,792.967041015625,791.3552856445312,786.1171875
1026,782.893798828125,793.3699340820312,793.7728881835938,790.5494384765625
1027,787.7289428710938,794.5787353515625,796.5933837890625,792.967041015625
1028,784.908447265625,794.981689453125,798.2051391601562,797.8021850585938
1029,779.2673950195312,794.1758422851562,795.7875366210938,800.6226806640625
1030,779.6703491210938,796.996337890625,794.981689453125,795.3846435546875
1031,786.923095703125,795.3846435546875,796.1904907226562,791.3552856445312
1032,785.7142944335938,790.1465454101562,791.3552856445312,794.1758422851562
1033,782.087890625,794.5787353515625,790.5494384765625,794.981689453125
1034,786.923095703125,796.5933837890625,794.1758422851562,790.952392578125
1035,785.7142944335938,787.7289428710938,793.7728881835938,784.908447265625
1036,787.3259887695312,785.7142944335938,790.952392578125,784.1025390625
1037,795.3846435546875,787.3259887695312,789.3406372070312,784.1025390625
1038,795.7875366210938,790.1465454101562,789.3406372070312,779.2673950195312
1039,790.1465454101562,791.3552856445312,792.967041015625,780.4761962890625
1040,783.2966918945312,788.5347900390625,793.3699340820312,786.923095703125
1041,785.3113403320312,787.7289428710938,790.1465454101562,792.1611938476562
1042,782.893798828125,787.7289428710938,790.952392578125,784.5054931640625
1043,780.879150390625,790.5494384765625,790.1465454101562,783.2966918945312
1044,782.893798828125,794.5787353515625,788.937744140625,792.1611938476562
1045,785.3113403320312,794.1758422851562,795.7875366210938,790.5494384765625
1046,790.5494384765625,791.3552856445312,792.967041015625,788.937744140625
1047,794.981689453125,788.1318969726562,786.1171875,795.3846435546875
1048,792.1611938476562,786.923095703125,792.1611938476562,799.8168334960938
1049,783.6996459960938,788.5347900390625,794.1758422851562,800.2197875976562
1050,782.893798828125,791.3552856445312,793.7728881835938,802.6373901367188
1051,785.3113403320312,790.952392578125,792.1611938476562,803.4432373046875
1052,792.5640869140625,787.7289428710938,791.7582397460938,811.5018310546875
1053,799.010986328125,792.967041015625,795.3846435546875,811.5018310546875
1054,799.8168334960938,794.981689453125,795.7875366210938,805.054931640625
1055,799.8168334960938,790.1465454101562,794.5787353515625,803.8461303710938
1056,790.5494384765625,788.937744140625,790.952392578125,797.3992919921875
1057,786.5201416015625,789.3406372070312,795.3846435546875,794.981689453125
1058,790.952392578125,786.5201416015625,797.8021850585938,795.7875366210938
1059,792.1611938476562,783.2966918945312,795.3846435546875,793.3699340820312
1060,794.5787353515625,781.6849975585938,797.8021850585938,792.1611938476562
1061,792.1611938476562,784.5054931640625,802.2344360351562,792.5640869140625
1062,793.7728881835938,792.1611938476562,801.8314819335938,793.7728881835938
1063,800.6226806640625,794.1758422851562,795.7875366210938,799.010986328125
1064,790.5494384765625,793.3699340820312,790.952392578125,795.7875366210938
1065,789.7435913085938,793.7728881835938,796.5933837890625,788.5347900390625
1066,789.7435913085938,792.1611938476562,799.4139404296875,787.3259887695312
1067,787.3259887695312,791.7582397460938,794.1758422851562,784.5054931640625
1068,792.5640869140625,794.5787353515625,796.1904907226562,789.7435913085938
1069,787.7289428710938,792.5640869140625,794.5787353515625,787.3259887695312
1070,785.3113403320312,786.923095703125,790.1465454101562,782.893798828125
1071,793.7728881835938,784.908447265625,789.3406372070312,793.7728881835938
1072,796.996337890625,786.1171875,790.1465454101562,800.6226806640625
1073,791.7582397460938,788.937744140625,791.3552856445312,792.967041015625
1074,789.7435913085938,794.5787353515625,792.5640869140625,787.7289428710938
1075,787.7289428710938,796.1904907226562,791.7582397460938,786.5201416015625
1076,786.923095703125,799.010986328125,791.7582397460938,787.3259887695312
1077,792.967041015625,799.010986328125,793.3699340820312,790.952392578125
1078,792.5640869140625,795.3846435546875,793.3699340820312,792.967041015625
1079,790.5494384765625,794.981689453125,795.3846435546875,793.7728881835938
1080,794.1758422851562,798.2051391601562,796.5933837890625,788.937744140625
1081,788.5347900390625,796.996337890625,794.5787353515625,788.5347900390625
1082,784.5054931640625,786.1171875,794.981689453125,790.952392578125
1083,790.1465454101562,784.1025390625,790.1465454101562,790.952392578125
1084,791.7582397460938,789.7435913085938,791.7582397460938,790.1465454101562
1085,789.7435913085938,785.7142944335938,794.1758422851562,789.3406372070312
1086,789.3406372070312,782.4908447265625,788.5347900390625,792.5640869140625
1087,794.981689453125,788.937744140625,791.7582397460938,794.5787353515625
1088,794.1758422851562,792.1611938476562,795.3846435546875,790.5494384765625
1089,791.3552856445312,793.7728881835938,792.967041015625,788.1318969726562
1090,796.5933837890625,795.7875366210938,792.5640869140625,801.4285888671875
1091,794.5787353515625,793.3699340820312,795.7875366210938,808.6813354492188
1092,790.1465454101562,792.1611938476562,794.1758422851562,799.8168334960938
1093,795.3846435546875,794.981689453125,796.996337890625,800.6226806640625
1094,797.8021850585938,790.952392578125,801.025634765625,800.6226806640625
1095,794.981689453125,785.3113403320312,798.6080322265625,803.040283203125
1096,794.981689453125,787.7289428710938,797.8021850585938,805.4578857421875
1097,794.5787353515625,785.3113403320312,801.4285888671875,804.2490844726562
1098,790.952392578125,781.6849975585938,799.010986328125,801.4285888671875
1099,788.1318969726562,791.3552856445312,794.1758422851562,797.3992919921875
1100,788.5347900390625,794.5787353515625,790.952392578125,797.3992919921875
1101,790.1465454101562,797.8021850585938,786.5201416015625,796.1904907226562
1102,791.3552856445312,798.2051391601562,788.937744140625,794.5787353515625
1103,786.923095703125,796.996337890625,793.7728881835938,791.7582397460938
1104,787.7289428710938,798.6080322265625,795.3846435546875,789.3406372070312
1105,790.5494384765625,792.967041015625,789.7435913085938,783.6996459960938
1106,788.1318969726562,788.1318969726562,789.7435913085938,776.4468994140625
1107,786.1171875,786.5201416015625,791.3552856445312,776.8497924804688
1108,788.5347900390625,786.5201416015625,790.952392578125,783.6996459960938
1109,790.952392578125,796.1904907226562,791.7582397460938,796.1904907226562
1110,796.1904907226562,798.2051391601562,787.7289428710938,796.996337890625
1111,791.3552856445312,794.1758422851562,790.5494384765625,791.7582397460938
1112,785.3113403320312,796.1904907226562,793.7728881835938,795.7875366210938
1113,791.3552856445312,798.6080322265625,792.967041015625,807.069580078125
1114,788.937744140625,796.996337890625,796.996337890625,805.8607788085938
1115,785.7142944335938,794.5787353515625,795.3846435546875,790.952392578125
1116,793.7728881835938,794.5787353515625,791.3552856445312,786.923095703125
1117,795.3846435546875,792.1611938476562,790.952392578125,786.1171875
1118,792.967041015625,793.3699340820312,789.7435913085938,785.7142944335938
1119,799.010986328125,795.7875366210938,791.3552856445312,788.1318969726562
1120,801.8314819335938,795.7875366210938,792.5640869140625,790.952392578125
1121,796.1904907226562,799.4139404296875,792.1611938476562,790.5494384765625
1122,794.1758422851562,797.3992919921875,792.5640869140625,794.981689453125
1123,797.3992919921875,792.5640869140625,790.952392578125,796.996337890625
1124,796.1904907226562,794.981689453125,788.1318969726562,794.1758422851562
1125,792.5640869140625,790.952392578125,790.952392578125,805.054931640625
1126,786.5201416015625,792.5640869140625,794.1758422851562,803.8461303710938
1127,788.937744140625,797.8021850585938,797.8021850585938,796.5933837890625
1128,788.5347900390625,793.3699340820312,797.8021850585938,794.1758422851562
1129,784.1025390625,790.952392578125,794.5787353515625,784.5054931640625
1130,792.1611938476562,795.3846435546875,794.1758422851562,781.6849975585938
1131,796.1904907226562,794.5787353515625,796.996337890625,787.3259887695312
1132,796.996337890625,789.3406372070312,794.981689453125,788.937744140625
1133,794.1758422851562,788.1318969726562,788.937744140625,791.3552856445312
1134,792.1611938476562,790.1465454101562,792.967041015625,795.7875366210938
1135,792.967041015625,792.967041015625,792.967041015625,795.3846435546875
1136,787.7289428710938,794.981689453125,790.952392578125,801.025634765625
1137,785.7142944335938,792.5640869140625,794.981689453125,801.8314819335938
1138,784.908447265625,794.981689453125,796.1904907226562,796.5933837890625
1139,786.5201416015625,794.981689453125,797.3992919921875,798.2051391601562
1140,789.3406372070312,790.1465454101562,796.1904907226562,800.2197875976562
1141,788.1318969726562,794.981689453125,789.7435913085938,795.7875366210938
1142,790.1465454101562,799.010986328125,792.1611938476562,792.1611938476562
1143,792.967041015625,796.1904907226562,797.3992919921875,790.952392578125
1144,790.952392578125,799.4139404296875,793.3699340820312,790.5494384765625
1145,792.967041015625,805.4578857421875,791.7582397460938,791.3552856445312
1146,800.2197875976562,800.2197875976562,796.1904907226562,796.1904907226562
1147,801.025634765625,794.1758422851562,798.6080322265625,803.8461303710938
1148,794.1758422851562,791.3552856445312,794.981689453125,803.040283203125
1149,784.1025390625,788.1318969726562,793.7728881835938,787.7289428710938
1150,785.3113403320312,789.7435913085938,791.7582397460938,786.1171875
1151,793.3699340820312,790.5494384765625,792.5640869140625,799.010986328125
1152,789.3406372070312,788.1318969726562,792.5640869140625,800.6226806640625
1153,786.923095703125,789.7435913085938,791.3552856445312,796.996337890625
1154,789.7435913085938,789.3406372070312,793.7728881835938,793.7728881835938
1155,792.967041015625,791.7582397460938,794.981689453125,793.3699340820312
1156,792.1611938476562,795.3846435546875,796.1904907226562,794.1758422851562
1157,791.3552856445312,794.1758422851562,795.3846435546875,791.3552856445312
1158,797.3992919921875,791.7582397460938,797.8021850585938,794.5787353515625
1159,803.4432373046875,788.5347900390625,794.5787353515625,801.4285888671875
1160,799.8168334960938,790.952392578125,792.967041015625,803.8461303710938
1161,786.5201416015625,794.981689453125,799.010986328125,793.3699340820312
1162,784.1025390625,787.3259887695312,794.981689453125,788.937744140625
1163,782.4908447265625,783.6996459960938,790.952392578125,790.1465454101562
1164,780.4761962890625,783.6996459960938,792.967041015625,786.923095703125
1165,787.7289428710938,784.1025390625,793.7728881835938,790.1465454101562
1166,796.996337890625,784.1025390625,794.5787353515625,793.7728881835938
1167,794.981689453125,783.6996459960938,792.967041015625,798.2051391601562
1168,789.3406372070312,793.3699340820312,791.7582397460938,794.1758422851562
1169,786.923095703125,794.1758422851562,788.937744140625,783.6996459960938
1170,781.6849975585938,789.7435913085938,789.3406372070312,778.4615478515625
1171,780.4761962890625,786.923095703125,790.5494384765625,780.0732421875
1172,787.3259887695312,783.2966918945312,792.967041015625,788.5347900390625
1173,790.1465454101562,784.5054931640625,794.981689453125,788.937744140625
1174,787.3259887695312,786.5201416015625,793.7728881835938,784.5054931640625
1175,782.893798828125,784.5054931640625,793.3699340820312,778.8644409179688
1176,792.5640869140625,788.5347900390625,793.7728881835938,779.6703491210938
1177,795.3846435546875,792.967041015625,794.1758422851562,783.2966918945312
1178,788.1318969726562,787.7289428710938,790.952392578125,780.4761962890625
1179,788.937744140625,786.1171875,790.5494384765625,782.087890625
1180,790.5494384765625,791.3552856445312,791.7582397460938,783.6996459960938
1181,793.7728881835938,788.937744140625,796.5933837890625,788.937744140625
1182,792.967041015625,782.4908447265625,795.3846435546875,796.996337890625
1183,787.7289428710938,786.5201416015625,788.937744140625,800.6226806640625
1184,785.7142944335938,792.1611938476562,788.937744140625,792.1611938476562
1185,790.1465454101562,790.1465454101562,786.923095703125,784.5054931640625
1186,792.1611938476562,789.3406372070312,786.923095703125,783.6996459960938
1187,787.3259887695312,791.3552856445312,791.7582397460938,784.1025390625
1188,786.923095703125,793.3699340820312,790.5494384765625,782.893798828125
1189,790.5494384765625,794.5787353515625,790.1465454101562,787.3259887695312
1190,788.5347900390625,794.1758422851562,792.1611938476562,790.5494384765625
1191,787.3259887695312,789.3406372070312,797.3992919921875,792.5640869140625
1192,789.7435913085938,788.937744140625,796.996337890625,797.8021850585938
1193,790.5494384765625,794.1758422851562,795.7875366210938,800.2197875976562
1194,793.3699340820312,794.1758422851562,794.981689453125,799.4139404296875
1195,790.952392578125,788.937744140625,792.967041015625,795.7875366210938
1196,788.1318969726562,786.923095703125,795.7875366210938,796.1904907226562
1197,784.5054931640625,787.3259887695312,794.5787353515625,799.4139404296875
1198,779.2673950195312,782.893798828125,795.3846435546875,804.6520385742188
1199,781.2820434570312,787.7289428710938,795.7875366210938,808.2783813476562
1200,784.1025390625,792.1611938476562,796.1904907226562,802.2344360351562
1201,786.1171875,788.937744140625,798.2051391601562,796.996337890625
1202,788.937744140625,787.7289428710938,800.6226806640625,796.5933837890625
1203,790.952392578125,791.3552856445312,801.8314819335938,791.7582397460938
1204,792.5640869140625,796.1904907226562,801.025634765625,785.7142944335938
1205,799.010986328125,799.8168334960938,798.2051391601562,790.1465454101562
1206,803.040283203125,798.6080322265625,793.3699340820312,792.5640869140625
1207,795.7875366210938,796.996337890625,791.3552856445312,790.1465454101562
1208,793.3699340820312,790.1465454101562,792.967041015625,792.5640869140625
1209,794.1758422851562,782.087890625,793.3699340820312,792.1611938476562
1210,795.3846435546875,789.7435913085938,794.981689453125,797.8021850585938
1211,799.4139404296875,796.996337890625,798.6080322265625,802.2344360351562
1212,800.6226806640625,795.3846435546875,797.3992919921875,800.6226806640625
1213,796.996337890625,795.3846435546875,796.1904907226562,803.040283203125
1214,796.5933837890625,802.6373901367188,794.981689453125,800.6226806640625
1215,795.3846435546875,799.8168334960938,794.981689453125,800.6226806640625
1216,793.3699340820312,795.7875366210938,795.7875366210938,795.3846435546875
1217,797.8021850585938,798.6080322265625,794.5787353515625,793.7728881835938
1218,794.5787353515625,793.3699340820312,791.7582397460938,804.2490844726562
1219,787.7289428710938,791.7582397460938,784.908447265625,793.7728881835938
1220,787.3259887695312,792.5640869140625,785.7142944335938,794.1758422851562
1221,784.5054931640625,790.5494384765625,788.1318969726562,803.8461303710938
1222,790.5494384765625,791.3552856445312,790.1465454101562,801.025634765625
1223,800.2197875976562,791.7582397460938,795.7875366210938,798.2051391601562
1224,797.3992919921875,795.3846435546875,792.967041015625,794.981689453125
1225,791.3552856445312,796.5933837890625,786.923095703125,794.981689453125
1226,796.5933837890625,789.7435913085938,790.952392578125,795.3846435546875
1227,801.025634765625,785.7142944335938,797.8021850585938,801.8314819335938
1228,796.5933837890625,788.1318969726562,798.6080322265625,808.6813354492188
1229,797.8021850585938,790.1465454101562,798.2051391601562,809.084228515625
1230,800.2197875976562,794.1758422851562,798.2051391601562,807.87548828125
1231,799.8168334960938,799.4139404296875,796.1904907226562,808.2783813476562
1232,812.3076782226562,794.5787353515625,796.996337890625,812.3076782226562
1233,809.084228515625,794.1758422851562,799.8168334960938,811.5018310546875
1234,798.2051391601562,796.996337890625,802.6373901367188,805.8607788085938
1235,800.6226806640625,794.5787353515625,802.2344360351562,804.6520385742188
1236,801.025634765625,794.1758422851562,799.4139404296875,801.025634765625
1237,799.8168334960938,794.1758422851562,802.2344360351562,803.8461303710938
1238,797.8021850585938,794.1758422851562,799.4139404296875,800.6226806640625
1239,794.981689453125,795.7875366210938,796.996337890625,797.3992919921875
1240,790.952392578125,792.967041015625,798.6080322265625,796.996337890625
1241,788.1318969726562,794.1758422851562,796.1904907226562,790.1465454101562
1242,793.7728881835938,794.5787353515625,798.2051391601562,784.5054931640625
1243,795.3846435546875,793.3699340820312,796.5933837890625,784.1025390625
1244,795.3846435546875,793.3699340820312,797.3992919921875,795.3846435546875
1245,793.3699340820312,794.981689453125,803.040283203125,799.8168334960938
1246,789.7435913085938,795.3846435546875,800.6226806640625,790.952392578125
1247,791.7582397460938,795.3846435546875,794.1758422851562,789.3406372070312
1248,794.5787353515625,792.967041015625,794.5787353515625,795.3846435546875
1249,794.5787353515625,795.7875366210938,797.3992919921875,794.1758422851562
1250,796.5933837890625,794.981689453125,795.7875366210938,793.3699340820312
1251,797.3992919921875,789.7435913085938,794.1758422851562,792.5640869140625
1252,794.1758422851562,798.2051391601562,794.1758422851562,790.5494384765625
1253,799.010986328125,793.3699340820312,794.5787353515625,794.1758422851562
1254,791.3552856445312,789.7435913085938,791.3552856445312,792.967041015625
1255,780.879150390625,794.1758422851562,788.937744140625,795.7875366210938
1256,785.7142944335938,794.5787353515625,790.1465454101562,803.8461303710938
1257,784.5054931640625,794.981689453125,793.3699340820312,798.2051391601562
1258,780.4761962890625,795.3846435546875,795.3846435546875,790.5494384765625
1259,789.3406372070312,794.1758422851562,797.3992919921875,792.967041015625
1260,795.7875366210938,796.5933837890625,801.8314819335938,794.981689453125
1261,790.952392578125,799.4139404296875,803.040283203125,790.952392578125
1262,791.3552856445312,792.5640869140625,802.6373901367188,786.5201416015625
1263,794.981689453125,784.5054931640625,801.8314819335938,791.7582397460938
1264,791.7582397460938,786.5201416015625,800.6226806640625,795.3846435546875
1265,788.937744140625,790.5494384765625,799.8168334960938,794.1758422851562
1266,790.5494384765625,788.5347900390625,799.8168334960938,797.8021850585938
1267,789.3406372070312,788.937744140625,798.2051391601562,799.8168334960938
1268,786.1171875,797.3992919921875,798.2051391601562,794.981689453125
1269,780.879150390625,798.6080322265625,796.5933837890625,781.6849975585938
1270,782.087890625,794.1758422851562,795.7875366210938,782.087890625
1271,788.937744140625,799.010986328125,799.010986328125,790.5494384765625
1272,796.5933837890625,801.8314819335938,798.2051391601562,790.5494384765625
1273,792.1611938476562,797.8021850585938,797.3992919921875,788.5347900390625
1274,792.1611938476562,798.2051391601562,794.981689453125,790.952392578125
1275,796.5933837890625,798.2051391601562,790.952392578125,792.1611938476562
1276,794.5787353515625,793.7728881835938,792.1611938476562,788.937744140625
1277,801.025634765625,797.8021850585938,794.981689453125,792.967041015625
1278,806.2637329101562,798.2051391601562,796.1904907226562,804.2490844726562
1279,801.8314819335938,792.5640869140625,795.7875366210938,803.8461303710938
1280,797.3992919921875,794.5787353515625,794.5787353515625,799.010986328125
1281,793.7728881835938,797.8021850585938,792.967041015625,794.1758422851562
1282,798.6080322265625,795.3846435546875,793.3699340820312,800.6226806640625
1283,800.6226806640625,790.5494384765625,794.981689453125,800.2197875976562
1284,792.967041015625,792.1611938476562,792.967041015625,793.3699340820312
1285,794.981689453125,792.967041015625,794.981689453125,793.7728881835938
1286,799.010986328125,792.1611938476562,794.5787353515625,793.3699340820312
1287,795.7875366210938,788.1318969726562,795.7875366210938,795.3846435546875
1288,791.3552856445312,788.937744140625,800.6226806640625,799.010986328125
1289,795.3846435546875,794.1758422851562,800.6226806640625,805.4578857421875
1290,795.3846435546875,791.3552856445312,798.6080322265625,801.4285888671875
1291,789.7435913085938,789.3406372070312,798.6080322265625,798.6080322265625
1292,788.937744140625,790.5494384765625,797.8021850585938,795.7875366210938
1293,788.5347900390625,792.1611938476562,796.5933837890625,782.087890625
1294,791.3552856445312,794.1758422851562,793.3699340820312,781.6849975585938
1295,795.3846435546875,794.1758422851562,795.3846435546875,787.7289428710938
1296,804.6520385742188,794.5787353515625,799.010986328125,790.952392578125
1297,803.8461303710938,795.7875366210938,791.3552856445312,796.1904907226562
1298,796.996337890625,797.8021850585938,790.1465454101562,797.8021850585938
1299,801.4285888671875,798.2051391601562,795.3846435546875,805.4578857421875
1300,800.6226806640625,791.7582397460938,794.5787353515625,808.6813354492188
1301,796.5933837890625,795.3846435546875,792.967041015625,804.6520385742188
1302,797.3992919921875,800.6226806640625,794.5787353515625,804.6520385742188
1303,799.4139404296875,796.5933837890625,794.1758422851562,804.2490844726562
1304,797.3992919921875,794.1758422851562,795.3846435546875,802.2344360351562
1305,793.7728881835938,790.5494384765625,796.5933837890625,803.4432373046875
1306,790.952392578125,787.3259887695312,793.7728881835938,801.4285888671875
1307,790.1465454101562,792.967041015625,792.967041015625,793.3699340820312
1308,794.5787353515625,796.1904907226562,793.7728881835938,796.5933837890625
1309,795.7875366210938,794.5787353515625,793.3699340820312,799.4139404296875
1310,793.3699340820312,788.937744140625,789.7435913085938,799.4139404296875
1311,785.3113403320312,787.7289428710938,789.3406372070312,793.7728881835938
1312,780.879150390625,787.3259887695312,790.952392578125,788.1318969726562
1313,788.5347900390625,788.1318969726562,793.7728881835938,794.5787353515625
1314,792.5640869140625,792.1611938476562,795.3846435546875,796.1904907226562
1315,792.967041015625,791.3552856445312,800.6226806640625,794.981689453125
1316,791.3552856445312,789.7435913085938,804.2490844726562,794.5787353515625
1317,788.5347900390625,787.3259887695312,796.5933837890625,796.996337890625
1318,793.3699340820312,788.1318969726562,794.1758422851562,796.1904907226562
1319,803.040283203125,794.5787353515625,799.8168334960938,792.967041015625
1320,799.4139404296875,798.2051391601562,799.010986328125,798.2051391601562
1321,790.5494384765625,791.3552856445312,794.5787353515625,797.8021850585938
1322,790.952392578125,791.3552856445312,794.5787353515625,801.025634765625
1323,791.7582397460938,798.2051391601562,793.3699340820312,797.3992919921875
1324,794.981689453125,799.8168334960938,793.3699340820312,792.5640869140625
1325,796.996337890625,799.010986328125,796.1904907226562,794.981689453125
1326,793.3699340820312,799.8168334960938,797.8021850585938,790.952392578125
1327,794.5787353515625,800.2197875976562,792.5640869140625,787.7289428710938
1328,796.5933837890625,792.967041015625,791.3552856445312,790.952392578125
1329,790.1465454101562,790.5494384765625,793.3699340820312,791.7582397460938
1330,791.7582397460938,795.3846435546875,794.1758422851562,782.893798828125
1331,801.025634765625,794.5787353515625,795.3846435546875,789.7435913085938
1332,803.040283203125,793.7728881835938,789.7435913085938,792.5640869140625
1333,802.2344360351562,795.7875366210938,786.1171875,790.5494384765625
1334,800.6226806640625,791.7582397460938,788.5347900390625,795.7875366210938
1335,805.8607788085938,790.1465454101562,791.7582397460938,803.040283203125
1336,805.054931640625,794.1758422851562,795.3846435546875,801.8314819335938
1337,799.010986328125,795.7875366210938,795.3846435546875,798.6080322265625
1338,801.4285888671875,792.1611938476562,796.5933837890625,796.5933837890625
1339,805.4578857421875,792.967041015625,794.981689453125,792.967041015625
1340,810.6959838867188,792.5640869140625,792.5640869140625,804.6520385742188
1341,807.87548828125,788.1318969726562,794.981689453125,802.2344360351562
1342,802.2344360351562,791.3552856445312,797.8021850585938,795.3846435546875
1343,803.8461303710938,796.1904907226562,796.1904907226562,793.3699340820312
1344,798.2051391601562,796.1904907226562,798.2051391601562,794.1758422851562
1345,795.3846435546875,797.3992919921875,801.8314819335938,799.010986328125
1346,793.3699340820312,793.3699340820312,798.6080322265625,795.3846435546875
1347,790.5494384765625,790.1465454101562,797.3992919921875,794.1758422851562
1348,792.1611938476562,794.1758422851562,796.5933837890625,798.6080322265625
1349,790.5494384765625,794.1758422851562,796.1904907226562,799.010986328125
1350,788.937744140625,794.1758422851562,796.996337890625,792.5640869140625
1351,790.1465454101562,795.3846435546875,801.8314819335938,796.996337890625
1352,787.3259887695312,796.5933837890625,801.8314819335938,796.5933837890625
1353,786.5201416015625,791.3552856445312,800.6226806640625,787.7289428710938
1354,787.3259887695312,789.7435913085938,803.8461303710938,789.3406372070312
1355,794.5787353515625,790.952392578125,795.3846435546875,795.3846435546875
1356,791.7582397460938,793.3699340820312,794.5787353515625,790.1465454101562
1357,784.908447265625,793.3699340820312,803.8461303710938,782.087890625
1358,782.087890625,789.3406372070312,801.4285888671875,786.5201416015625
1359,781.2820434570312,790.1465454101562,798.6080322265625,790.1465454101562
1360,789.3406372070312,793.7728881835938,802.6373901367188,788.937744140625
1361,796.996337890625,794.5787353515625,799.4139404296875,784.908447265625
1362,797.3992919921875,793.7728881835938,797.8021850585938,784.908447265625
1363,798.2051391601562,791.7582397460938,799.8168334960938,792.5640869140625
1364,796.996337890625,794.981689453125,800.6226806640625,794.1758422851562
1365,794.5787353515625,799.4139404296875,803.8461303710938,791.7582397460938
1366,799.010986328125,796.5933837890625,805.054931640625,800.2197875976562
1367,802.6373901367188,791.7582397460938,804.2490844726562,807.87548828125
1368,794.5787353515625,792.5640869140625,803.8461303710938,800.2197875976562
1369,789.7435913085938,795.3846435546875,801.025634765625,792.5640869140625
1370,795.7875366210938,788.5347900390625,796.5933837890625,793.7728881835938
1371,792.1611938476562,790.952392578125,793.3699340820312,790.952392578125
1372,790.1465454101562,798.6080322265625,796.1904907226562,794.1758422851562
1373,800.6226806640625,794.5787353515625,799.8168334960938,794.981689453125
1374,797.8021850585938,796.996337890625,794.5787353515625,788.937744140625
1375,794.1758422851562,799.8168334960938,791.3552856445312,780.4761962890625
1376,796.5933837890625,798.6080322265625,793.7728881835938,778.4615478515625
1377,790.952392578125,800.6226806640625,793.3699340820312,783.6996459960938
1378,792.5640869140625,799.010986328125,792.1611938476562,792.967041015625
1379,793.3699340820312,800.2197875976562,792.5640869140625,797.8021850585938
1380,785.3113403320312,799.8168334960938,795.7875366210938,784.1025390625
1381,786.5201416015625,792.5640869140625,797.3992919921875,782.893798828125
1382,790.952392578125,792.967041015625,799.8168334960938,790.952392578125
1383,789.7435913085938,801.8314819335938,796.996337890625,788.5347900390625
1384,790.952392578125,801.8314819335938,793.7728881835938,786.5201416015625
1385,790.1465454101562,793.3699340820312,792.967041015625,791.3552856445312
1386,788.5347900390625,788.937744140625,794.5787353515625,793.7728881835938
1387,786.1171875,789.3406372070312,794.981689453125,794.5787353515625
1388,784.908447265625,790.952392578125,792.967041015625,795.7875366210938
1389,782.087890625,786.923095703125,792.1611938476562,794.5787353515625
1390,780.4761962890625,784.1025390625,789.3406372070312,795.3846435546875
1391,787.7289428710938,793.7728881835938,790.1465454101562,804.6520385742188
1392,789.7435913085938,794.5787353515625,793.7728881835938,803.4432373046875
1393,792.5640869140625,792.1611938476562,794.981689453125,799.4139404296875
1394,797.8021850585938,794.5787353515625,797.3992919921875,803.040283203125
1395,796.1904907226562,789.3406372070312,796.996337890625,792.967041015625
1396,796.996337890625,787.3259887695312,799.010986328125,795.7875366210938
1397,798.2051391601562,791.7582397460938,799.4139404296875,805.054931640625
1398,794.5787353515625,788.1318969726562,795.3846435546875,793.3699340820312
1399,794.1758422851562,789.3406372070312,795.7875366210938,788.5347900390625
1400,793.7728881835938,791.3552856445312,796.996337890625,787.3259887695312
1401,797.3992919921875,787.3259887695312,796.1904907226562,789.3406372070312
1402,796.5933837890625,787.7289428710938,793.7728881835938,792.5640869140625
1403,786.5201416015625,789.7435913085938,794.5787353515625,785.7142944335938
1404,782.4908447265625,788.937744140625,793.7728881835938,784.1025390625
1405,778.8644409179688,788.937744140625,792.1611938476562,783.2966918945312
1406,781.2820434570312,793.3699340820312,794.5787353515625,788.937744140625
1407,782.087890625,798.2051391601562,794.981689453125,795.7875366210938
1408,784.908447265625,794.5787353515625,790.952392578125,799.010986328125
1409,784.1025390625,791.3552856445312,787.7289428710938,805.4578857421875
1410,784.5054931640625,794.1758422851562,794.1758422851562,804.2490844726562
1411,780.879150390625,791.3552856445312,799.010986328125,799.8168334960938
1412,774.029296875,791.7582397460938,795.7875366210938,798.6080322265625
1413,780.0732421875,793.3699340820312,794.5787353515625,800.2197875976562
1414,784.1025390625,788.937744140625,792.5640869140625,800.2197875976562
1415,786.5201416015625,789.7435913085938,791.3552856445312,797.8021850585938
1416,788.937744140625,792.1611938476562,791.3552856445312,801.4285888671875
1417,790.5494384765625,792.5640869140625,789.3406372070312,803.4432373046875
1418,788.5347900390625,796.5933837890625,793.3699340820312,801.025634765625
1419,789.3406372070312,800.6226806640625,795.7875366210938,799.8168334960938
1420,796.1904907226562,791.7582397460938,794.1758422851562,801.8314819335938
1421,797.3992919921875,792.967041015625,792.967041015625,800.6226806640625
1422,798.6080322265625,801.8314819335938,790.952392578125,796.5933837890625
1423,799.4139404296875,796.1904907226562,792.967041015625,794.5787353515625
1424,799.8168334960938,796.1904907226562,794.5787353515625,801.4285888671875
1425,799.010986328125,796.996337890625,794.1758422851562,803.040283203125
1426,792.1611938476562,794.5787353515625,799.4139404296875,787.7289428710938
1427,788.5347900390625,793.3699340820312,797.3992919921875,782.087890625
1428,792.1611938476562,796.5933837890625,791.3552856445312,786.923095703125
1429,786.923095703125,799.8168334960938,793.7728881835938,787.7289428710938
1430,782.087890625,794.981689453125,796.996337890625,784.1025390625
1431,786.1171875,790.5494384765625,799.8168334960938,782.4908447265625
1432,784.1025390625,795.3846435546875,796.996337890625,781.6849975585938
1433,781.2820434570312,798.2051391601562,792.5640869140625,780.4761962890625
1434,781.2820434570312,792.967041015625,791.3552856445312,776.4468994140625
1435,780.0732421875,790.1465454101562,788.937744140625,774.8351440429688
1436,783.2966918945312,785.7142944335938,791.7582397460938,792.5640869140625
1437,792.5640869140625,788.1318969726562,794.5787353515625,796.1904907226562
1438,799.4139404296875,796.5933837890625,798.6080322265625,793.3699340820312
1439,799.4139404296875,794.1758422851562,799.8168334960938,800.6226806640625
1440,791.7582397460938,794.1758422851562,799.4139404296875,799.4139404296875
1441,791.7582397460938,797.8021850585938,799.010986328125,798.6080322265625
1442,800.6226806640625,798.2051391601562,796.1904907226562,796.5933837890625
1443,800.2197875976562,796.1904907226562,793.3699340820312,792.967041015625
1444,791.7582397460938,792.5640869140625,792.1611938476562,788.5347900390625
1445,790.5494384765625,790.5494384765625,786.5201416015625,783.6996459960938
1446,794.981689453125,790.1465454101562,787.3259887695312,787.3259887695312
1447,796.1904907226562,794.1758422851562,790.1465454101562,800.6226806640625
1448,794.981689453125,796.996337890625,790.5494384765625,803.8461303710938
1449,792.1611938476562,794.5787353515625,792.5640869140625,790.952392578125
1450,789.7435913085938,792.967041015625,790.5494384765625,782.4908447265625
1451,788.5347900390625,793.3699340820312,791.3552856445312,789.3406372070312
1452,787.3259887695312,794.5787353515625,794.5787353515625,792.1611938476562
1453,786.923095703125,792.1611938476562,796.1904907226562,788.1318969726562
1454,784.908447265625,787.3259887695312,795.7875366210938,788.1318969726562
1455,784.1025390625,789.7435913085938,793.3699340820312,786.5201416015625
1456,782.893798828125,790.952392578125,783.6996459960938,788.1318969726562
1457,780.4761962890625,790.1465454101562,781.6849975585938,786.923095703125
1458,782.893798828125,788.937744140625,788.5347900390625,786.5201416015625
1459,788.937744140625,784.5054931640625,794.1758422851562,796.996337890625
1460,786.1171875,793.3699340820312,792.5640869140625,792.967041015625
1461,787.7289428710938,795.7875366210938,792.5640869140625,783.6996459960938
1462,789.3406372070312,791.3552856445312,794.981689453125,788.937744140625
1463,792.5640869140625,794.981689453125,792.1611938476562,794.1758422851562
1464,795.7875366210938,798.6080322265625,793.7728881835938,790.5494384765625
1465,792.967041015625,799.8168334960938,793.7728881835938,790.1465454101562
1466,796.996337890625,799.010986328125,793.7728881835938,793.7728881835938
1467,796.5933837890625,798.6080322265625,795.3846435546875,797.8021850585938
1468,794.981689453125,796.996337890625,796.5933837890625,798.6080322265625
1469,799.4139404296875,798.6080322265625,801.4285888671875,799.8168334960938
1470,796.996337890625,796.1904907226562,798.2051391601562,798.6080322265625
1471,791.7582397460938,787.7289428710938,790.952392578125,795.7875366210938
1472,792.5640869140625,785.7142944335938,794.1758422851562,793.3699340820312
1473,790.1465454101562,792.967041015625,793.7728881835938,790.1465454101562
1474,792.1611938476562,799.4139404296875,790.952392578125,790.5494384765625
1475,794.5787353515625,794.5787353515625,790.1465454101562,792.967041015625
1476,788.937744140625,791.7582397460938,790.952392578125,792.5640869140625
1477,793.7728881835938,797.3992919921875,795.7875366210938,802.6373901367188
1478,800.6226806640625,797.8021850585938,792.967041015625,802.6373901367188
1479,794.981689453125,794.981689453125,788.1318969726562,784.5054931640625
1480,795.3846435546875,797.3992919921875,792.5640869140625,782.087890625
1481,799.010986328125,794.981689453125,794.1758422851562,792.5640869140625
1482,801.4285888671875,789.3406372070312,794.1758422851562,799.8168334960938
1483,805.4578857421875,792.967041015625,794.981689453125,803.040283203125
1484,807.87548828125,801.8314819335938,796.5933837890625,799.8168334960938
1485,805.054931640625,797.3992919921875,798.2051391601562,796.5933837890625
1486,796.5933837890625,787.7289428710938,797.8021850585938,796.5933837890625
1487,792.1611938476562,788.1318969726562,799.4139404296875,793.7728881835938
1488,799.8168334960938,788.937744140625,801.025634765625,796.1904907226562
1489,801.8314819335938,793.3699340820312,801.8314819335938,796.5933837890625
1490,796.5933837890625,796.5933837890625,801.8314819335938,792.967041015625
1491,790.952392578125,792.5640869140625,800.2197875976562,792.5640869140625
1492,787.7289428710938,790.1465454101562,801.4285888671875,794.981689453125
1493,792.5640869140625,791.3552856445312,796.996337890625,801.025634765625
1494,792.5640869140625,787.3259887695312,791.7582397460938,799.010986328125
1495,785.7142944335938,786.1171875,795.3846435546875,792.967041015625
1496,782.4908447265625,792.1611938476562,802.6373901367188,786.1171875
1497,787.7289428710938,789.7435913085938,800.6226806640625,792.5640869140625
1498,786.5201416015625,790.1465454101562,794.981689453125,803.040283203125
1499,782.4908447265625,796.1904907226562,799.010986328125,798.6080322265625
1500,789.3406372070312,788.937744140625,801.025634765625,795.7875366210938
1501,792.1611938476562,784.1025390625,802.2344360351562,791.3552856445312
1502,785.7142944335938,792.5640869140625,796.996337890625,787.7289428710938
1503,786.1171875,796.1904907226562,793.7728881835938,789.7435913085938
1504,790.1465454101562,795.3846435546875,795.3846435546875,792.5640869140625
1505,794.981689453125,795.7875366210938,793.3699340820312,794.5787353515625
1506,802.6373901367188,799.8168334960938,792.1611938476562,794.981689453125
1507,800.6226806640625,801.025634765625,792.967041015625,791.3552856445312
1508,798.6080322265625,799.010986328125,791.7582397460938,788.1318969726562
1509,802.6373901367188,799.010986328125,790.5494384765625,799.8168334960938
1510,799.4139404296875,799.010986328125,791.7582397460938,808.6813354492188
1511,796.5933837890625,799.4139404296875,793.3699340820312,799.4139404296875
1512,798.6080322265625,799.010986328125,795.7875366210938,801.025634765625
1513,800.6226806640625,798.2051391601562,790.5494384765625,798.2051391601562
1514,796.996337890625,800.2197875976562,791.7582397460938,794.1758422851562
1515,794.5787353515625,801.4285888671875,793.7728881835938,796.5933837890625
1516,797.8021850585938,796.996337890625,792.5640869140625,790.5494384765625
1517,792.967041015625,797.8021850585938,792.1611938476562,786.1171875
1518,790.952392578125,801.4285888671875,790.952392578125,786.1171875
1519,798.2051391601562,803.040283203125,792.5640869140625,784.5054931640625
1520,796.996337890625,798.2051391601562,794.1758422851562,791.3552856445312
1521,792.967041015625,792.5640869140625,793.3699340820312,796.5933837890625
1522,795.3846435546875,794.1758422851562,794.1758422851562,792.1611938476562
1523,793.3699340820312,796.996337890625,792.967041015625,790.952392578125
1524,795.7875366210938,798.6080322265625,794.1758422851562,795.3846435546875
1525,800.6226806640625,796.1904907226562,796.996337890625,805.4578857421875
1526,793.3699340820312,795.7875366210938,799.8168334960938,810.2930297851562
1527,790.5494384765625,794.1758422851562,802.2344360351562,807.87548828125
1528,792.5640869140625,795.3846435546875,796.1904907226562,805.8607788085938
1529,792.5640869140625,796.5933837890625,797.3992919921875,807.069580078125
1530,794.5787353515625,792.1611938476562,796.1904907226562,801.4285888671875
1531,794.981689453125,792.1611938476562,794.1758422851562,801.4285888671875
1532,801.025634765625,794.5787353515625,799.8168334960938,810.6959838867188
1533,807.4725341796875,797.8021850585938,799.010986328125,802.2344360351562
1534,800.2197875976562,800.2197875976562,795.7875366210938,785.3113403320312
1535,794.5787353515625,791.3552856445312,792.1611938476562,782.087890625
1536,792.5640869140625,784.908447265625,787.3259887695312,784.1025390625
1537,790.5494384765625,783.2966918945312,788.937744140625,786.1171875
1538,792.1611938476562,784.1025390625,790.952392578125,791.3552856445312
1539,792.5640869140625,786.923095703125,787.7289428710938,789.3406372070312
1540,795.7875366210938,790.952392578125,793.3699340820312,790.5494384765625
1541,797.3992919921875,791.3552856445312,800.6226806640625,795.3846435546875
1542,792.967041015625,792.5640869140625,793.7728881835938,795.7875366210938
1543,784.1025390625,793.3699340820312,787.7289428710938,795.3846435546875
1544,787.7289428710938,791.3552856445312,791.3552856445312,793.3699340820312
1545,789.7435913085938,794.1758422851562,790.952392578125,784.1025390625
1546,786.5201416015625,795.7875366210938,789.3406372070312,784.908447265625
1547,787.3259887695312,788.1318969726562,790.952392578125,791.3552856445312
1548,788.1318969726562,784.1025390625,793.7728881835938,794.1758422851562
1549,784.5054931640625,786.923095703125,792.1611938476562,790.5494384765625
1550,784.908447265625,793.3699340820312,784.908447265625,790.5494384765625
1551,780.4761962890625,796.996337890625,786.1171875,792.967041015625
1552,775.6410522460938,790.952392578125,784.908447265625,781.6849975585938
1553,778.05859375,789.7435913085938,785.7142944335938,784.5054931640625
1554,782.893798828125,796.1904907226562,788.5347900390625,794.5787353515625
1555,786.1171875,795.3846435546875,784.908447265625,794.981689453125
1556,784.5054931640625,792.967041015625,784.908447265625,787.7289428710938
1557,792.1611938476562,799.010986328125,787.3259887695312,774.4322509765625
1558,792.967041015625,797.8021850585938,786.5201416015625,773.2234497070312
1559,790.5494384765625,794.1758422851562,785.3113403320312,782.087890625
1560,797.8021850585938,798.6080322265625,789.7435913085938,791.3552856445312
1561,800.2197875976562,794.1758422851562,790.5494384765625,800.2197875976562
1562,794.5787353515625,788.5347900390625,788.5347900390625,798.6080322265625
1563,786.923095703125,794.981689453125,791.7582397460938,798.2051391601562
1564,785.3113403320312,795.3846435546875,791.7582397460938,801.025634765625
1565,793.7728881835938,789.3406372070312,795.7875366210938,801.4285888671875
1566,799.010986328125,787.3259887695312,797.3992919921875,799.8168334960938
1567,795.3846435546875,787.7289428710938,795.3846435546875,803.040283203125
1568,791.3552856445312,790.952392578125,801.8314819335938,807.069580078125
1569,781.2820434570312,796.996337890625,801.4285888671875,798.2051391601562
1570,782.087890625,794.1758422851562,794.981689453125,798.2051391601562
1571,787.3259887695312,792.967041015625,795.7875366210938,808.2783813476562
1572,794.1758422851562,796.5933837890625,798.2051391601562,807.87548828125
1573,803.8461303710938,796.5933837890625,793.7728881835938,799.010986328125
1574,800.6226806640625,797.8021850585938,790.1465454101562,790.952392578125
1575,796.5933837890625,795.3846435546875,792.5640869140625,793.7728881835938
1576,797.3992919921875,796.1904907226562,792.1611938476562,790.1465454101562
1577,798.6080322265625,796.996337890625,788.1318969726562,786.1171875
1578,801.025634765625,790.952392578125,792.5640869140625,796.996337890625
1579,801.8314819335938,790.1465454101562,798.2051391601562,796.996337890625
1580,798.2051391601562,788.5347900390625,795.7875366210938,784.908447265625
