timestamp,RAW_TP9,RAW_AF7,RAW_AF8,RAW_TP10
1,802.6373901367188,794.981689453125,804.6520385742188,809.4871826171875
2,808.6813354492188,796.1904907226562,805.054931640625,809.89013671875
3,809.084228515625,793.7728881835938,804.6520385742188,802.2344360351562
4,804.2490844726562,790.952392578125,801.8314819335938,808.6813354492188
5,793.3699340820312,793.7728881835938,794.5787353515625,801.8314819335938
6,792.967041015625,794.5787353515625,796.996337890625,794.5787353515625
7,794.981689453125,794.5787353515625,802.6373901367188,803.4432373046875
8,793.3699340820312,797.3992919921875,802.2344360351562,802.6373901367188
9,792.1611938476562,795.3846435546875,802.2344360351562,792.1611938476562
10,797.8021850585938,793.7728881835938,801.025634765625,798.2051391601562
11,806.2637329101562,792.967041015625,800.6226806640625,799.4139404296875
12,796.996337890625,791.3552856445312,799.010986328125,787.3259887695312
13,797.3992919921875,792.1611938476562,795.7875366210938,788.1318969726562
14,805.4578857421875,793.7728881835938,799.4139404296875,793.3699340820312
15,802.6373901367188,789.3406372070312,800.6226806640625,802.2344360351562
16,804.6520385742188,788.937744140625,801.4285888671875,809.4871826171875
17,802.6373901367188,796.1904907226562,807.069580078125,804.2490844726562
18,799.010986328125,793.7728881835938,805.054931640625,801.025634765625
19,801.8314819335938,792.967041015625,804.6520385742188,809.89013671875
20,803.8461303710938,794.5787353515625,807.87548828125,815.93408203125
21,806.2637329101562,797.8021850585938,807.4725341796875,814.7252807617188
22,809.4871826171875,798.2051391601562,804.2490844726562,814.3223266601562
23,810.2930297851562,799.4139404296875,801.8314819335938,808.2783813476562
24,813.113525390625,806.2637329101562,807.4725341796875,803.8461303710938
25,818.3516235351562,808.6813354492188,810.2930297851562,811.90478515625
26,816.7399291992188,803.8461303710938,805.8607788085938,813.5164794921875
27,817.5457763671875,799.4139404296875,805.4578857421875,812.3076782226562
28,811.098876953125,799.4139404296875,805.4578857421875,809.084228515625
29,803.040283203125,801.8314819335938,804.2490844726562,807.4725341796875
30,804.6520385742188,797.3992919921875,803.8461303710938,812.3076782226562
31,809.084228515625,792.1611938476562,807.87548828125,816.3369750976562
32,811.90478515625,796.5933837890625,807.4725341796875,812.7106323242188
33,814.7252807617188,804.6520385742188,807.87548828125,819.5604248046875
34,803.8461303710938,800.6226806640625,807.4725341796875,811.90478515625
35,797.8021850585938,797.8021850585938,803.040283203125,794.5787353515625
36,800.2197875976562,795.7875366210938,803.040283203125,794.1758422851562
37,797.8021850585938,793.3699340820312,802.6373901367188,796.996337890625
38,797.8021850585938,792.967041015625,801.8314819335938,806.2637329101562
39,794.1758422851562,792.5640869140625,802.2344360351562,808.6813354492188
40,788.937744140625,793.3699340820312,805.054931640625,798.2051391601562
41,790.5494384765625,794.981689453125,808.6813354492188,798.6080322265625
42,801.025634765625,799.010986328125,806.6666870117188,807.4725341796875
43,804.2490844726562,803.040283203125,808.2783813476562,806.6666870117188
44,801.025634765625,805.4578857421875,812.3076782226562,804.2490844726562
45,801.4285888671875,805.8607788085938,809.4871826171875,802.6373901367188
46,807.4725341796875,805.4578857421875,808.6813354492188,799.4139404296875
47,809.084228515625,804.6520385742188,811.098876953125,796.5933837890625
48,801.4285888671875,804.2490844726562,811.098876953125,795.7875366210938
49,794.981689453125,799.8168334960938,809.084228515625,797.3992919921875
50,794.1758422851562,799.8168334960938,805.054931640625,796.1904907226562
51,797.8021850585938,803.8461303710938,807.4725341796875,795.3846435546875
52,799.010986328125,804.2490844726562,812.3076782226562,792.967041015625
53,805.4578857421875,805.054931640625,812.7106323242188,805.8607788085938
54,805.4578857421875,805.4578857421875,811.098876953125,817.94873046875
55,806.6666870117188,805.4578857421875,813.5164794921875,812.7106323242188
56,814.3223266601562,805.8607788085938,817.5457763671875,812.7106323242188
57,815.5311279296875,801.4285888671875,814.3223266601562,814.7252807617188
58,808.6813354492188,800.6226806640625,813.113525390625,809.4871826171875
59,803.4432373046875,798.6080322265625,808.2783813476562,801.8314819335938
60,805.8607788085938,797.3992919921875,804.2490844726562,801.4285888671875
61,809.4871826171875,799.4139404296875,802.6373901367188,809.89013671875
62,809.89013671875,798.6080322265625,803.8461303710938,812.7106323242188
63,811.098876953125,799.8168334960938,802.6373901367188,806.6666870117188
64,808.6813354492188,799.8168334960938,803.8461303710938,807.87548828125
65,807.87548828125,794.5787353515625,801.8314819335938,813.91943359375
66,805.054931640625,792.5640869140625,800.2197875976562,805.8607788085938
67,810.6959838867188,795.7875366210938,802.6373901367188,805.054931640625
68,812.3076782226562,794.1758422851562,800.2197875976562,809.084228515625
69,807.87548828125,793.3699340820312,799.8168334960938,802.2344360351562
70,809.89013671875,796.5933837890625,804.2490844726562,801.025634765625
71,804.6520385742188,794.981689453125,801.4285888671875,799.4139404296875
72,799.4139404296875,791.3552856445312,796.1904907226562,794.981689453125
73,804.6520385742188,792.967041015625,796.5933837890625,800.2197875976562
74,806.6666870117188,792.5640869140625,800.6226806640625,801.025634765625
75,805.8607788085938,794.5787353515625,801.025634765625,797.8021850585938
76,805.8607788085938,794.981689453125,798.6080322265625,799.4139404296875
77,809.084228515625,789.3406372070312,795.3846435546875,807.069580078125
78,814.3223266601562,790.952392578125,802.2344360351562,805.054931640625
79,818.7545776367188,793.7728881835938,807.4725341796875,801.4285888671875
80,817.5457763671875,793.7728881835938,806.2637329101562,801.8314819335938
81,811.098876953125,795.3846435546875,805.054931640625,797.8021850585938
82,808.2783813476562,797.8021850585938,806.6666870117188,795.7875366210938
83,808.6813354492188,799.4139404296875,805.8607788085938,796.5933837890625
84,805.8607788085938,798.2051391601562,802.2344360351562,798.2051391601562
85,799.8168334960938,798.6080322265625,807.4725341796875,803.8461303710938
86,800.6226806640625,796.1904907226562,809.89013671875,809.4871826171875
87,807.069580078125,796.5933837890625,807.069580078125,814.7252807617188
88,803.4432373046875,794.981689453125,803.040283203125,811.098876953125
89,799.010986328125,795.3846435546875,802.6373901367188,809.89013671875
90,795.3846435546875,799.010986328125,806.6666870117188,811.90478515625
91,792.967041015625,793.3699340820312,808.6813354492188,806.6666870117188
92,795.3846435546875,790.1465454101562,807.4725341796875,807.069580078125
93,796.5933837890625,794.5787353515625,809.084228515625,810.2930297851562
94,794.1758422851562,793.7728881835938,809.89013671875,807.069580078125
95,794.5787353515625,790.5494384765625,810.6959838867188,801.025634765625
96,797.8021850585938,790.1465454101562,811.5018310546875,812.3076782226562
97,794.5787353515625,792.1611938476562,813.113525390625,811.5018310546875
98,788.937744140625,793.7728881835938,813.113525390625,798.6080322265625
99,791.3552856445312,796.996337890625,810.6959838867188,803.8461303710938
100,799.4139404296875,796.996337890625,815.93408203125,816.3369750976562
101,794.1758422851562,796.5933837890625,817.94873046875,803.8461303710938
102,787.7289428710938,796.1904907226562,811.90478515625,789.7435913085938
103,790.952392578125,794.5787353515625,812.3076782226562,795.7875366210938
104,788.5347900390625,792.967041015625,809.89013671875,793.3699340820312
105,786.5201416015625,791.3552856445312,802.2344360351562,788.5347900390625
106,789.3406372070312,793.3699340820312,801.025634765625,791.7582397460938
107,793.3699340820312,792.1611938476562,805.8607788085938,795.7875366210938
108,795.7875366210938,793.3699340820312,808.6813354492188,799.010986328125
109,799.010986328125,796.5933837890625,810.2930297851562,799.010986328125
110,803.4432373046875,794.1758422851562,811.098876953125,798.6080322265625
111,804.2490844726562,796.1904907226562,810.2930297851562,808.2783813476562
112,803.4432373046875,798.6080322265625,813.5164794921875,812.7106323242188
113,796.5933837890625,796.1904907226562,812.7106323242188,802.2344360351562
114,801.025634765625,795.7875366210938,804.2490844726562,804.6520385742188
115,801.025634765625,791.7582397460938,804.2490844726562,810.2930297851562
116,790.952392578125,789.7435913085938,805.8607788085938,801.4285888671875
117,801.4285888671875,797.8021850585938,809.89013671875,805.054931640625
118,804.6520385742188,799.010986328125,809.084228515625,806.2637329101562
119,799.4139404296875,796.996337890625,805.054931640625,805.4578857421875
120,797.3992919921875,799.010986328125,808.2783813476562,803.4432373046875
121,796.5933837890625,800.6226806640625,807.4725341796875,800.2197875976562
122,798.6080322265625,800.2197875976562,803.4432373046875,802.2344360351562
123,795.3846435546875,798.6080322265625,799.010986328125,802.2344360351562
124,796.1904907226562,801.025634765625,794.981689453125,799.8168334960938
125,802.6373901367188,803.4432373046875,800.2197875976562,795.7875366210938
126,803.040283203125,801.8314819335938,801.4285888671875,801.025634765625
127,801.025634765625,796.996337890625,796.5933837890625,806.6666870117188
128,801.8314819335938,798.2051391601562,797.8021850585938,802.6373901367188
129,804.6520385742188,799.4139404296875,800.2197875976562,802.6373901367188
130,804.2490844726562,799.010986328125,801.025634765625,802.2344360351562
131,799.4139404296875,796.5933837890625,803.4432373046875,805.054931640625
132,797.3992919921875,794.5787353515625,805.8607788085938,804.6520385742188
133,798.6080322265625,798.2051391601562,805.8607788085938,805.054931640625
134,801.8314819335938,796.1904907226562,808.6813354492188,816.3369750976562
135,800.6226806640625,793.7728881835938,806.6666870117188,817.5457763671875
136,798.6080322265625,799.8168334960938,807.87548828125,809.4871826171875
137,796.1904907226562,795.7875366210938,808.2783813476562,805.4578857421875
138,796.1904907226562,794.5787353515625,809.89013671875,806.2637329101562
139,801.025634765625,798.6080322265625,815.5311279296875,809.084228515625
140,795.3846435546875,794.5787353515625,810.2930297851562,806.2637329101562
141,792.967041015625,796.1904907226562,805.8607788085938,807.87548828125
142,795.7875366210938,791.3552856445312,811.90478515625,811.90478515625
143,794.981689453125,791.3552856445312,815.93408203125,810.2930297851562
144,805.054931640625,791.3552856445312,814.3223266601562,811.098876953125
145,803.8461303710938,788.5347900390625,809.4871826171875,806.6666870117188
146,789.3406372070312,791.3552856445312,807.069580078125,804.6520385742188
147,786.5201416015625,792.5640869140625,808.2783813476562,808.2783813476562
148,788.5347900390625,793.3699340820312,810.2930297851562,800.2197875976562
149,790.1465454101562,794.1758422851562,806.6666870117188,797.8021850585938
150,794.981689453125,791.7582397460938,804.6520385742188,807.4725341796875
151,793.3699340820312,791.3552856445312,807.87548828125,806.2637329101562
152,790.952392578125,792.1611938476562,806.6666870117188,800.6226806640625
153,795.7875366210938,791.3552856445312,802.2344360351562,799.4139404296875
154,801.025634765625,792.1611938476562,805.054931640625,801.025634765625
155,803.4432373046875,792.5640869140625,809.89013671875,801.8314819335938
156,792.967041015625,786.923095703125,810.2930297851562,801.4285888671875
157,790.5494384765625,782.087890625,807.87548828125,800.2197875976562
158,794.981689453125,782.087890625,805.054931640625,796.5933837890625
159,792.5640869140625,779.6703491210938,804.2490844726562,792.5640869140625
160,793.7728881835938,782.893798828125,805.054931640625,793.3699340820312
161,797.8021850585938,789.3406372070312,807.069580078125,805.054931640625
162,795.7875366210938,789.3406372070312,806.2637329101562,809.084228515625
163,792.1611938476562,789.7435913085938,801.025634765625,797.3992919921875
164,795.3846435546875,789.7435913085938,799.010986328125,792.5640869140625
165,797.8021850585938,790.1465454101562,801.4285888671875,797.3992919921875
166,798.2051391601562,795.3846435546875,806.2637329101562,802.2344360351562
167,794.981689453125,794.981689453125,806.2637329101562,804.6520385742188
168,791.3552856445312,792.967041015625,805.054931640625,796.1904907226562
169,796.996337890625,793.7728881835938,805.054931640625,794.5787353515625
170,799.010986328125,791.7582397460938,805.054931640625,799.8168334960938
171,797.3992919921875,791.7582397460938,804.6520385742188,798.6080322265625
172,803.8461303710938,794.981689453125,806.2637329101562,803.040283203125
173,808.2783813476562,796.1904907226562,807.069580078125,811.90478515625
174,804.2490844726562,798.6080322265625,806.2637329101562,805.4578857421875
175,805.054931640625,798.6080322265625,803.8461303710938,800.6226806640625
176,811.5018310546875,798.2051391601562,801.8314819335938,803.040283203125
177,807.4725341796875,800.6226806640625,803.8461303710938,803.8461303710938
178,803.8461303710938,798.6080322265625,800.2197875976562,807.87548828125
179,800.2197875976562,794.1758422851562,797.3992919921875,807.069580078125
180,792.5640869140625,796.5933837890625,799.4139404296875,807.87548828125
181,795.3846435546875,797.8021850585938,803.040283203125,813.113525390625
182,802.6373901367188,797.3992919921875,806.2637329101562,814.7252807617188
183,800.6226806640625,798.2051391601562,807.4725341796875,813.113525390625
184,797.3992919921875,792.5640869140625,809.4871826171875,815.93408203125
185,799.010986328125,790.5494384765625,806.2637329101562,813.91943359375
186,799.010986328125,799.4139404296875,804.6520385742188,807.069580078125
187,798.6080322265625,803.4432373046875,805.4578857421875,809.084228515625
188,800.6226806640625,803.040283203125,802.6373901367188,810.2930297851562
189,797.3992919921875,801.8314819335938,802.2344360351562,804.6520385742188
190,797.3992919921875,805.4578857421875,803.040283203125,801.4285888671875
191,801.4285888671875,804.6520385742188,803.040283203125,800.2197875976562
192,801.8314819335938,798.6080322265625,804.2490844726562,801.8314819335938
193,800.2197875976562,798.2051391601562,803.8461303710938,798.6080322265625
194,790.952392578125,799.4139404296875,799.010986328125,785.7142944335938
195,790.1465454101562,801.025634765625,800.6226806640625,785.3113403320312
196,795.3846435546875,799.010986328125,805.054931640625,799.8168334960938
197,797.8021850585938,799.4139404296875,808.2783813476562,799.010986328125
198,801.4285888671875,801.4285888671875,806.6666870117188,797.8021850585938
199,805.8607788085938,799.4139404296875,805.4578857421875,803.040283203125
200,807.87548828125,798.6080322265625,811.5018310546875,809.084228515625
201,800.6226806640625,799.8168334960938,811.098876953125,805.8607788085938
202,799.4139404296875,802.6373901367188,806.6666870117188,802.6373901367188
203,799.4139404296875,797.8021850585938,803.8461303710938,799.4139404296875
204,793.7728881835938,793.7728881835938,803.8461303710938,795.3846435546875
205,798.2051391601562,799.010986328125,812.3076782226562,803.8461303710938
206,802.2344360351562,798.2051391601562,813.113525390625,808.6813354492188
207,803.8461303710938,794.5787353515625,809.4871826171875,811.90478515625
208,805.8607788085938,795.7875366210938,813.113525390625,813.91943359375
209,802.6373901367188,797.3992919921875,813.5164794921875,809.4871826171875
210,795.3846435546875,794.1758422851562,811.098876953125,807.4725341796875
211,794.981689453125,791.3552856445312,809.084228515625,809.89013671875
212,794.1758422851562,793.7728881835938,807.87548828125,807.4725341796875
213,794.5787353515625,794.981689453125,808.6813354492188,804.2490844726562
214,794.1758422851562,792.1611938476562,805.054931640625,800.6226806640625
215,792.967041015625,795.3846435546875,806.2637329101562,805.8607788085938
216,794.1758422851562,797.8021850585938,808.6813354492188,811.5018310546875
217,791.7582397460938,795.3846435546875,807.4725341796875,805.4578857421875
218,794.981689453125,792.967041015625,807.87548828125,807.4725341796875
219,796.5933837890625,790.5494384765625,808.6813354492188,816.3369750976562
220,798.2051391601562,796.5933837890625,807.87548828125,809.89013671875
221,808.2783813476562,800.2197875976562,811.098876953125,811.5018310546875
222,811.098876953125,797.8021850585938,810.2930297851562,813.113525390625
223,807.87548828125,796.5933837890625,807.87548828125,805.054931640625
224,803.8461303710938,796.1904907226562,805.054931640625,801.4285888671875
225,804.6520385742188,799.4139404296875,801.8314819335938,800.6226806640625
226,807.87548828125,801.4285888671875,803.8461303710938,805.4578857421875
227,807.87548828125,801.4285888671875,804.6520385742188,806.6666870117188
228,804.6520385742188,802.2344360351562,805.4578857421875,811.098876953125
229,800.6226806640625,797.3992919921875,805.8607788085938,810.6959838867188
230,805.054931640625,795.3846435546875,805.4578857421875,804.2490844726562
231,805.054931640625,794.1758422851562,806.6666870117188,805.054931640625
232,798.2051391601562,793.3699340820312,807.4725341796875,807.069580078125
233,800.2197875976562,797.8021850585938,805.054931640625,803.040283203125
234,808.6813354492188,795.7875366210938,804.6520385742188,806.6666870117188
235,807.069580078125,795.7875366210938,807.069580078125,811.098876953125
236,799.010986328125,801.4285888671875,805.4578857421875,797.3992919921875
237,799.8168334960938,801.025634765625,805.4578857421875,796.996337890625
238,803.040283203125,797.3992919921875,806.2637329101562,800.2197875976562
239,796.5933837890625,797.8021850585938,804.2490844726562,798.2051391601562
240,799.4139404296875,799.8168334960938,800.2197875976562,799.8168334960938
241,809.89013671875,800.6226806640625,804.6520385742188,801.8314819335938
242,807.4725341796875,799.010986328125,807.069580078125,804.6520385742188
243,808.2783813476562,799.8168334960938,807.069580078125,807.87548828125
244,812.3076782226562,797.3992919921875,804.6520385742188,803.8461303710938
245,806.6666870117188,796.5933837890625,800.6226806640625,800.6226806640625
246,806.2637329101562,798.6080322265625,796.1904907226562,809.4871826171875
247,814.7252807617188,799.010986328125,796.996337890625,816.7399291992188
248,811.5018310546875,795.3846435546875,809.084228515625,806.2637329101562
249,798.6080322265625,788.5347900390625,810.6959838867188,795.3846435546875
250,797.3992919921875,790.5494384765625,811.5018310546875,800.2197875976562
251,799.8168334960938,793.3699340820312,813.91943359375,807.4725341796875
252,795.3846435546875,791.7582397460938,811.098876953125,807.069580078125
253,803.4432373046875,790.1465454101562,809.084228515625,808.6813354492188
254,806.2637329101562,788.5347900390625,809.89013671875,817.5457763671875
255,801.4285888671875,791.3552856445312,807.87548828125,811.90478515625
256,799.010986328125,796.1904907226562,804.6520385742188,804.6520385742188
257,803.040283203125,795.7875366210938,809.89013671875,814.3223266601562
258,804.6520385742188,798.2051391601562,811.5018310546875,813.113525390625
259,803.8461303710938,798.2051391601562,806.2637329101562,810.2930297851562
260,805.4578857421875,796.1904907226562,803.8461303710938,813.113525390625
261,796.996337890625,796.996337890625,803.4432373046875,808.2783813476562
262,791.7582397460938,801.025634765625,806.2637329101562,805.054931640625
263,796.996337890625,802.6373901367188,812.7106323242188,805.4578857421875
264,799.4139404296875,802.2344360351562,813.5164794921875,808.2783813476562
265,796.1904907226562,799.010986328125,806.6666870117188,811.90478515625
266,799.010986328125,800.6226806640625,807.4725341796875,807.4725341796875
267,799.010986328125,802.6373901367188,806.6666870117188,802.6373901367188
268,799.4139404296875,795.7875366210938,803.4432373046875,804.6520385742188
269,801.025634765625,795.7875366210938,807.4725341796875,809.084228515625
270,799.010986328125,801.8314819335938,814.3223266601562,805.4578857421875
271,799.010986328125,798.6080322265625,814.7252807617188,805.8607788085938
272,805.8607788085938,797.3992919921875,813.5164794921875,811.098876953125
273,807.4725341796875,796.996337890625,813.91943359375,807.069580078125
274,810.6959838867188,796.1904907226562,812.3076782226562,803.4432373046875
275,808.2783813476562,793.3699340820312,809.4871826171875,802.2344360351562
276,795.3846435546875,789.7435913085938,808.2783813476562,801.025634765625
277,794.1758422851562,794.981689453125,811.90478515625,801.025634765625
278,792.967041015625,796.996337890625,809.89013671875,800.2197875976562
279,790.952392578125,791.3552856445312,807.4725341796875,804.2490844726562
280,800.2197875976562,792.967041015625,809.084228515625,810.2930297851562
281,801.4285888671875,800.2197875976562,809.4871826171875,809.89013671875
282,797.8021850585938,796.996337890625,808.6813354492188,804.6520385742188
283,799.8168334960938,792.5640869140625,807.87548828125,804.6520385742188
284,800.2197875976562,795.7875366210938,807.4725341796875,810.2930297851562
285,800.6226806640625,794.5787353515625,808.6813354492188,810.6959838867188
286,802.2344360351562,793.3699340820312,808.6813354492188,808.6813354492188
287,803.4432373046875,791.7582397460938,805.8607788085938,810.6959838867188
288,803.8461303710938,792.967041015625,805.4578857421875,813.91943359375
289,802.2344360351562,795.7875366210938,803.4432373046875,807.4725341796875
290,797.8021850585938,795.3846435546875,802.6373901367188,802.2344360351562
291,796.5933837890625,794.5787353515625,808.6813354492188,807.87548828125
292,801.8314819335938,793.7728881835938,808.6813354492188,819.1575317382812
293,801.025634765625,794.981689453125,809.89013671875,811.90478515625
294,799.8168334960938,796.5933837890625,811.098876953125,806.6666870117188
295,801.025634765625,801.025634765625,810.6959838867188,811.098876953125
296,799.8168334960938,796.996337890625,812.3076782226562,807.4725341796875
297,802.6373901367188,792.967041015625,806.2637329101562,808.2783813476562
298,803.8461303710938,792.5640869140625,803.4432373046875,811.098876953125
299,805.8607788085938,792.967041015625,805.8607788085938,808.6813354492188
300,810.2930297851562,797.3992919921875,804.2490844726562,807.87548828125
301,809.89013671875,798.2051391601562,805.4578857421875,803.8461303710938
302,805.4578857421875,794.981689453125,810.2930297851562,799.4139404296875
303,804.6520385742188,793.3699340820312,813.113525390625,812.3076782226562
304,801.025634765625,793.3699340820312,812.3076782226562,816.3369750976562
305,796.1904907226562,794.1758422851562,807.4725341796875,803.040283203125
306,795.7875366210938,795.7875366210938,803.040283203125,796.1904907226562
307,797.3992919921875,794.5787353515625,804.2490844726562,797.3992919921875
308,799.4139404296875,794.1758422851562,805.054931640625,794.5787353515625
309,808.2783813476562,794.981689453125,801.4285888671875,802.2344360351562
310,818.7545776367188,794.5787353515625,807.069580078125,816.3369750976562
311,811.90478515625,798.6080322265625,814.7252807617188,815.1282348632812
312,797.3992919921875,796.5933837890625,811.098876953125,801.8314819335938
313,792.5640869140625,794.981689453125,807.4725341796875,797.3992919921875
314,796.996337890625,794.981689453125,807.4725341796875,803.040283203125
315,802.2344360351562,792.967041015625,805.054931640625,810.2930297851562
316,800.2197875976562,796.5933837890625,804.6520385742188,806.6666870117188
317,798.2051391601562,800.2197875976562,807.87548828125,799.8168334960938
318,805.4578857421875,798.2051391601562,812.7106323242188,805.8607788085938
319,807.87548828125,799.4139404296875,811.5018310546875,811.5018310546875
320,801.4285888671875,799.4139404296875,812.7106323242188,810.6959838867188
321,799.4139404296875,796.5933837890625,813.113525390625,811.5018310546875
322,801.025634765625,799.010986328125,809.89013671875,818.7545776367188
323,803.4432373046875,799.8168334960938,807.87548828125,819.5604248046875
324,799.8168334960938,796.1904907226562,807.4725341796875,809.084228515625
325,797.3992919921875,795.3846435546875,803.4432373046875,803.4432373046875
326,806.2637329101562,796.5933837890625,803.040283203125,809.89013671875
327,808.6813354492188,795.7875366210938,807.4725341796875,811.098876953125
328,807.069580078125,794.5787353515625,808.6813354492188,803.4432373046875
329,808.2783813476562,796.1904907226562,807.069580078125,803.8461303710938
330,807.87548828125,792.967041015625,806.6666870117188,811.5018310546875
331,803.4432373046875,790.5494384765625,811.098876953125,809.4871826171875
332,798.6080322265625,791.7582397460938,812.3076782226562,802.2344360351562
333,799.4139404296875,790.952392578125,807.4725341796875,798.6080322265625
334,803.4432373046875,794.1758422851562,804.6520385742188,796.996337890625
335,803.8461303710938,796.5933837890625,805.8607788085938,801.4285888671875
336,802.2344360351562,798.2051391601562,803.8461303710938,801.4285888671875
337,802.6373901367188,799.010986328125,805.4578857421875,799.8168334960938
338,801.025634765625,797.8021850585938,807.069580078125,800.6226806640625
339,802.6373901367188,796.5933837890625,804.2490844726562,802.2344360351562
340,808.2783813476562,796.996337890625,806.6666870117188,808.2783813476562
341,807.87548828125,796.5933837890625,808.2783813476562,815.93408203125
342,808.2783813476562,794.5787353515625,805.054931640625,819.96337890625
343,805.054931640625,798.2051391601562,806.6666870117188,806.6666870117188
344,795.7875366210938,797.8021850585938,807.069580078125,796.1904907226562
345,799.010986328125,795.3846435546875,805.054931640625,803.040283203125
346,800.2197875976562,798.2051391601562,805.054931640625,806.2637329101562
347,795.3846435546875,799.8168334960938,803.8461303710938,802.2344360351562
348,794.1758422851562,797.3992919921875,803.040283203125,801.025634765625
349,802.6373901367188,798.2051391601562,804.6520385742188,805.054931640625
350,807.87548828125,797.3992919921875,803.8461303710938,800.6226806640625
351,805.4578857421875,793.3699340820312,799.4139404296875,799.010986328125
352,803.8461303710938,794.1758422851562,803.4432373046875,799.010986328125
353,799.010986328125,791.7582397460938,805.8607788085938,804.6520385742188
354,800.2197875976562,789.7435913085938,805.054931640625,809.084228515625
355,804.2490844726562,792.5640869140625,804.6520385742188,810.2930297851562
356,804.2490844726562,791.7582397460938,802.2344360351562,808.6813354492188
357,803.4432373046875,793.7728881835938,800.6226806640625,801.4285888671875
358,799.8168334960938,796.1904907226562,802.6373901367188,799.010986328125
359,800.6226806640625,796.996337890625,807.87548828125,804.2490844726562
360,807.4725341796875,799.4139404296875,808.6813354492188,806.6666870117188
361,809.084228515625,800.2197875976562,805.8607788085938,811.5018310546875
362,809.89013671875,799.4139404296875,809.4871826171875,810.2930297851562
363,808.6813354492188,799.010986328125,810.6959838867188,803.040283203125
364,808.6813354492188,797.8021850585938,809.89013671875,807.069580078125
365,807.87548828125,792.5640869140625,809.084228515625,813.5164794921875
366,810.2930297851562,791.3552856445312,811.5018310546875,809.89013671875
367,807.87548828125,791.3552856445312,815.93408203125,808.6813354492188
368,801.4285888671875,790.952392578125,815.1282348632812,805.8607788085938
369,800.6226806640625,791.3552856445312,816.3369750976562,802.2344360351562
370,805.054931640625,794.1758422851562,817.94873046875,801.4285888671875
371,815.1282348632812,800.6226806640625,816.7399291992188,803.8461303710938
372,808.6813354492188,802.2344360351562,818.3516235351562,805.8607788085938
373,796.996337890625,801.025634765625,813.5164794921875,799.4139404296875
374,798.2051391601562,799.8168334960938,809.084228515625,796.996337890625
375,800.6226806640625,795.7875366210938,811.098876953125,802.6373901367188
376,801.4285888671875,788.1318969726562,807.87548828125,806.2637329101562
377,797.3992919921875,789.7435913085938,811.098876953125,805.054931640625
378,792.967041015625,797.3992919921875,812.7106323242188,796.996337890625
379,797.8021850585938,795.7875366210938,809.084228515625,797.8021850585938
380,799.010986328125,792.1611938476562,809.4871826171875,801.025634765625
381,797.3992919921875,793.3699340820312,811.90478515625,799.8168334960938
382,794.5787353515625,794.1758422851562,808.6813354492188,801.8314819335938
383,790.1465454101562,792.5640869140625,807.4725341796875,803.8461303710938
384,798.2051391601562,792.1611938476562,808.6813354492188,805.4578857421875
385,811.5018310546875,793.7728881835938,804.6520385742188,814.3223266601562
386,809.4871826171875,795.7875366210938,803.4432373046875,811.098876953125
387,796.1904907226562,794.1758422851562,801.8314819335938,801.8314819335938
388,798.6080322265625,793.3699340820312,801.4285888671875,808.2783813476562
389,799.8168334960938,796.996337890625,804.2490844726562,799.4139404296875
390,791.3552856445312,797.8021850585938,805.054931640625,790.1465454101562
391,800.6226806640625,795.7875366210938,804.6520385742188,800.6226806640625
392,807.87548828125,798.2051391601562,804.6520385742188,805.054931640625
393,807.4725341796875,804.6520385742188,809.4871826171875,808.6813354492188
394,806.6666870117188,801.8314819335938,811.098876953125,809.4871826171875
395,807.87548828125,796.1904907226562,805.8607788085938,807.87548828125
396,809.89013671875,793.3699340820312,802.2344360351562,803.8461303710938
397,811.5018310546875,795.7875366210938,803.4432373046875,802.2344360351562
398,807.4725341796875,797.8021850585938,804.6520385742188,804.2490844726562
399,811.5018310546875,801.4285888671875,809.89013671875,817.1428833007812
400,813.113525390625,803.4432373046875,810.6959838867188,819.96337890625
401,804.6520385742188,802.2344360351562,809.4871826171875,807.4725341796875
402,800.6226806640625,799.8168334960938,811.098876953125,809.084228515625
403,799.4139404296875,796.1904907226562,811.098876953125,815.1282348632812
404,802.6373901367188,798.2051391601562,810.6959838867188,807.4725341796875
405,804.2490844726562,798.2051391601562,807.87548828125,803.8461303710938
406,801.8314819335938,794.5787353515625,808.6813354492188,805.054931640625
407,802.6373901367188,796.996337890625,811.098876953125,810.6959838867188
408,805.4578857421875,795.7875366210938,811.098876953125,809.4871826171875
409,803.8461303710938,794.1758422851562,809.084228515625,799.8168334960938
410,799.4139404296875,796.996337890625,810.2930297851562,803.040283203125
411,802.2344360351562,797.8021850585938,807.87548828125,807.069580078125
412,799.8168334960938,797.3992919921875,807.069580078125,801.8314819335938
413,797.3992919921875,799.4139404296875,811.90478515625,801.4285888671875
414,797.8021850585938,795.7875366210938,809.084228515625,804.6520385742188
415,794.981689453125,788.1318969726562,806.2637329101562,809.084228515625
416,796.1904907226562,790.5494384765625,807.4725341796875,807.87548828125
417,801.025634765625,793.3699340820312,807.4725341796875,807.069580078125
418,801.4285888671875,791.3552856445312,805.054931640625,807.4725341796875
419,794.981689453125,788.937744140625,804.2490844726562,807.4725341796875
420,791.3552856445312,788.937744140625,810.6959838867188,809.084228515625
421,792.5640869140625,788.937744140625,807.87548828125,804.2490844726562
422,798.2051391601562,787.7289428710938,803.040283203125,804.6520385742188
423,796.996337890625,789.3406372070312,806.2637329101562,801.8314819335938
424,792.967041015625,795.7875366210938,810.2930297851562,798.6080322265625
425,789.7435913085938,795.7875366210938,808.2783813476562,805.8607788085938
426,788.5347900390625,791.7582397460938,804.2490844726562,807.069580078125
427,786.923095703125,790.952392578125,805.4578857421875,791.3552856445312
428,787.3259887695312,789.7435913085938,807.069580078125,788.1318969726562
429,792.1611938476562,789.7435913085938,806.2637329101562,798.2051391601562
430,794.981689453125,794.1758422851562,808.6813354492188,805.054931640625
431,791.3552856445312,793.3699340820312,808.6813354492188,801.4285888671875
432,790.5494384765625,791.3552856445312,806.6666870117188,800.6226806640625
433,787.3259887695312,791.3552856445312,804.2490844726562,801.8314819335938
434,790.1465454101562,793.3699340820312,803.040283203125,799.010986328125
435,800.6226806640625,796.996337890625,802.2344360351562,799.4139404296875
436,800.6226806640625,796.5933837890625,802.6373901367188,799.010986328125
437,794.5787353515625,795.7875366210938,801.8314819335938,802.6373901367188
438,792.967041015625,797.3992919921875,799.010986328125,813.5164794921875
439,795.7875366210938,796.1904907226562,801.4285888671875,809.89013671875
440,799.010986328125,795.3846435546875,803.8461303710938,805.4578857421875
441,804.2490844726562,796.1904907226562,804.2490844726562,804.2490844726562
442,807.069580078125,795.7875366210938,805.054931640625,809.89013671875
443,809.084228515625,795.3846435546875,803.8461303710938,816.7399291992188
444,806.6666870117188,797.8021850585938,805.8607788085938,816.3369750976562
445,805.054931640625,800.6226806640625,807.069580078125,814.7252807617188
446,801.8314819335938,800.2197875976562,805.8607788085938,801.4285888671875
447,797.3992919921875,796.5933837890625,807.069580078125,798.2051391601562
448,801.8314819335938,792.1611938476562,806.2637329101562,797.3992919921875
449,805.054931640625,790.5494384765625,806.6666870117188,796.5933837890625
450,805.8607788085938,795.3846435546875,812.3076782226562,800.6226806640625
451,805.8607788085938,799.4139404296875,811.5018310546875,802.2344360351562
452,806.2637329101562,795.3846435546875,811.098876953125,805.054931640625
453,806.6666870117188,791.3552856445312,813.113525390625,806.2637329101562
454,806.6666870117188,793.3699340820312,811.90478515625,803.4432373046875
455,807.069580078125,796.5933837890625,815.93408203125,804.6520385742188
456,807.4725341796875,797.8021850585938,815.93408203125,813.91943359375
457,810.2930297851562,799.4139404296875,817.94873046875,814.7252807617188
458,812.7106323242188,798.2051391601562,813.91943359375,807.87548828125
459,814.3223266601562,796.996337890625,809.4871826171875,808.2783813476562
460,811.098876953125,797.3992919921875,811.5018310546875,806.6666870117188
461,806.6666870117188,799.4139404296875,812.3076782226562,805.8607788085938
462,803.8461303710938,798.6080322265625,807.87548828125,803.4432373046875
463,803.4432373046875,799.8168334960938,801.8314819335938,802.6373901367188
464,805.4578857421875,803.040283203125,803.4432373046875,807.87548828125
465,803.8461303710938,802.2344360351562,805.054931640625,806.6666870117188
466,801.4285888671875,799.8168334960938,806.6666870117188,798.6080322265625
467,800.6226806640625,797.8021850585938,808.6813354492188,793.7728881835938
468,803.040283203125,795.3846435546875,809.4871826171875,805.8607788085938
469,801.8314819335938,794.1758422851562,803.8461303710938,810.6959838867188
470,799.010986328125,798.6080322265625,800.6226806640625,797.3992919921875
471,796.1904907226562,801.4285888671875,803.4432373046875,797.8021850585938
472,790.952392578125,799.4139404296875,801.4285888671875,795.7875366210938
473,794.5787353515625,798.2051391601562,799.8168334960938,790.952392578125
474,799.010986328125,798.6080322265625,803.8461303710938,789.7435913085938
475,798.6080322265625,797.8021850585938,807.87548828125,790.5494384765625
476,796.5933837890625,792.967041015625,807.87548828125,796.996337890625
477,797.8021850585938,790.952392578125,808.6813354492188,799.4139404296875
478,802.2344360351562,791.7582397460938,808.6813354492188,798.2051391601562
479,802.6373901367188,791.3552856445312,805.8607788085938,800.2197875976562
480,808.2783813476562,794.981689453125,806.2637329101562,800.6226806640625
481,809.084228515625,796.996337890625,804.2490844726562,800.6226806640625
482,803.8461303710938,790.952392578125,806.6666870117188,802.2344360351562
483,805.4578857421875,789.3406372070312,806.6666870117188,802.2344360351562
484,806.2637329101562,794.5787353515625,804.2490844726562,806.6666870117188
485,803.4432373046875,796.1904907226562,803.040283203125,811.90478515625
486,800.6226806640625,791.7582397460938,805.4578857421875,809.4871826171875
487,798.6080322265625,789.7435913085938,814.3223266601562,804.6520385742188
488,796.1904907226562,791.3552856445312,812.3076782226562,808.6813354492188
489,793.3699340820312,793.3699340820312,807.87548828125,802.6373901367188
490,796.5933837890625,796.5933837890625,808.2783813476562,797.8021850585938
491,792.5640869140625,793.3699340820312,806.2637329101562,800.2197875976562
492,786.1171875,788.5347900390625,803.8461303710938,793.3699340820312
493,793.7728881835938,792.5640869140625,803.8461303710938,792.967041015625
494,799.8168334960938,795.7875366210938,803.040283203125,802.2344360351562
495,801.8314819335938,791.7582397460938,804.2490844726562,811.098876953125
496,794.981689453125,792.967041015625,802.6373901367188,801.4285888671875
497,793.7728881835938,799.4139404296875,805.4578857421875,796.1904907226562
498,800.6226806640625,797.8021850585938,803.4432373046875,804.2490844726562
499,798.6080322265625,795.7875366210938,800.6226806640625,806.6666870117188
500,797.8021850585938,793.7728881835938,805.8607788085938,807.87548828125
501,797.8021850585938,791.3552856445312,808.6813354492188,807.069580078125
502,800.2197875976562,793.7728881835938,810.2930297851562,805.054931640625
503,802.6373901367188,793.7728881835938,810.6959838867188,805.8607788085938
504,798.2051391601562,796.996337890625,811.5018310546875,802.2344360351562
505,799.8168334960938,796.5933837890625,809.89013671875,805.8607788085938
506,804.2490844726562,796.5933837890625,809.89013671875,811.098876953125
507,803.8461303710938,797.8021850585938,811.90478515625,815.93408203125
508,798.2051391601562,795.7875366210938,811.5018310546875,812.7106323242188
509,795.7875366210938,793.7728881835938,811.90478515625,808.2783813476562
510,798.6080322265625,794.5787353515625,812.7106323242188,813.5164794921875
511,799.010986328125,792.967041015625,805.4578857421875,810.2930297851562
512,793.3699340820312,791.3552856445312,800.2197875976562,801.8314819335938
513,793.7728881835938,789.3406372070312,801.8314819335938,798.6080322265625
514,796.996337890625,789.3406372070312,805.054931640625,802.2344360351562
515,798.2051391601562,790.5494384765625,803.8461303710938,807.069580078125
516,800.6226806640625,794.981689453125,803.8461303710938,805.4578857421875
517,797.8021850585938,794.1758422851562,805.054931640625,800.6226806640625
518,796.996337890625,787.3259887695312,803.8461303710938,807.069580078125
519,801.8314819335938,787.7289428710938,803.8461303710938,811.098876953125
520,803.4432373046875,788.5347900390625,805.8607788085938,803.8461303710938
521,801.8314819335938,790.1465454101562,809.084228515625,804.2490844726562
522,805.054931640625,792.5640869140625,807.87548828125,802.2344360351562
523,805.8607788085938,798.6080322265625,804.6520385742188,795.3846435546875
524,804.6520385742188,799.8168334960938,802.2344360351562,788.5347900390625
525,808.2783813476562,799.010986328125,813.113525390625,794.981689453125
526,803.4432373046875,800.6226806640625,813.5164794921875,801.4285888671875
527,798.6080322265625,799.4139404296875,808.2783813476562,805.4578857421875
528,803.4432373046875,796.996337890625,811.098876953125,806.2637329101562
529,803.8461303710938,794.981689453125,809.4871826171875,807.4725341796875
530,798.2051391601562,796.5933837890625,807.87548828125,815.1282348632812
531,802.2344360351562,795.7875366210938,809.89013671875,810.6959838867188
532,803.4432373046875,791.3552856445312,807.87548828125,801.025634765625
533,804.6520385742188,790.5494384765625,805.054931640625,806.6666870117188
534,811.90478515625,794.1758422851562,805.054931640625,815.93408203125
535,818.3516235351562,799.4139404296875,804.2490844726562,816.7399291992188
536,819.1575317382812,801.4285888671875,807.4725341796875,820.3662719726562
537,814.7252807617188,797.3992919921875,807.069580078125,817.94873046875
538,801.4285888671875,793.3699340820312,804.2490844726562,806.2637329101562
539,794.981689453125,797.8021850585938,801.025634765625,796.5933837890625
540,794.1758422851562,798.2051391601562,805.8607788085938,789.3406372070312
541,801.8314819335938,799.4139404296875,809.4871826171875,793.7728881835938
542,810.2930297851562,799.8168334960938,806.2637329101562,805.8607788085938
543,805.054931640625,798.6080322265625,806.6666870117188,812.3076782226562
544,802.6373901367188,802.6373901367188,808.6813354492188,811.90478515625
545,804.2490844726562,804.2490844726562,809.084228515625,817.5457763671875
546,805.4578857421875,803.4432373046875,812.3076782226562,822.3809814453125
547,804.6520385742188,804.2490844726562,812.7106323242188,811.5018310546875
548,801.4285888671875,799.4139404296875,807.069580078125,805.8607788085938
549,800.2197875976562,798.2051391601562,812.3076782226562,806.6666870117188
550,796.1904907226562,796.5933837890625,813.5164794921875,806.2637329101562
551,792.967041015625,787.7289428710938,811.098876953125,807.87548828125
552,790.5494384765625,786.923095703125,809.89013671875,799.4139404296875
553,788.5347900390625,791.3552856445312,809.4871826171875,797.3992919921875
554,790.5494384765625,790.5494384765625,810.2930297851562,803.040283203125
555,789.3406372070312,789.7435913085938,806.6666870117188,798.2051391601562
556,792.967041015625,790.1465454101562,804.6520385742188,799.010986328125
557,794.1758422851562,793.3699340820312,803.4432373046875,796.1904907226562
558,788.937744140625,798.6080322265625,807.069580078125,786.5201416015625
559,796.996337890625,799.010986328125,808.6813354492188,790.952392578125
560,806.2637329101562,796.1904907226562,803.8461303710938,803.4432373046875
561,807.87548828125,797.8021850585938,803.040283203125,807.069580078125
562,803.4432373046875,802.2344360351562,807.87548828125,798.2051391601562
563,805.8607788085938,801.8314819335938,807.069580078125,794.1758422851562
564,810.2930297851562,803.040283203125,806.6666870117188,798.6080322265625
565,807.069580078125,800.2197875976562,805.8607788085938,799.8168334960938
566,810.2930297851562,801.4285888671875,804.2490844726562,799.010986328125
567,812.3076782226562,803.040283203125,805.4578857421875,800.2197875976562
568,809.4871826171875,800.6226806640625,802.2344360351562,803.040283203125
569,809.89013671875,796.5933837890625,804.6520385742188,802.2344360351562
570,811.098876953125,797.3992919921875,806.6666870117188,798.6080322265625
571,808.6813354492188,801.025634765625,805.054931640625,800.6226806640625
572,802.6373901367188,799.4139404296875,805.8607788085938,805.054931640625
573,796.996337890625,801.025634765625,803.8461303710938,803.4432373046875
574,795.3846435546875,804.6520385742188,805.8607788085938,807.4725341796875
575,798.6080322265625,802.2344360351562,805.8607788085938,811.90478515625
576,801.4285888671875,798.2051391601562,806.6666870117188,805.4578857421875
577,801.4285888671875,794.5787353515625,807.4725341796875,801.4285888671875
578,804.2490844726562,794.981689453125,801.025634765625,797.8021850585938
579,797.8021850585938,791.7582397460938,804.2490844726562,794.1758422851562
580,797.3992919921875,790.1465454101562,807.87548828125,799.4139404296875
581,797.3992919921875,798.2051391601562,807.87548828125,792.1611938476562
582,798.6080322265625,795.7875366210938,809.4871826171875,790.5494384765625
583,803.8461303710938,790.5494384765625,807.4725341796875,794.981689453125
584,800.2197875976562,796.5933837890625,806.6666870117188,790.952392578125
585,798.2051391601562,797.3992919921875,811.5018310546875,799.010986328125
586,798.6080322265625,796.5933837890625,809.4871826171875,801.4285888671875
587,805.054931640625,795.3846435546875,807.069580078125,799.4139404296875
588,804.2490844726562,792.5640869140625,807.87548828125,799.010986328125
589,798.6080322265625,794.981689453125,813.113525390625,798.2051391601562
590,796.1904907226562,799.4139404296875,817.94873046875,800.6226806640625
591,798.6080322265625,793.7728881835938,814.7252807617188,804.2490844726562
592,809.084228515625,792.1611938476562,811.5018310546875,812.3076782226562
593,805.054931640625,797.8021850585938,813.91943359375,812.3076782226562
594,806.6666870117188,798.6080322265625,815.5311279296875,809.4871826171875
595,812.3076782226562,796.1904907226562,815.1282348632812,803.8461303710938
596,812.3076782226562,796.996337890625,811.90478515625,802.6373901367188
597,809.4871826171875,794.1758422851562,810.2930297851562,802.6373901367188
598,809.4871826171875,794.5787353515625,812.7106323242188,801.8314819335938
599,809.4871826171875,797.8021850585938,809.084228515625,803.040283203125
600,807.069580078125,797.3992919921875,807.87548828125,801.8314819335938
601,804.2490844726562,798.6080322265625,811.098876953125,800.6226806640625
602,805.054931640625,796.996337890625,810.6959838867188,799.010986328125
603,804.6520385742188,794.1758422851562,807.069580078125,794.981689453125
604,797.8021850585938,792.967041015625,807.87548828125,792.5640869140625
605,798.6080322265625,795.7875366210938,807.4725341796875,799.010986328125
606,801.4285888671875,796.1904907226562,807.87548828125,801.4285888671875
607,809.4871826171875,796.1904907226562,810.2930297851562,808.6813354492188
608,817.1428833007812,802.6373901367188,813.91943359375,813.5164794921875
609,810.2930297851562,804.6520385742188,810.6959838867188,803.040283203125
610,801.025634765625,800.2197875976562,808.2783813476562,802.2344360351562
611,799.8168334960938,803.8461303710938,809.084228515625,805.8607788085938
612,801.025634765625,805.8607788085938,809.4871826171875,807.87548828125
613,799.4139404296875,799.4139404296875,805.8607788085938,808.2783813476562
614,795.7875366210938,793.7728881835938,800.2197875976562,807.87548828125
615,795.7875366210938,797.8021850585938,803.4432373046875,808.2783813476562
616,788.5347900390625,799.010986328125,808.6813354492188,801.4285888671875
617,787.7289428710938,797.8021850585938,811.098876953125,801.4285888671875
618,793.7728881835938,799.8168334960938,807.4725341796875,807.069580078125
619,785.7142944335938,798.6080322265625,805.8607788085938,803.040283203125
620,786.1171875,796.5933837890625,806.2637329101562,798.6080322265625
621,796.1904907226562,796.996337890625,804.6520385742188,790.952392578125
622,799.8168334960938,798.2051391601562,807.069580078125,785.7142944335938
623,798.6080322265625,801.8314819335938,809.89013671875,788.1318969726562
624,798.2051391601562,802.2344360351562,810.6959838867188,787.3259887695312
625,797.8021850585938,799.4139404296875,807.4725341796875,789.3406372070312
626,794.981689453125,794.981689453125,806.6666870117188,791.3552856445312
627,793.7728881835938,796.1904907226562,807.87548828125,792.967041015625
628,799.4139404296875,803.4432373046875,807.87548828125,797.3992919921875
629,805.8607788085938,803.4432373046875,807.87548828125,798.2051391601562
630,805.4578857421875,803.4432373046875,807.069580078125,805.054931640625
631,800.2197875976562,804.6520385742188,804.6520385742188,803.4432373046875
632,801.025634765625,804.2490844726562,803.040283203125,795.3846435546875
633,807.4725341796875,800.6226806640625,803.040283203125,797.8021850585938
634,805.054931640625,800.6226806640625,802.2344360351562,800.2197875976562
635,801.4285888671875,801.025634765625,800.2197875976562,799.8168334960938
636,803.040283203125,797.8021850585938,802.6373901367188,806.2637329101562
637,806.2637329101562,796.996337890625,800.2197875976562,808.6813354492188
638,801.4285888671875,794.5787353515625,798.6080322265625,801.8314819335938
639,794.5787353515625,796.996337890625,803.040283203125,801.025634765625
640,794.981689453125,800.6226806640625,803.8461303710938,799.010986328125
641,801.4285888671875,794.981689453125,801.8314819335938,799.010986328125
642,798.2051391601562,793.7728881835938,801.4285888671875,797.8021850585938
643,792.1611938476562,793.3699340820312,801.8314819335938,797.3992919921875
644,795.7875366210938,788.937744140625,800.2197875976562,799.010986328125
645,799.8168334960938,789.7435913085938,799.8168334960938,797.8021850585938
646,801.025634765625,791.7582397460938,801.4285888671875,796.5933837890625
647,804.6520385742188,794.1758422851562,801.8314819335938,801.025634765625
648,805.8607788085938,792.1611938476562,805.8607788085938,811.5018310546875
649,807.87548828125,791.7582397460938,809.89013671875,819.1575317382812
650,805.8607788085938,796.996337890625,813.113525390625,813.113525390625
651,802.6373901367188,796.5933837890625,815.5311279296875,801.025634765625
652,803.040283203125,795.3846435546875,810.2930297851562,804.6520385742188
653,805.054931640625,796.5933837890625,805.8607788085938,817.94873046875
654,801.4285888671875,799.8168334960938,809.89013671875,813.5164794921875
655,800.2197875976562,801.4285888671875,808.6813354492188,807.069580078125
656,799.010986328125,798.6080322265625,805.4578857421875,805.054931640625
657,793.7728881835938,795.3846435546875,802.6373901367188,803.4432373046875
658,796.996337890625,793.7728881835938,803.4432373046875,805.4578857421875
659,798.6080322265625,795.7875366210938,803.4432373046875,802.6373901367188
660,796.5933837890625,794.1758422851562,803.040283203125,800.2197875976562
661,797.8021850585938,792.5640869140625,806.2637329101562,802.2344360351562
662,803.8461303710938,796.996337890625,808.6813354492188,809.89013671875
663,807.4725341796875,796.996337890625,811.5018310546875,810.2930297851562
664,802.6373901367188,790.952392578125,806.6666870117188,809.89013671875
665,797.3992919921875,790.952392578125,804.2490844726562,810.2930297851562
666,798.6080322265625,789.7435913085938,807.87548828125,803.4432373046875
667,796.996337890625,788.5347900390625,809.4871826171875,802.2344360351562
668,793.7728881835938,793.7728881835938,813.5164794921875,803.8461303710938
669,794.1758422851562,794.981689453125,813.5164794921875,807.069580078125
670,792.967041015625,793.7728881835938,811.90478515625,811.5018310546875
671,795.7875366210938,794.1758422851562,808.6813354492188,807.069580078125
672,805.054931640625,792.967041015625,804.2490844726562,806.6666870117188
673,805.8607788085938,794.981689453125,802.6373901367188,808.2783813476562
674,803.4432373046875,796.996337890625,804.2490844726562,806.6666870117188
675,802.2344360351562,792.967041015625,807.069580078125,803.4432373046875
676,803.4432373046875,792.1611938476562,811.098876953125,810.2930297851562
677,802.2344360351562,796.996337890625,809.4871826171875,811.098876953125
678,801.4285888671875,799.4139404296875,811.5018310546875,805.054931640625
679,801.4285888671875,795.7875366210938,809.4871826171875,805.8607788085938
680,799.010986328125,792.1611938476562,803.4432373046875,811.098876953125
681,799.8168334960938,794.5787353515625,798.6080322265625,812.7106323242188
682,805.054931640625,798.2051391601562,805.054931640625,811.098876953125
683,807.4725341796875,796.996337890625,811.90478515625,815.93408203125
684,804.6520385742188,796.996337890625,808.6813354492188,814.7252807617188
685,807.87548828125,802.2344360351562,809.084228515625,812.3076782226562
686,806.6666870117188,800.2197875976562,813.113525390625,818.3516235351562
687,803.040283203125,797.3992919921875,809.084228515625,818.7545776367188
688,805.4578857421875,803.8461303710938,804.6520385742188,817.94873046875
689,803.4432373046875,803.8461303710938,805.4578857421875,807.069580078125
690,808.6813354492188,801.4285888671875,805.4578857421875,803.040283203125
691,811.098876953125,800.6226806640625,805.4578857421875,802.6373901367188
692,813.113525390625,795.7875366210938,803.8461303710938,802.6373901367188
693,812.7106323242188,798.6080322265625,802.6373901367188,807.4725341796875
694,814.7252807617188,802.6373901367188,803.040283203125,811.098876953125
695,817.1428833007812,800.6226806640625,803.4432373046875,807.4725341796875
696,811.90478515625,795.7875366210938,807.069580078125,805.054931640625
697,809.89013671875,795.7875366210938,805.8607788085938,809.89013671875
698,803.4432373046875,795.7875366210938,801.4285888671875,809.89013671875
699,796.5933837890625,792.1611938476562,802.6373901367188,805.8607788085938
700,798.6080322265625,793.7728881835938,803.040283203125,805.4578857421875
701,798.6080322265625,795.7875366210938,805.8607788085938,806.6666870117188
702,798.6080322265625,794.1758422851562,804.6520385742188,806.2637329101562
703,806.2637329101562,791.3552856445312,799.4139404296875,813.113525390625
704,807.069580078125,792.5640869140625,801.025634765625,810.6959838867188
705,803.8461303710938,796.1904907226562,805.8607788085938,802.6373901367188
706,804.6520385742188,800.2197875976562,807.069580078125,809.89013671875
707,804.6520385742188,798.2051391601562,808.2783813476562,810.6959838867188
708,799.010986328125,796.996337890625,806.6666870117188,805.054931640625
709,794.1758422851562,797.8021850585938,803.040283203125,805.4578857421875
710,792.1611938476562,796.5933837890625,805.8607788085938,807.87548828125
711,790.5494384765625,796.5933837890625,807.87548828125,803.4432373046875
712,790.5494384765625,793.3699340820312,805.4578857421875,799.010986328125
713,798.2051391601562,791.3552856445312,803.040283203125,803.8461303710938
714,801.8314819335938,790.1465454101562,803.8461303710938,809.4871826171875
715,794.981689453125,795.3846435546875,804.6520385742188,802.2344360351562
716,790.952392578125,798.2051391601562,805.054931640625,791.7582397460938
717,794.1758422851562,794.1758422851562,810.6959838867188,796.1904907226562
718,795.3846435546875,799.4139404296875,814.3223266601562,799.4139404296875
719,794.5787353515625,806.6666870117188,811.90478515625,799.4139404296875
720,794.981689453125,802.2344360351562,805.8607788085938,798.6080322265625
721,796.1904907226562,794.5787353515625,809.084228515625,797.3992919921875
722,802.2344360351562,793.7728881835938,811.90478515625,800.6226806640625
723,802.6373901367188,797.8021850585938,811.5018310546875,803.040283203125
724,800.2197875976562,802.2344360351562,810.6959838867188,803.8461303710938
725,801.8314819335938,800.6226806640625,808.2783813476562,805.054931640625
726,800.6226806640625,800.6226806640625,805.8607788085938,809.084228515625
727,799.8168334960938,801.8314819335938,804.2490844726562,805.4578857421875
728,796.5933837890625,798.6080322265625,805.4578857421875,800.6226806640625
729,798.2051391601562,792.967041015625,802.6373901367188,800.2197875976562
730,795.7875366210938,792.1611938476562,805.054931640625,797.8021850585938
731,793.7728881835938,794.981689453125,806.6666870117188,796.996337890625
732,800.6226806640625,796.5933837890625,806.6666870117188,799.8168334960938
733,803.8461303710938,797.3992919921875,807.87548828125,803.4432373046875
734,800.2197875976562,796.1904907226562,806.6666870117188,804.6520385742188
735,794.1758422851562,797.3992919921875,807.069580078125,802.6373901367188
736,802.2344360351562,795.7875366210938,805.4578857421875,801.4285888671875
737,810.2930297851562,794.1758422851562,804.6520385742188,808.2783813476562
738,808.2783813476562,794.5787353515625,807.4725341796875,804.2490844726562
739,801.8314819335938,794.981689453125,811.098876953125,796.5933837890625
740,796.5933837890625,795.7875366210938,812.3076782226562,799.010986328125
741,799.4139404296875,796.5933837890625,807.4725341796875,797.8021850585938
742,803.040283203125,798.2051391601562,805.4578857421875,798.2051391601562
743,802.6373901367188,795.7875366210938,804.2490844726562,799.8168334960938
744,797.3992919921875,794.1758422851562,801.025634765625,802.6373901367188
745,795.3846435546875,792.5640869140625,798.2051391601562,803.8461303710938
746,803.4432373046875,794.1758422851562,799.8168334960938,801.8314819335938
747,802.6373901367188,797.8021850585938,803.4432373046875,804.2490844726562
748,796.5933837890625,796.5933837890625,802.2344360351562,801.4285888671875
749,799.8168334960938,796.1904907226562,801.8314819335938,810.6959838867188
750,796.5933837890625,799.010986328125,806.2637329101562,807.069580078125
751,799.4139404296875,801.4285888671875,807.4725341796875,802.6373901367188
752,809.4871826171875,803.8461303710938,806.2637329101562,813.113525390625
753,806.2637329101562,801.4285888671875,809.89013671875,807.87548828125
754,804.6520385742188,797.8021850585938,809.4871826171875,805.054931640625
755,807.87548828125,795.7875366210938,806.6666870117188,807.069580078125
756,809.4871826171875,795.3846435546875,805.054931640625,806.6666870117188
757,809.4871826171875,797.8021850585938,806.6666870117188,805.4578857421875
758,806.6666870117188,797.3992919921875,808.2783813476562,803.040283203125
759,800.2197875976562,795.7875366210938,808.2783813476562,806.2637329101562
760,801.4285888671875,792.967041015625,805.8607788085938,809.084228515625
761,801.8314819335938,790.952392578125,805.4578857421875,809.89013671875
762,794.981689453125,794.981689453125,808.2783813476562,803.8461303710938
763,794.5787353515625,796.5933837890625,806.6666870117188,792.1611938476562
764,798.6080322265625,794.1758422851562,805.8607788085938,791.3552856445312
765,800.2197875976562,795.3846435546875,807.069580078125,803.040283203125
766,800.6226806640625,797.3992919921875,806.2637329101562,803.040283203125
767,800.6226806640625,795.3846435546875,804.6520385742188,800.6226806640625
768,800.2197875976562,799.8168334960938,805.8607788085938,798.6080322265625
769,798.6080322265625,801.4285888671875,805.8607788085938,799.4139404296875
770,796.5933837890625,798.6080322265625,806.2637329101562,803.4432373046875
771,794.5787353515625,801.8314819335938,804.6520385742188,808.2783813476562
772,794.981689453125,799.010986328125,805.4578857421875,816.3369750976562
773,796.5933837890625,796.996337890625,807.4725341796875,811.90478515625
774,794.1758422851562,798.2051391601562,807.4725341796875,807.069580078125
775,794.1758422851562,793.7728881835938,807.87548828125,803.040283203125
776,797.3992919921875,795.3846435546875,803.4432373046875,797.8021850585938
777,796.1904907226562,797.8021850585938,805.4578857421875,802.6373901367188
778,799.010986328125,798.2051391601562,808.2783813476562,809.89013671875
779,797.8021850585938,800.2197875976562,809.084228515625,815.1282348632812
780,796.1904907226562,798.6080322265625,811.5018310546875,816.3369750976562
781,799.4139404296875,794.981689453125,811.5018310546875,814.7252807617188
782,798.6080322265625,795.3846435546875,810.2930297851562,811.5018310546875
783,801.4285888671875,796.5933837890625,811.098876953125,816.3369750976562
784,801.8314819335938,796.996337890625,810.6959838867188,817.94873046875
785,796.1904907226562,796.996337890625,804.2490844726562,803.8461303710938
786,794.5787353515625,794.981689453125,800.2197875976562,799.8168334960938
787,797.8021850585938,794.1758422851562,799.8168334960938,809.084228515625
788,798.2051391601562,797.3992919921875,803.040283203125,803.8461303710938
789,797.3992919921875,800.6226806640625,805.4578857421875,799.8168334960938
790,801.8314819335938,800.6226806640625,809.084228515625,805.054931640625
791,805.054931640625,794.1758422851562,814.3223266601562,807.069580078125
792,810.6959838867188,790.5494384765625,809.89013671875,814.3223266601562
793,810.6959838867188,796.5933837890625,803.8461303710938,812.3076782226562
794,806.6666870117188,800.6226806640625,801.8314819335938,800.6226806640625
795,805.054931640625,800.6226806640625,805.8607788085938,794.5787353515625
796,796.1904907226562,799.8168334960938,810.2930297851562,791.3552856445312
797,800.2197875976562,801.025634765625,810.2930297851562,799.010986328125
798,807.069580078125,806.6666870117188,810.2930297851562,809.4871826171875
799,801.025634765625,805.054931640625,805.4578857421875,807.87548828125
800,795.3846435546875,801.025634765625,803.8461303710938,800.6226806640625
801,798.2051391601562,800.6226806640625,802.6373901367188,800.2197875976562
802,799.010986328125,796.1904907226562,799.8168334960938,799.4139404296875
803,792.967041015625,792.967041015625,800.2197875976562,800.2197875976562
804,794.981689453125,794.981689453125,803.4432373046875,803.040283203125
805,794.981689453125,793.3699340820312,805.054931640625,807.069580078125
806,797.8021850585938,788.5347900390625,803.8461303710938,817.5457763671875
807,807.069580078125,793.7728881835938,803.8461303710938,820.7692260742188
808,803.040283203125,797.3992919921875,804.2490844726562,812.7106323242188
809,803.8461303710938,795.3846435546875,808.6813354492188,813.91943359375
810,805.054931640625,796.5933837890625,807.4725341796875,817.94873046875
811,803.8461303710938,798.6080322265625,802.6373901367188,807.87548828125
812,801.4285888671875,794.5787353515625,803.8461303710938,801.8314819335938
813,799.8168334960938,790.952392578125,803.040283203125,805.4578857421875
814,805.8607788085938,790.5494384765625,802.2344360351562,810.6959838867188
815,804.2490844726562,791.3552856445312,804.6520385742188,806.2637329101562
816,802.6373901367188,794.1758422851562,807.87548828125,803.4432373046875
817,805.054931640625,794.5787353515625,809.084228515625,805.8607788085938
818,804.6520385742188,793.3699340820312,808.6813354492188,804.6520385742188
819,801.8314819335938,792.5640869140625,811.90478515625,808.2783813476562
820,797.8021850585938,792.967041015625,812.3076782226562,807.4725341796875
821,800.6226806640625,789.3406372070312,811.90478515625,805.4578857421875
822,799.010986328125,785.7142944335938,807.4725341796875,809.084228515625
823,801.025634765625,790.1465454101562,806.2637329101562,808.6813354492188
824,806.6666870117188,790.5494384765625,809.89013671875,805.054931640625
825,804.6520385742188,792.5640869140625,809.084228515625,805.8607788085938
826,799.8168334960938,797.3992919921875,810.6959838867188,806.6666870117188
827,798.6080322265625,798.2051391601562,809.4871826171875,807.069580078125
828,804.2490844726562,796.1904907226562,807.4725341796875,812.7106323242188
829,805.054931640625,794.1758422851562,808.6813354492188,815.1282348632812
830,804.2490844726562,798.6080322265625,807.4725341796875,816.3369750976562
831,807.069580078125,804.6520385742188,810.2930297851562,815.93408203125
832,806.6666870117188,804.6520385742188,812.3076782226562,809.084228515625
833,806.2637329101562,801.8314819335938,810.2930297851562,808.6813354492188
834,806.6666870117188,802.2344360351562,808.6813354492188,809.084228515625
835,803.040283203125,799.8168334960938,805.4578857421875,807.4725341796875
836,804.6520385742188,799.010986328125,805.8607788085938,804.6520385742188
837,805.4578857421875,801.4285888671875,805.054931640625,799.4139404296875
838,801.025634765625,802.2344360351562,805.8607788085938,804.6520385742188
839,800.6226806640625,801.8314819335938,806.6666870117188,806.6666870117188
840,800.2197875976562,797.3992919921875,804.2490844726562,801.8314819335938
841,799.8168334960938,797.3992919921875,802.2344360351562,801.8314819335938
842,800.2197875976562,797.8021850585938,804.2490844726562,804.2490844726562
843,801.8314819335938,800.6226806640625,805.054931640625,809.89013671875
844,800.2197875976562,804.6520385742188,802.6373901367188,809.89013671875
845,799.8168334960938,801.025634765625,806.2637329101562,812.3076782226562
846,796.996337890625,800.2197875976562,803.4432373046875,804.6520385742188
847,799.8168334960938,800.6226806640625,804.6520385742188,801.8314819335938
848,799.4139404296875,804.2490844726562,809.89013671875,807.069580078125
849,795.3846435546875,807.069580078125,811.098876953125,805.8607788085938
850,802.6373901367188,801.8314819335938,811.098876953125,796.996337890625
851,809.89013671875,797.8021850585938,808.2783813476562,793.7728881835938
852,805.8607788085938,798.6080322265625,804.6520385742188,793.7728881835938
853,804.2490844726562,804.2490844726562,808.6813354492188,794.981689453125
854,810.2930297851562,805.8607788085938,811.5018310546875,799.8168334960938
855,815.1282348632812,804.6520385742188,805.8607788085938,799.010986328125
856,813.113525390625,799.010986328125,803.8461303710938,800.6226806640625
857,808.6813354492188,794.981689453125,805.8607788085938,800.6226806640625
858,804.2490844726562,798.6080322265625,808.6813354492188,795.3846435546875
859,808.2783813476562,801.025634765625,807.069580078125,799.4139404296875
860,808.6813354492188,798.2051391601562,808.2783813476562,795.7875366210938
861,798.6080322265625,796.1904907226562,809.4871826171875,790.5494384765625
862,793.3699340820312,800.2197875976562,809.89013671875,802.6373901367188
863,799.8168334960938,799.4139404296875,807.87548828125,809.4871826171875
864,799.8168334960938,798.6080322265625,809.89013671875,807.069580078125
865,796.996337890625,799.010986328125,809.4871826171875,806.6666870117188
866,798.2051391601562,796.996337890625,804.6520385742188,806.2637329101562
867,800.6226806640625,797.8021850585938,804.6520385742188,809.4871826171875
868,799.4139404296875,796.996337890625,805.4578857421875,811.5018310546875
869,794.981689453125,801.8314819335938,806.6666870117188,801.8314819335938
870,796.5933837890625,803.040283203125,811.098876953125,794.5787353515625
871,797.8021850585938,794.981689453125,808.2783813476562,799.4139404296875
872,794.1758422851562,793.7728881835938,806.6666870117188,796.5933837890625
873,796.1904907226562,798.2051391601562,805.8607788085938,790.5494384765625
874,802.6373901367188,797.8021850585938,803.8461303710938,793.3699340820312
875,807.069580078125,799.010986328125,806.6666870117188,800.2197875976562
876,805.8607788085938,802.6373901367188,807.069580078125,800.2197875976562
877,803.040283203125,800.6226806640625,807.4725341796875,798.6080322265625
878,807.87548828125,799.010986328125,809.084228515625,801.025634765625
879,813.5164794921875,795.3846435546875,807.87548828125,810.6959838867188
880,806.2637329101562,798.2051391601562,801.4285888671875,813.91943359375
881,789.3406372070312,802.6373901367188,799.4139404296875,799.010986328125
882,783.6996459960938,798.2051391601562,807.87548828125,795.3846435546875
883,784.1025390625,794.1758422851562,806.6666870117188,795.3846435546875
884,785.7142944335938,795.7875366210938,804.2490844726562,792.967041015625
885,791.3552856445312,799.4139404296875,811.5018310546875,805.8607788085938
886,795.3846435546875,789.7435913085938,796.5933837890625,804.6520385742188
887,796.1904907226562,791.3552856445312,793.7728881835938,792.5640869140625
888,796.5933837890625,798.2051391601562,812.3076782226562,790.952392578125
889,793.7728881835938,795.7875366210938,813.91943359375,788.5347900390625
890,795.3846435546875,799.4139404296875,815.1282348632812,789.7435913085938
891,803.4432373046875,798.6080322265625,815.93408203125,801.4285888671875
892,802.6373901367188,800.2197875976562,811.098876953125,798.6080322265625
893,796.1904907226562,803.4432373046875,808.2783813476562,791.7582397460938
894,796.5933837890625,801.8314819335938,809.89013671875,795.3846435546875
895,795.7875366210938,797.8021850585938,809.89013671875,801.4285888671875
896,795.3846435546875,799.010986328125,804.6520385742188,800.2197875976562
897,797.8021850585938,796.996337890625,801.4285888671875,798.6080322265625
898,795.3846435546875,794.1758422851562,803.040283203125,796.996337890625
899,795.3846435546875,796.1904907226562,798.2051391601562,792.967041015625
900,797.3992919921875,794.981689453125,797.3992919921875,793.3699340820312
901,799.010986328125,792.1611938476562,798.6080322265625,797.3992919921875
902,796.1904907226562,789.7435913085938,795.3846435546875,799.010986328125
903,795.3846435546875,791.7582397460938,802.2344360351562,799.4139404296875
904,797.8021850585938,794.5787353515625,802.2344360351562,801.8314819335938
905,799.010986328125,792.1611938476562,800.6226806640625,806.2637329101562
906,798.2051391601562,790.5494384765625,803.4432373046875,811.5018310546875
907,797.8021850585938,795.7875366210938,803.8461303710938,810.2930297851562
908,803.8461303710938,801.025634765625,807.87548828125,815.5311279296875
909,799.8168334960938,796.996337890625,805.8607788085938,815.93408203125
910,797.3992919921875,796.1904907226562,805.4578857421875,805.4578857421875
911,803.4432373046875,796.5933837890625,811.098876953125,799.8168334960938
912,802.6373901367188,791.7582397460938,809.4871826171875,800.6226806640625
913,804.2490844726562,791.7582397460938,807.4725341796875,802.2344360351562
914,813.5164794921875,794.981689453125,811.5018310546875,806.2637329101562
915,812.7106323242188,794.1758422851562,813.5164794921875,803.040283203125
916,809.084228515625,795.3846435546875,812.7106323242188,801.8314819335938
917,812.3076782226562,797.3992919921875,808.6813354492188,807.069580078125
918,812.3076782226562,796.996337890625,807.069580078125,811.90478515625
919,802.2344360351562,798.6080322265625,809.084228515625,808.6813354492188
920,798.6080322265625,798.6080322265625,811.90478515625,802.6373901367188
921,805.8607788085938,799.4139404296875,814.7252807617188,809.084228515625
922,814.3223266601562,800.6226806640625,814.3223266601562,815.1282348632812
923,817.94873046875,801.025634765625,810.6959838867188,803.8461303710938
924,813.91943359375,798.6080322265625,809.89013671875,800.6226806640625
925,809.89013671875,791.3552856445312,807.4725341796875,803.4432373046875
926,811.90478515625,793.3699340820312,807.069580078125,807.4725341796875
927,815.1282348632812,798.2051391601562,812.7106323242188,813.5164794921875
928,813.5164794921875,798.6080322265625,813.91943359375,815.1282348632812
929,811.5018310546875,796.1904907226562,812.7106323242188,820.3662719726562
930,812.7106323242188,801.8314819335938,819.5604248046875,828.02197265625
931,812.3076782226562,804.2490844726562,823.1868286132812,821.5750732421875
932,811.5018310546875,799.010986328125,819.1575317382812,815.93408203125
933,809.084228515625,797.8021850585938,814.3223266601562,815.93408203125
934,807.069580078125,797.3992919921875,813.91943359375,816.3369750976562
935,803.040283203125,796.1904907226562,814.7252807617188,810.6959838867188
936,799.010986328125,790.952392578125,809.4871826171875,806.6666870117188
937,803.4432373046875,789.7435913085938,807.069580078125,809.4871826171875
938,801.8314819335938,792.1611938476562,811.90478515625,811.098876953125
939,799.8168334960938,797.3992919921875,807.87548828125,806.6666870117188
940,799.4139404296875,798.6080322265625,799.8168334960938,797.3992919921875
941,796.5933837890625,793.7728881835938,802.6373901367188,801.8314819335938
942,796.5933837890625,792.5640869140625,808.2783813476562,799.4139404296875
943,803.040283203125,793.7728881835938,806.6666870117188,796.1904907226562
944,801.8314819335938,792.1611938476562,805.054931640625,794.1758422851562
945,792.967041015625,794.5787353515625,809.084228515625,795.3846435546875
946,795.7875366210938,797.3992919921875,811.5018310546875,803.8461303710938
947,796.1904907226562,794.981689453125,805.4578857421875,804.6520385742188
948,794.1758422851562,794.1758422851562,801.4285888671875,803.4432373046875
949,799.010986328125,792.967041015625,801.025634765625,797.3992919921875
950,796.1904907226562,791.7582397460938,804.2490844726562,793.3699340820312
951,793.3699340820312,792.5640869140625,804.6520385742188,794.981689453125
952,795.3846435546875,795.7875366210938,804.2490844726562,802.2344360351562
953,795.3846435546875,795.7875366210938,808.2783813476562,805.054931640625
954,792.1611938476562,795.7875366210938,807.4725341796875,793.3699340820312
955,790.5494384765625,794.981689453125,803.040283203125,785.7142944335938
956,799.4139404296875,794.5787353515625,801.8314819335938,801.4285888671875
957,805.4578857421875,796.5933837890625,806.2637329101562,806.6666870117188
958,796.1904907226562,792.967041015625,808.2783813476562,800.6226806640625
959,796.996337890625,791.7582397460938,809.4871826171875,807.069580078125
960,801.025634765625,792.967041015625,807.4725341796875,810.2930297851562
961,797.3992919921875,791.3552856445312,806.6666870117188,809.084228515625
962,805.8607788085938,791.7582397460938,809.89013671875,809.4871826171875
963,811.5018310546875,798.2051391601562,813.5164794921875,812.7106323242188
964,806.2637329101562,801.4285888671875,815.93408203125,819.1575317382812
965,805.054931640625,800.2197875976562,815.93408203125,813.5164794921875
966,806.6666870117188,797.3992919921875,813.5164794921875,809.89013671875
967,806.2637329101562,795.7875366210938,813.91943359375,811.90478515625
968,804.2490844726562,796.996337890625,816.3369750976562,809.4871826171875
969,808.2783813476562,804.2490844726562,818.3516235351562,815.1282348632812
970,807.87548828125,805.054931640625,812.3076782226562,810.2930297851562
971,803.4432373046875,798.6080322265625,811.90478515625,809.89013671875
972,804.6520385742188,800.2197875976562,813.5164794921875,817.94873046875
973,802.2344360351562,799.4139404296875,812.3076782226562,812.7106323242188
974,799.4139404296875,798.2051391601562,813.5164794921875,811.5018310546875
975,797.3992919921875,794.1758422851562,810.2930297851562,810.2930297851562
976,792.5640869140625,797.8021850585938,810.2930297851562,809.89013671875
977,799.010986328125,801.025634765625,811.098876953125,809.4871826171875
978,799.8168334960938,797.3992919921875,811.5018310546875,804.6520385742188
979,794.5787353515625,798.6080322265625,811.098876953125,804.6520385742188
980,788.1318969726562,799.010986328125,809.89013671875,801.4285888671875
981,786.5201416015625,797.3992919921875,807.4725341796875,796.996337890625
982,792.967041015625,798.2051391601562,804.6520385742188,799.010986328125
983,797.3992919921875,799.4139404296875,803.8461303710938,796.5933837890625
984,802.6373901367188,800.2197875976562,805.8607788085938,801.8314819335938
985,804.2490844726562,801.4285888671875,809.084228515625,808.2783813476562
986,800.2197875976562,802.2344360351562,806.6666870117188,802.2344360351562
987,798.2051391601562,801.4285888671875,803.8461303710938,809.4871826171875
988,798.2051391601562,799.8168334960938,807.4725341796875,809.4871826171875
989,796.1904907226562,801.8314819335938,806.6666870117188,801.025634765625
990,796.996337890625,801.8314819335938,803.4432373046875,805.054931640625
991,799.4139404296875,803.8461303710938,806.6666870117188,806.6666870117188
992,803.4432373046875,804.6520385742188,809.89013671875,805.8607788085938
993,806.6666870117188,800.6226806640625,812.3076782226562,804.2490844726562
994,806.6666870117188,803.040283203125,814.7252807617188,806.6666870117188
995,805.4578857421875,802.6373901367188,812.3076782226562,805.4578857421875
996,805.4578857421875,799.010986328125,806.2637329101562,802.6373901367188
997,808.2783813476562,799.8168334960938,805.8607788085938,806.2637329101562
998,813.113525390625,804.2490844726562,809.89013671875,816.7399291992188
999,811.098876953125,805.4578857421875,812.7106323242188,809.4871826171875
1000,802.6373901367188,803.4432373046875,807.4725341796875,791.7582397460938
1001,804.6520385742188,805.054931640625,805.8607788085938,794.1758422851562
1002,803.040283203125,804.6520385742188,807.87548828125,798.6080322265625
1003,801.025634765625,800.6226806640625,809.084228515625,799.8168334960938
1004,808.6813354492188,802.2344360351562,816.3369750976562,805.054931640625
1005,807.4725341796875,797.8021850585938,814.3223266601562,804.6520385742188
1006,805.4578857421875,795.7875366210938,809.4871826171875,804.6520385742188
1007,808.6813354492188,799.4139404296875,813.91943359375,813.113525390625
1008,809.4871826171875,801.025634765625,815.1282348632812,817.1428833007812
1009,811.90478515625,801.4285888671875,816.3369750976562,814.7252807617188
1010,809.89013671875,799.8168334960938,813.5164794921875,805.4578857421875
1011,803.8461303710938,805.054931640625,811.5018310546875,801.4285888671875
1012,798.6080322265625,803.040283203125,813.91943359375,800.6226806640625
1013,796.5933837890625,796.996337890625,813.113525390625,797.8021850585938
1014,795.7875366210938,799.010986328125,813.113525390625,801.025634765625
1015,801.025634765625,801.8314819335938,811.90478515625,803.4432373046875
1016,802.6373901367188,800.2197875976562,807.4725341796875,801.025634765625
1017,807.87548828125,796.5933837890625,804.2490844726562,798.2051391601562
1018,810.6959838867188,798.6080322265625,805.054931640625,797.8021850585938
1019,803.4432373046875,799.010986328125,805.8607788085938,797.8021850585938
1020,802.6373901367188,796.1904907226562,806.6666870117188,799.8168334960938
1021,808.2783813476562,794.981689453125,806.6666870117188,806.6666870117188
1022,808.6813354492188,794.5787353515625,808.2783813476562,815.1282348632812
1023,801.8314819335938,796.1904907226562,806.6666870117188,807.069580078125
1024,799.010986328125,799.010986328125,807.4725341796875,801.4285888671875
1025,802.6373901367188,799.010986328125,807.069580078125,806.2637329101562
1026,803.040283203125,800.6226806640625,807.4725341796875,807.87548828125
1027,798.6080322265625,802.2344360351562,808.6813354492188,804.2490844726562
1028,796.996337890625,796.996337890625,806.6666870117188,801.025634765625
1029,790.5494384765625,792.5640869140625,806.6666870117188,799.8168334960938
1030,788.937744140625,794.981689453125,807.069580078125,801.4285888671875
1031,792.967041015625,793.3699340820312,807.87548828125,801.025634765625
1032,797.8021850585938,793.3699340820312,806.2637329101562,803.4432373046875
1033,805.4578857421875,796.1904907226562,807.4725341796875,813.113525390625
1034,804.2490844726562,799.010986328125,811.098876953125,817.5457763671875
1035,803.8461303710938,796.996337890625,809.4871826171875,812.7106323242188
1036,806.6666870117188,796.5933837890625,806.2637329101562,811.90478515625
1037,806.6666870117188,797.3992919921875,806.2637329101562,815.5311279296875
1038,802.6373901367188,796.1904907226562,805.4578857421875,806.6666870117188
1039,799.4139404296875,799.010986328125,799.010986328125,805.4578857421875
1040,802.6373901367188,795.7875366210938,798.6080322265625,814.7252807617188
1041,810.2930297851562,794.1758422851562,806.2637329101562,821.1721801757812
1042,800.2197875976562,801.025634765625,810.6959838867188,811.098876953125
1043,790.5494384765625,801.025634765625,811.098876953125,796.5933837890625
1044,794.5787353515625,796.5933837890625,809.084228515625,794.1758422851562
1045,796.1904907226562,795.3846435546875,812.3076782226562,798.2051391601562
1046,796.1904907226562,797.3992919921875,817.5457763671875,802.6373901367188
1047,792.5640869140625,792.967041015625,811.098876953125,805.054931640625
1048,798.6080322265625,792.967041015625,805.8607788085938,810.2930297851562
1049,795.3846435546875,798.6080322265625,807.4725341796875,808.6813354492188
1050,788.5347900390625,797.8021850585938,807.87548828125,801.4285888671875
1051,796.996337890625,799.4139404296875,807.87548828125,811.90478515625
1052,795.7875366210938,796.5933837890625,809.4871826171875,808.6813354492188
1053,792.5640869140625,795.3846435546875,810.2930297851562,801.8314819335938
1054,796.5933837890625,796.1904907226562,812.7106323242188,806.2637329101562
1055,805.8607788085938,794.1758422851562,815.93408203125,810.6959838867188
1056,803.4432373046875,790.952392578125,814.7252807617188,810.2930297851562
1057,795.3846435546875,795.7875366210938,818.3516235351562,806.6666870117188
1058,800.2197875976562,805.054931640625,819.5604248046875,808.2783813476562
1059,800.2197875976562,807.87548828125,817.5457763671875,804.6520385742188
1060,802.2344360351562,800.6226806640625,818.7545776367188,808.6813354492188
1061,803.8461303710938,798.6080322265625,816.7399291992188,807.069580078125
1062,796.996337890625,800.6226806640625,815.5311279296875,797.8021850585938
1063,801.8314819335938,797.8021850585938,813.5164794921875,798.2051391601562
1064,803.040283203125,797.8021850585938,814.3223266601562,800.2197875976562
1065,799.010986328125,801.025634765625,815.1282348632812,798.6080322265625
1066,801.4285888671875,800.2197875976562,808.6813354492188,799.010986328125
1067,802.2344360351562,799.010986328125,810.6959838867188,802.2344360351562
1068,806.2637329101562,801.4285888671875,817.1428833007812,809.4871826171875
1069,812.7106323242188,799.8168334960938,816.7399291992188,809.4871826171875
1070,808.2783813476562,797.8021850585938,815.1282348632812,800.6226806640625
1071,807.87548828125,795.7875366210938,818.3516235351562,810.6959838867188
1072,810.6959838867188,792.5640869140625,815.93408203125,811.90478515625
1073,806.2637329101562,799.8168334960938,811.90478515625,797.3992919921875
1074,801.8314819335938,802.2344360351562,814.3223266601562,801.4285888671875
1075,803.8461303710938,798.6080322265625,813.113525390625,806.6666870117188
1076,807.069580078125,801.4285888671875,812.7106323242188,802.6373901367188
1077,805.054931640625,802.6373901367188,817.1428833007812,801.4285888671875
1078,804.6520385742188,800.2197875976562,813.5164794921875,802.6373901367188
1079,805.054931640625,799.010986328125,813.5164794921875,805.8607788085938
1080,808.2783813476562,798.6080322265625,819.96337890625,806.2637329101562
1081,811.5018310546875,801.025634765625,818.7545776367188,803.4432373046875
1082,803.4432373046875,796.996337890625,815.1282348632812,800.2197875976562
1083,798.6080322265625,792.967041015625,811.90478515625,808.2783813476562
1084,801.025634765625,796.996337890625,811.90478515625,804.2490844726562
1085,804.6520385742188,800.2197875976562,813.91943359375,801.025634765625
1086,809.4871826171875,799.8168334960938,812.3076782226562,806.2637329101562
1087,805.8607788085938,800.2197875976562,809.084228515625,806.6666870117188
1088,795.3846435546875,802.6373901367188,807.069580078125,807.069580078125
1089,796.996337890625,803.4432373046875,811.098876953125,811.5018310546875
1090,805.054931640625,803.040283203125,812.7106323242188,811.098876953125
1091,796.1904907226562,799.4139404296875,808.2783813476562,804.2490844726562
1092,791.3552856445312,795.7875366210938,803.8461303710938,805.054931640625
1093,801.8314819335938,795.7875366210938,805.054931640625,814.7252807617188
1094,811.5018310546875,795.7875366210938,808.2783813476562,821.1721801757812
1095,813.5164794921875,796.5933837890625,810.6959838867188,813.91943359375
1096,821.5750732421875,799.4139404296875,813.91943359375,813.113525390625
1097,819.1575317382812,797.8021850585938,811.098876953125,813.5164794921875
1098,816.3369750976562,797.8021850585938,813.113525390625,811.90478515625
1099,818.3516235351562,798.6080322265625,814.3223266601562,813.113525390625
1100,813.91943359375,796.5933837890625,809.4871826171875,812.3076782226562
1101,805.8607788085938,797.3992919921875,810.6959838867188,815.5311279296875
1102,803.4432373046875,797.3992919921875,811.90478515625,828.02197265625
1103,807.87548828125,795.3846435546875,813.113525390625,832.05126953125
1104,804.2490844726562,794.1758422851562,815.1282348632812,823.1868286132812
1105,799.010986328125,793.7728881835938,813.5164794921875,815.5311279296875
1106,801.4285888671875,794.5787353515625,813.113525390625,810.6959838867188
1107,803.4432373046875,798.6080322265625,813.5164794921875,816.7399291992188
1108,800.6226806640625,796.5933837890625,812.3076782226562,815.5311279296875
1109,801.4285888671875,799.010986328125,813.5164794921875,811.5018310546875
1110,799.4139404296875,797.8021850585938,813.91943359375,817.1428833007812
1111,796.996337890625,792.1611938476562,811.90478515625,809.4871826171875
1112,796.5933837890625,796.1904907226562,809.4871826171875,800.6226806640625
1113,798.2051391601562,796.1904907226562,805.8607788085938,805.4578857421875
1114,803.8461303710938,792.5640869140625,806.6666870117188,810.2930297851562
1115,798.6080322265625,791.7582397460938,805.8607788085938,807.4725341796875
1116,796.5933837890625,794.981689453125,806.2637329101562,802.6373901367188
1117,801.4285888671875,795.7875366210938,814.7252807617188,806.6666870117188
1118,803.4432373046875,794.5787353515625,811.5018310546875,806.2637329101562
1119,805.054931640625,792.1611938476562,801.8314819335938,805.8607788085938
1120,805.4578857421875,793.7728881835938,804.2490844726562,807.87548828125
1121,808.6813354492188,794.5787353515625,806.6666870117188,813.113525390625
1122,808.6813354492188,796.1904907226562,809.084228515625,821.1721801757812
1123,803.4432373046875,797.8021850585938,807.87548828125,812.7106323242188
1124,799.4139404296875,795.3846435546875,803.8461303710938,805.4578857421875
1125,799.010986328125,795.7875366210938,805.054931640625,809.4871826171875
1126,801.8314819335938,796.5933837890625,805.8607788085938,804.2490844726562
1127,803.4432373046875,798.6080322265625,801.8314819335938,800.6226806640625
1128,806.6666870117188,801.4285888671875,805.054931640625,802.2344360351562
1129,807.4725341796875,795.7875366210938,807.4725341796875,803.040283203125
1130,801.4285888671875,799.010986328125,811.90478515625,803.4432373046875
1131,802.2344360351562,803.8461303710938,815.1282348632812,801.4285888671875
1132,807.4725341796875,797.8021850585938,813.91943359375,813.5164794921875
1133,811.098876953125,795.7875366210938,811.90478515625,825.6043701171875
1134,806.2637329101562,798.6080322265625,811.098876953125,809.89013671875
1135,804.2490844726562,800.2197875976562,809.4871826171875,801.8314819335938
1136,811.5018310546875,800.2197875976562,803.040283203125,804.2490844726562
1137,810.6959838867188,799.010986328125,803.4432373046875,808.6813354492188
1138,802.6373901367188,797.8021850585938,804.6520385742188,810.2930297851562
1139,801.025634765625,798.6080322265625,802.2344360351562,806.6666870117188
1140,801.025634765625,795.3846435546875,803.040283203125,807.87548828125
1141,801.025634765625,796.996337890625,802.2344360351562,808.6813354492188
1142,804.2490844726562,801.4285888671875,800.6226806640625,811.5018310546875
1143,807.069580078125,799.8168334960938,804.2490844726562,817.1428833007812
1144,811.098876953125,797.8021850585938,809.084228515625,819.1575317382812
1145,808.6813354492188,801.8314819335938,808.6813354492188,814.7252807617188
1146,803.040283203125,801.025634765625,807.069580078125,807.4725341796875
1147,807.069580078125,792.5640869140625,808.2783813476562,802.2344360351562
1148,808.2783813476562,790.5494384765625,804.2490844726562,799.010986328125
1149,794.5787353515625,792.1611938476562,801.8314819335938,798.6080322265625
1150,793.7728881835938,793.3699340820312,806.6666870117188,801.4285888671875
1151,794.5787353515625,788.1318969726562,803.040283203125,799.8168334960938
1152,792.5640869140625,786.1171875,801.025634765625,798.2051391601562
1153,797.8021850585938,791.3552856445312,801.8314819335938,797.8021850585938
1154,803.040283203125,794.981689453125,801.4285888671875,796.996337890625
1155,802.6373901367188,796.5933837890625,801.4285888671875,791.7582397460938
1156,799.4139404296875,791.7582397460938,801.4285888671875,803.4432373046875
1157,802.2344360351562,794.5787353515625,803.8461303710938,807.4725341796875
1158,808.2783813476562,798.2051391601562,806.2637329101562,796.5933837890625
1159,806.6666870117188,797.3992919921875,808.2783813476562,802.2344360351562
1160,797.8021850585938,799.8168334960938,805.8607788085938,804.2490844726562
1161,796.5933837890625,796.996337890625,802.6373901367188,800.6226806640625
1162,801.025634765625,792.967041015625,798.6080322265625,794.1758422851562
1163,801.4285888671875,793.7728881835938,795.3846435546875,788.5347900390625
1164,802.6373901367188,798.6080322265625,801.4285888671875,794.1758422851562
1165,805.8607788085938,798.2051391601562,806.6666870117188,802.6373901367188
1166,798.2051391601562,792.5640869140625,804.2490844726562,798.2051391601562
1167,795.7875366210938,791.3552856445312,804.2490844726562,800.6226806640625
1168,803.040283203125,796.5933837890625,809.084228515625,814.7252807617188
1169,797.3992919921875,799.4139404296875,810.2930297851562,809.084228515625
1170,791.3552856445312,793.7728881835938,805.4578857421875,801.025634765625
1171,799.8168334960938,791.3552856445312,805.054931640625,805.054931640625
1172,801.4285888671875,797.8021850585938,806.6666870117188,803.040283203125
1173,797.3992919921875,797.8021850585938,807.4725341796875,799.4139404296875
1174,793.7728881835938,791.3552856445312,800.6226806640625,796.1904907226562
1175,795.3846435546875,789.7435913085938,798.6080322265625,796.1904907226562
1176,800.2197875976562,789.3406372070312,804.6520385742188,797.3992919921875
1177,796.996337890625,790.1465454101562,805.054931640625,799.010986328125
1178,797.8021850585938,792.1611938476562,801.4285888671875,801.025634765625
1179,800.6226806640625,789.7435913085938,801.8314819335938,801.8314819335938
1180,800.6226806640625,792.5640869140625,807.87548828125,803.8461303710938
1181,803.040283203125,796.996337890625,801.8314819335938,801.4285888671875
1182,800.2197875976562,793.3699340820312,800.2197875976562,800.2197875976562
1183,801.025634765625,789.7435913085938,807.069580078125,810.6959838867188
1184,804.6520385742188,794.5787353515625,807.069580078125,809.89013671875
1185,799.8168334960938,799.010986328125,810.2930297851562,807.87548828125
1186,799.4139404296875,796.1904907226562,813.113525390625,807.4725341796875
1187,803.040283203125,797.3992919921875,810.6959838867188,807.069580078125
1188,805.4578857421875,797.8021850585938,808.6813354492188,805.8607788085938
1189,803.4432373046875,790.5494384765625,805.8607788085938,802.2344360351562
1190,804.2490844726562,789.7435913085938,805.8607788085938,807.069580078125
1191,805.8607788085938,793.7728881835938,806.6666870117188,811.5018310546875
1192,798.2051391601562,793.3699340820312,805.8607788085938,803.8461303710938
1193,796.5933837890625,790.5494384765625,805.054931640625,803.8461303710938
1194,808.2783813476562,792.5640869140625,804.6520385742188,814.3223266601562
1195,807.4725341796875,796.996337890625,807.069580078125,811.5018310546875
1196,798.2051391601562,793.7728881835938,805.4578857421875,805.4578857421875
1197,797.8021850585938,790.952392578125,801.025634765625,802.6373901367188
1198,802.2344360351562,790.5494384765625,802.2344360351562,801.8314819335938
1199,797.8021850585938,794.1758422851562,806.6666870117188,799.4139404296875
1200,795.3846435546875,792.967041015625,809.89013671875,799.010986328125
1201,800.6226806640625,791.7582397460938,810.2930297851562,805.4578857421875
1202,804.6520385742188,799.010986328125,811.098876953125,814.3223266601562
1203,802.6373901367188,803.8461303710938,811.098876953125,807.4725341796875
1204,796.1904907226562,806.6666870117188,807.4725341796875,793.7728881835938
1205,795.7875366210938,803.8461303710938,810.6959838867188,799.010986328125
1206,795.7875366210938,796.1904907226562,813.5164794921875,805.8607788085938
1207,797.3992919921875,798.2051391601562,813.91943359375,798.2051391601562
1208,799.010986328125,797.8021850585938,811.90478515625,799.4139404296875
1209,794.1758422851562,794.981689453125,811.5018310546875,801.025634765625
1210,796.1904907226562,795.3846435546875,816.3369750976562,795.7875366210938
1211,798.2051391601562,798.2051391601562,814.3223266601562,798.2051391601562
1212,799.8168334960938,801.4285888671875,812.3076782226562,801.025634765625
1213,802.6373901367188,799.010986328125,808.6813354492188,803.8461303710938
1214,803.040283203125,798.2051391601562,807.87548828125,804.6520385742188
1215,801.8314819335938,800.6226806640625,811.90478515625,800.6226806640625
1216,800.2197875976562,799.8168334960938,813.91943359375,804.2490844726562
1217,804.2490844726562,795.3846435546875,811.098876953125,810.6959838867188
1218,805.4578857421875,797.3992919921875,809.084228515625,815.1282348632812
1219,805.4578857421875,798.6080322265625,808.6813354492188,810.6959838867188
1220,805.8607788085938,795.3846435546875,810.2930297851562,807.87548828125
1221,802.2344360351562,797.3992919921875,811.098876953125,814.3223266601562
1222,799.4139404296875,799.8168334960938,811.5018310546875,815.1282348632812
1223,801.4285888671875,796.996337890625,811.90478515625,813.91943359375
1224,803.4432373046875,793.3699340820312,812.3076782226562,814.7252807617188
1225,802.2344360351562,790.1465454101562,809.89013671875,811.098876953125
1226,801.8314819335938,789.7435913085938,804.2490844726562,802.2344360351562
1227,798.2051391601562,792.967041015625,804.2490844726562,794.1758422851562
1228,794.1758422851562,789.3406372070312,805.054931640625,797.3992919921875
1229,794.1758422851562,786.923095703125,801.8314819335938,806.2637329101562
1230,792.967041015625,798.2051391601562,807.87548828125,803.8461303710938
1231,792.1611938476562,798.2051391601562,813.5164794921875,803.040283203125
1232,794.981689453125,794.5787353515625,809.89013671875,807.4725341796875
1233,794.5787353515625,794.981689453125,807.4725341796875,805.8607788085938
1234,796.1904907226562,798.2051391601562,812.7106323242188,806.6666870117188
1235,794.981689453125,798.6080322265625,815.1282348632812,804.6520385742188
1236,792.1611938476562,792.1611938476562,806.6666870117188,796.5933837890625
1237,796.1904907226562,791.7582397460938,804.6520385742188,796.1904907226562
1238,800.2197875976562,792.967041015625,807.4725341796875,798.2051391601562
1239,796.1904907226562,793.3699340820312,806.2637329101562,791.7582397460938
1240,803.8461303710938,790.5494384765625,804.2490844726562,803.4432373046875
1241,809.084228515625,790.5494384765625,804.2490844726562,816.7399291992188
1242,800.6226806640625,792.1611938476562,809.89013671875,802.6373901367188
1243,793.3699340820312,790.952392578125,810.2930297851562,801.8314819335938
1244,794.5787353515625,792.5640869140625,805.8607788085938,808.2783813476562
1245,801.8314819335938,797.3992919921875,807.4725341796875,801.4285888671875
1246,802.6373901367188,797.3992919921875,808.6813354492188,800.6226806640625
1247,804.2490844726562,799.010986328125,810.2930297851562,805.054931640625
1248,805.8607788085938,801.8314819335938,809.89013671875,800.2197875976562
1249,795.7875366210938,799.010986328125,803.8461303710938,794.981689453125
1250,796.996337890625,795.7875366210938,807.069580078125,794.1758422851562
1251,799.010986328125,797.3992919921875,811.5018310546875,801.025634765625
1252,795.7875366210938,798.6080322265625,809.89013671875,810.6959838867188
1253,796.5933837890625,796.5933837890625,809.89013671875,799.4139404296875
1254,797.3992919921875,795.7875366210938,808.6813354492188,792.1611938476562
1255,803.040283203125,798.6080322265625,809.084228515625,799.8168334960938
1256,808.6813354492188,800.2197875976562,809.89013671875,805.4578857421875
1257,808.2783813476562,801.4285888671875,809.084228515625,805.8607788085938
1258,803.8461303710938,799.8168334960938,807.87548828125,805.054931640625
1259,804.2490844726562,800.2197875976562,805.8607788085938,808.2783813476562
1260,807.069580078125,801.4285888671875,809.4871826171875,807.4725341796875
1261,807.4725341796875,800.6226806640625,812.3076782226562,807.069580078125
1262,803.8461303710938,801.025634765625,808.2783813476562,805.4578857421875
1263,803.4432373046875,799.010986328125,805.4578857421875,805.8607788085938
1264,799.010986328125,799.010986328125,809.89013671875,802.6373901367188
1265,794.5787353515625,802.2344360351562,811.5018310546875,794.1758422851562
1266,796.5933837890625,796.5933837890625,807.87548828125,794.981689453125
1267,795.7875366210938,795.7875366210938,806.2637329101562,805.8607788085938
1268,794.1758422851562,799.010986328125,806.6666870117188,807.069580078125
1269,802.6373901367188,798.2051391601562,809.4871826171875,808.2783813476562
1270,804.2490844726562,797.8021850585938,812.3076782226562,811.5018310546875
1271,794.5787353515625,797.8021850585938,811.5018310546875,800.2197875976562
1272,794.5787353515625,792.1611938476562,808.6813354492188,799.4139404296875
1273,801.4285888671875,791.3552856445312,811.90478515625,805.054931640625
1274,799.8168334960938,794.981689453125,809.4871826171875,796.1904907226562
1275,799.010986328125,794.5787353515625,807.87548828125,791.7582397460938
1276,796.5933837890625,796.996337890625,811.5018310546875,786.5201416015625
1277,788.937744140625,795.7875366210938,809.89013671875,784.1025390625
1278,793.3699340820312,794.1758422851562,810.2930297851562,794.1758422851562
1279,802.2344360351562,797.3992919921875,809.4871826171875,799.4139404296875
1280,803.4432373046875,797.8021850585938,806.2637329101562,796.996337890625
1281,809.084228515625,795.3846435546875,810.2930297851562,796.1904907226562
1282,811.5018310546875,794.5787353515625,809.89013671875,794.1758422851562
1283,813.5164794921875,799.4139404296875,808.2783813476562,805.054931640625
1284,817.1428833007812,803.040283203125,807.4725341796875,817.94873046875
1285,808.6813354492188,800.2197875976562,805.4578857421875,811.5018310546875
1286,803.040283203125,792.5640869140625,804.6520385742188,809.89013671875
1287,804.6520385742188,793.7728881835938,808.2783813476562,808.2783813476562
1288,802.2344360351562,802.2344360351562,811.098876953125,803.040283203125
1289,802.6373901367188,801.8314819335938,811.098876953125,809.084228515625
1290,803.8461303710938,796.1904907226562,809.89013671875,816.7399291992188
1291,803.8461303710938,797.8021850585938,809.084228515625,811.098876953125
1292,810.2930297851562,802.2344360351562,812.3076782226562,809.89013671875
1293,811.5018310546875,798.6080322265625,814.3223266601562,814.3223266601562
1294,813.91943359375,795.7875366210938,815.1282348632812,823.1868286132812
1295,808.2783813476562,795.7875366210938,814.3223266601562,816.7399291992188
1296,808.6813354492188,796.1904907226562,815.1282348632812,806.6666870117188
1297,813.113525390625,794.981689453125,811.098876953125,810.2930297851562
1298,805.4578857421875,791.7582397460938,807.87548828125,804.6520385742188
1299,798.6080322265625,789.3406372070312,809.084228515625,798.2051391601562
1300,802.2344360351562,791.3552856445312,805.4578857421875,797.3992919921875
1301,808.6813354492188,794.981689453125,806.6666870117188,801.8314819335938
1302,803.8461303710938,792.1611938476562,809.084228515625,811.098876953125
1303,803.8461303710938,793.7728881835938,804.2490844726562,802.6373901367188
1304,807.87548828125,790.5494384765625,802.6373901367188,797.3992919921875
1305,802.6373901367188,790.1465454101562,805.4578857421875,803.040283203125
1306,797.8021850585938,796.5933837890625,805.054931640625,807.069580078125
1307,793.3699340820312,797.3992919921875,806.2637329101562,805.4578857421875
1308,792.5640869140625,790.1465454101562,806.6666870117188,801.8314819335938
1309,796.996337890625,788.937744140625,808.2783813476562,804.2490844726562
1310,799.4139404296875,792.1611938476562,810.2930297851562,807.4725341796875
1311,801.025634765625,795.3846435546875,810.6959838867188,801.8314819335938
1312,802.2344360351562,798.2051391601562,808.6813354492188,802.2344360351562
1313,807.4725341796875,800.2197875976562,810.6959838867188,803.8461303710938
1314,809.89013671875,805.054931640625,811.5018310546875,800.6226806640625
1315,803.8461303710938,802.6373901367188,807.4725341796875,799.010986328125
1316,802.6373901367188,797.3992919921875,812.3076782226562,801.025634765625
1317,805.054931640625,798.2051391601562,814.3223266601562,812.3076782226562
1318,801.8314819335938,796.5933837890625,813.5164794921875,809.4871826171875
1319,802.6373901367188,795.7875366210938,814.7252807617188,797.8021850585938
1320,803.8461303710938,795.7875366210938,807.87548828125,797.3992919921875
1321,806.2637329101562,794.981689453125,807.069580078125,797.8021850585938
1322,810.2930297851562,798.2051391601562,809.4871826171875,798.6080322265625
1323,802.6373901367188,797.8021850585938,804.6520385742188,796.5933837890625
1324,800.2197875976562,794.981689453125,803.040283203125,796.1904907226562
1325,801.4285888671875,793.7728881835938,804.2490844726562,805.4578857421875
1326,800.2197875976562,793.7728881835938,805.054931640625,804.2490844726562
1327,798.2051391601562,793.7728881835938,803.4432373046875,796.5933837890625
1328,797.8021850585938,797.8021850585938,805.4578857421875,801.025634765625
1329,799.010986328125,799.8168334960938,808.6813354492188,807.069580078125
1330,802.6373901367188,798.2051391601562,807.069580078125,804.6520385742188
1331,805.4578857421875,799.8168334960938,808.6813354492188,806.6666870117188
1332,804.2490844726562,801.4285888671875,811.098876953125,807.4725341796875
1333,806.2637329101562,801.025634765625,808.2783813476562,803.040283203125
1334,810.2930297851562,801.4285888671875,811.098876953125,805.8607788085938
1335,811.90478515625,799.8168334960938,812.7106323242188,809.084228515625
1336,812.3076782226562,796.5933837890625,808.2783813476562,812.7106323242188
1337,811.5018310546875,797.8021850585938,811.5018310546875,808.2783813476562
1338,808.2783813476562,798.2051391601562,811.5018310546875,800.6226806640625
1339,802.6373901367188,796.1904907226562,805.8607788085938,805.4578857421875
1340,802.2344360351562,793.7728881835938,808.6813354492188,814.7252807617188
1341,796.996337890625,791.7582397460938,809.89013671875,811.098876953125
1342,792.1611938476562,790.952392578125,808.6813354492188,806.2637329101562
1343,799.010986328125,792.1611938476562,810.6959838867188,814.7252807617188
1344,799.8168334960938,792.967041015625,811.098876953125,817.94873046875
1345,793.7728881835938,790.1465454101562,805.8607788085938,809.89013671875
1346,794.5787353515625,785.7142944335938,804.2490844726562,806.6666870117188
1347,801.4285888671875,789.3406372070312,806.6666870117188,817.94873046875
1348,811.098876953125,798.2051391601562,809.084228515625,824.7985229492188
1349,808.6813354492188,799.8168334960938,809.89013671875,815.5311279296875
1350,810.6959838867188,800.2197875976562,807.87548828125,807.87548828125
1351,811.5018310546875,803.040283203125,807.87548828125,806.2637329101562
1352,810.6959838867188,806.2637329101562,809.4871826171875,809.4871826171875
1353,815.1282348632812,806.6666870117188,811.90478515625,807.87548828125
1354,809.89013671875,801.025634765625,807.87548828125,802.6373901367188
1355,805.8607788085938,797.8021850585938,805.054931640625,805.4578857421875
1356,797.3992919921875,800.2197875976562,805.8607788085938,807.4725341796875
1357,790.5494384765625,796.1904907226562,802.2344360351562,802.6373901367188
1358,798.2051391601562,796.1904907226562,802.6373901367188,807.4725341796875
1359,801.025634765625,794.1758422851562,806.2637329101562,809.89013671875
1360,792.1611938476562,793.7728881835938,807.87548828125,803.040283203125
1361,792.1611938476562,797.3992919921875,803.8461303710938,788.1318969726562
1362,796.1904907226562,792.5640869140625,803.8461303710938,785.3113403320312
1363,796.5933837890625,791.7582397460938,808.2783813476562,802.6373901367188
1364,799.010986328125,794.1758422851562,805.4578857421875,808.2783813476562
1365,801.4285888671875,793.3699340820312,805.054931640625,805.054931640625
1366,803.8461303710938,791.3552856445312,806.2637329101562,805.4578857421875
1367,799.4139404296875,785.3113403320312,803.040283203125,807.4725341796875
1368,792.1611938476562,788.937744140625,803.8461303710938,801.8314819335938
1369,793.7728881835938,797.3992919921875,805.4578857421875,801.025634765625
1370,799.8168334960938,794.981689453125,805.054931640625,806.6666870117188
1371,799.010986328125,794.1758422851562,804.6520385742188,802.2344360351562
1372,797.3992919921875,796.5933837890625,805.4578857421875,794.5787353515625
1373,795.7875366210938,795.7875366210938,809.89013671875,791.3552856445312
1374,797.3992919921875,799.4139404296875,811.5018310546875,797.8021850585938
1375,800.2197875976562,800.6226806640625,805.4578857421875,802.6373901367188
1376,799.8168334960938,800.6226806640625,802.2344360351562,803.8461303710938
1377,797.8021850585938,798.2051391601562,799.4139404296875,802.2344360351562
1378,799.4139404296875,795.3846435546875,795.3846435546875,795.7875366210938
1379,803.040283203125,794.5787353515625,800.6226806640625,794.5787353515625
1380,804.6520385742188,792.1611938476562,802.6373901367188,801.8314819335938
1381,799.8168334960938,792.5640869140625,798.6080322265625,799.8168334960938
1382,803.040283203125,795.3846435546875,800.6226806640625,798.2051391601562
1383,807.87548828125,796.1904907226562,800.6226806640625,801.8314819335938
1384,805.054931640625,799.010986328125,798.6080322265625,797.8021850585938
1385,807.4725341796875,803.040283203125,802.2344360351562,801.8314819335938
1386,805.054931640625,805.4578857421875,805.054931640625,810.2930297851562
1387,796.1904907226562,804.2490844726562,802.2344360351562,804.2490844726562
1388,796.5933837890625,801.4285888671875,800.2197875976562,794.1758422851562
1389,798.2051391601562,801.4285888671875,805.054931640625,796.996337890625
1390,796.1904907226562,802.2344360351562,805.4578857421875,800.6226806640625
1391,793.3699340820312,797.8021850585938,802.2344360351562,801.025634765625
1392,792.5640869140625,794.1758422851562,803.040283203125,803.8461303710938
1393,793.7728881835938,794.981689453125,806.6666870117188,810.6959838867188
1394,794.981689453125,799.010986328125,802.2344360351562,809.084228515625
1395,801.025634765625,798.6080322265625,801.025634765625,807.069580078125
1396,803.4432373046875,802.6373901367188,806.6666870117188,808.6813354492188
1397,797.8021850585938,802.2344360351562,805.4578857421875,805.8607788085938
1398,798.2051391601562,795.7875366210938,803.040283203125,809.084228515625
1399,796.996337890625,794.5787353515625,806.6666870117188,805.054931640625
1400,799.4139404296875,796.1904907226562,810.6959838867188,805.054931640625
1401,809.084228515625,796.5933837890625,812.3076782226562,816.3369750976562
1402,811.5018310546875,802.2344360351562,807.069580078125,813.5164794921875
1403,801.025634765625,802.2344360351562,803.040283203125,801.8314819335938
1404,788.937744140625,794.1758422851562,806.2637329101562,797.3992919921875
1405,791.7582397460938,795.3846435546875,805.4578857421875,794.5787353515625
1406,794.1758422851562,798.6080322265625,805.8607788085938,794.5787353515625
1407,784.1025390625,792.5640869140625,806.6666870117188,797.3992919921875
1408,782.4908447265625,790.5494384765625,805.8607788085938,797.8021850585938
1409,790.1465454101562,792.1611938476562,804.6520385742188,800.6226806640625
1410,794.1758422851562,796.5933837890625,808.2783813476562,808.2783813476562
1411,792.967041015625,800.6226806640625,810.2930297851562,801.025634765625
1412,791.3552856445312,799.010986328125,802.6373901367188,794.1758422851562
1413,796.1904907226562,801.8314819335938,806.6666870117188,803.040283203125
1414,798.2051391601562,800.2197875976562,810.6959838867188,806.6666870117188
1415,797.8021850585938,792.5640869140625,807.4725341796875,801.8314819335938
1416,795.3846435546875,786.923095703125,806.6666870117188,799.4139404296875
1417,795.3846435546875,787.3259887695312,802.6373901367188,796.996337890625
1418,796.996337890625,790.1465454101562,803.4432373046875,798.6080322265625
1419,806.6666870117188,790.1465454101562,804.2490844726562,800.6226806640625
1420,811.5018310546875,788.5347900390625,804.6520385742188,800.6226806640625
1421,807.4725341796875,790.952392578125,808.6813354492188,810.2930297851562
1422,811.90478515625,801.8314819335938,811.098876953125,809.4871826171875
1423,811.5018310546875,805.054931640625,815.1282348632812,803.4432373046875
1424,802.2344360351562,800.2197875976562,813.113525390625,805.4578857421875
1425,804.2490844726562,798.2051391601562,808.6813354492188,804.2490844726562
1426,808.6813354492188,798.2051391601562,808.2783813476562,800.2197875976562
1427,805.8607788085938,800.6226806640625,811.90478515625,801.4285888671875
1428,803.040283203125,801.025634765625,811.5018310546875,803.4432373046875
1429,801.8314819335938,798.6080322265625,805.8607788085938,798.2051391601562
1430,803.040283203125,794.5787353515625,805.8607788085938,796.996337890625
1431,800.2197875976562,795.7875366210938,807.4725341796875,799.8168334960938
1432,799.4139404296875,799.8168334960938,808.2783813476562,808.2783813476562
1433,796.1904907226562,799.8168334960938,807.87548828125,805.8607788085938
1434,793.7728881835938,802.2344360351562,811.90478515625,795.3846435546875
1435,796.5933837890625,799.8168334960938,811.098876953125,798.2051391601562
1436,800.2197875976562,801.8314819335938,812.7106323242188,810.6959838867188
1437,801.8314819335938,808.6813354492188,815.5311279296875,813.113525390625
1438,801.4285888671875,807.4725341796875,808.6813354492188,810.2930297851562
1439,802.2344360351562,803.4432373046875,804.2490844726562,808.2783813476562
1440,809.084228515625,801.4285888671875,807.069580078125,814.7252807617188
1441,808.2783813476562,801.025634765625,807.069580078125,813.113525390625
1442,808.2783813476562,801.8314819335938,803.040283203125,806.2637329101562
1443,803.040283203125,798.6080322265625,801.4285888671875,803.040283203125
1444,804.6520385742188,798.6080322265625,804.6520385742188,810.6959838867188
1445,814.3223266601562,805.4578857421875,810.2930297851562,819.1575317382812
1446,812.3076782226562,802.2344360351562,812.7106323242188,819.5604248046875
1447,809.4871826171875,797.8021850585938,808.6813354492188,813.91943359375
1448,808.6813354492188,798.2051391601562,806.2637329101562,806.2637329101562
1449,809.89013671875,798.6080322265625,808.6813354492188,803.040283203125
1450,809.4871826171875,797.8021850585938,808.2783813476562,800.2197875976562
1451,805.054931640625,795.3846435546875,804.6520385742188,802.2344360351562
1452,803.8461303710938,795.7875366210938,802.2344360351562,803.040283203125
1453,805.8607788085938,796.5933837890625,807.4725341796875,800.6226806640625
1454,806.2637329101562,795.3846435546875,804.2490844726562,797.3992919921875
1455,809.4871826171875,796.996337890625,802.6373901367188,804.6520385742188
1456,805.4578857421875,797.8021850585938,804.2490844726562,803.040283203125
1457,795.7875366210938,798.2051391601562,804.6520385742188,796.1904907226562
1458,799.010986328125,801.4285888671875,807.4725341796875,795.3846435546875
1459,801.8314819335938,797.3992919921875,803.8461303710938,788.1318969726562
1460,798.2051391601562,798.6080322265625,802.2344360351562,799.4139404296875
1461,803.8461303710938,797.8021850585938,803.8461303710938,801.8314819335938
1462,807.87548828125,797.8021850585938,804.6520385742188,795.7875366210938
1463,799.4139404296875,797.8021850585938,807.87548828125,801.025634765625
1464,798.2051391601562,796.996337890625,810.2930297851562,804.2490844726562
1465,801.4285888671875,799.8168334960938,807.069580078125,805.4578857421875
1466,805.8607788085938,799.010986328125,805.4578857421875,805.8607788085938
1467,808.6813354492188,792.5640869140625,805.8607788085938,807.4725341796875
1468,810.2930297851562,794.5787353515625,805.4578857421875,805.8607788085938
1469,811.90478515625,799.010986328125,810.6959838867188,809.084228515625
1470,809.4871826171875,797.3992919921875,808.2783813476562,816.3369750976562
1471,809.4871826171875,797.8021850585938,804.2490844726562,810.6959838867188
1472,808.2783813476562,799.8168334960938,803.4432373046875,810.6959838867188
1473,805.054931640625,798.6080322265625,804.2490844726562,813.5164794921875
1474,805.4578857421875,793.7728881835938,805.8607788085938,803.4432373046875
1475,807.87548828125,792.5640869140625,804.6520385742188,807.4725341796875
1476,803.4432373046875,790.1465454101562,803.4432373046875,807.4725341796875
1477,801.4285888671875,787.7289428710938,805.4578857421875,801.4285888671875
1478,805.8607788085938,790.5494384765625,806.2637329101562,804.2490844726562
1479,807.4725341796875,794.5787353515625,806.2637329101562,803.040283203125
1480,806.6666870117188,796.5933837890625,803.4432373046875,797.3992919921875
1481,799.010986328125,792.5640869140625,801.8314819335938,792.1611938476562
1482,797.3992919921875,788.937744140625,801.8314819335938,801.4285888671875
1483,798.2051391601562,791.7582397460938,803.8461303710938,806.2637329101562
1484,795.3846435546875,796.5933837890625,808.6813354492188,795.7875366210938
1485,801.4285888671875,796.5933837890625,809.89013671875,801.025634765625
1486,803.4432373046875,793.7728881835938,805.4578857421875,809.084228515625
1487,803.040283203125,794.981689453125,811.098876953125,809.4871826171875
1488,803.8461303710938,796.996337890625,814.3223266601562,811.90478515625
1489,807.4725341796875,792.1611938476562,807.87548828125,817.1428833007812
1490,808.2783813476562,790.1465454101562,808.2783813476562,819.5604248046875
1491,804.6520385742188,793.7728881835938,805.054931640625,811.90478515625
1492,808.6813354492188,793.3699340820312,803.040283203125,809.89013671875
1493,807.4725341796875,794.1758422851562,808.2783813476562,815.1282348632812
1494,803.8461303710938,797.3992919921875,809.084228515625,820.7692260742188
1495,801.4285888671875,797.3992919921875,807.87548828125,815.5311279296875
1496,803.040283203125,800.2197875976562,809.4871826171875,811.90478515625
1497,806.6666870117188,800.6226806640625,810.6959838867188,812.3076782226562
1498,807.87548828125,796.5933837890625,807.4725341796875,810.6959838867188
1499,807.87548828125,799.4139404296875,805.8607788085938,809.4871826171875
1500,804.6520385742188,800.6226806640625,807.4725341796875,806.6666870117188
1501,803.040283203125,797.3992919921875,803.4432373046875,806.6666870117188
1502,805.054931640625,798.2051391601562,797.8021850585938,803.8461303710938
1503,810.2930297851562,798.2051391601562,800.6226806640625,805.054931640625
1504,803.8461303710938,800.2197875976562,803.8461303710938,807.87548828125
1505,803.8461303710938,800.6226806640625,803.040283203125,809.084228515625
1506,806.6666870117188,799.4139404296875,801.8314819335938,809.89013671875
1507,801.025634765625,798.6080322265625,799.8168334960938,803.8461303710938
1508,801.025634765625,796.996337890625,797.3992919921875,803.040283203125
1509,805.8607788085938,795.7875366210938,801.025634765625,811.90478515625
1510,807.87548828125,795.7875366210938,804.2490844726562,806.6666870117188
1511,808.6813354492188,796.5933837890625,801.8314819335938,805.4578857421875
1512,808.6813354492188,791.3552856445312,801.025634765625,806.6666870117188
1513,808.2783813476562,790.952392578125,799.8168334960938,802.6373901367188
1514,810.2930297851562,796.1904907226562,803.4432373046875,803.4432373046875
1515,803.8461303710938,794.5787353515625,803.8461303710938,795.3846435546875
1516,801.025634765625,796.5933837890625,801.4285888671875,792.967041015625
1517,807.4725341796875,799.010986328125,801.8314819335938,802.2344360351562
1518,811.5018310546875,799.8168334960938,807.4725341796875,804.2490844726562
1519,812.3076782226562,800.6226806640625,807.4725341796875,805.4578857421875
1520,810.6959838867188,800.2197875976562,802.6373901367188,807.87548828125
1521,814.3223266601562,802.2344360351562,802.6373901367188,808.6813354492188
1522,812.3076782226562,798.2051391601562,805.4578857421875,799.4139404296875
1523,814.3223266601562,794.5787353515625,809.89013671875,796.996337890625
1524,810.2930297851562,794.981689453125,808.6813354492188,803.8461303710938
1525,805.054931640625,795.3846435546875,808.2783813476562,804.6520385742188
1526,801.025634765625,796.996337890625,809.89013671875,803.8461303710938
1527,794.1758422851562,795.3846435546875,807.4725341796875,804.6520385742188
1528,799.4139404296875,790.952392578125,807.069580078125,809.89013671875
1529,801.4285888671875,793.7728881835938,809.89013671875,813.91943359375
1530,803.4432373046875,796.1904907226562,809.89013671875,803.040283203125
1531,807.87548828125,795.3846435546875,808.6813354492188,797.8021850585938
1532,808.2783813476562,799.8168334960938,811.098876953125,803.8461303710938
1533,804.6520385742188,797.3992919921875,806.2637329101562,800.2197875976562
1534,805.8607788085938,792.967041015625,803.040283203125,795.3846435546875
1535,802.2344360351562,788.5347900390625,800.2197875976562,796.1904907226562
1536,800.6226806640625,789.7435913085938,801.8314819335938,805.8607788085938
1537,801.4285888671875,789.7435913085938,805.8607788085938,809.4871826171875
1538,799.8168334960938,787.3259887695312,802.2344360351562,804.6520385742188
1539,803.8461303710938,794.5787353515625,804.2490844726562,810.2930297851562
1540,802.6373901367188,794.5787353515625,805.4578857421875,813.91943359375
1541,799.8168334960938,794.1758422851562,803.040283203125,804.2490844726562
1542,799.4139404296875,793.3699340820312,801.4285888671875,808.6813354492188
1543,801.025634765625,791.7582397460938,800.2197875976562,813.91943359375
1544,802.6373901367188,794.981689453125,802.2344360351562,807.87548828125
1545,799.4139404296875,793.7728881835938,806.2637329101562,804.6520385742188
1546,795.7875366210938,795.3846435546875,804.6520385742188,806.6666870117188
1547,796.1904907226562,796.5933837890625,800.6226806640625,805.8607788085938
1548,797.8021850585938,792.1611938476562,800.2197875976562,803.4432373046875
1549,801.025634765625,792.5640869140625,802.6373901367188,805.8607788085938
1550,803.4432373046875,796.5933837890625,803.4432373046875,806.6666870117188
1551,802.2344360351562,794.981689453125,800.2197875976562,807.87548828125
1552,803.4432373046875,794.5787353515625,801.4285888671875,809.084228515625
1553,805.8607788085938,801.025634765625,801.4285888671875,798.6080322265625
1554,809.89013671875,801.4285888671875,799.8168334960938,793.7728881835938
1555,811.5018310546875,800.2197875976562,801.4285888671875,799.010986328125
1556,805.4578857421875,800.2197875976562,805.8607788085938,800.2197875976562
1557,801.4285888671875,798.2051391601562,807.4725341796875,797.3992919921875
1558,796.996337890625,794.981689453125,808.6813354492188,796.5933837890625
1559,794.1758422851562,793.7728881835938,805.8607788085938,796.996337890625
1560,794.5787353515625,796.5933837890625,803.4432373046875,798.6080322265625
1561,793.3699340820312,796.996337890625,804.6520385742188,800.6226806640625
1562,794.5787353515625,795.7875366210938,805.054931640625,803.8461303710938
1563,794.981689453125,795.3846435546875,799.8168334960938,804.2490844726562
1564,799.4139404296875,794.981689453125,804.6520385742188,803.8461303710938
1565,798.6080322265625,795.7875366210938,808.6813354492188,805.4578857421875
1566,788.937744140625,792.967041015625,802.6373901367188,800.6226806640625
1567,790.1465454101562,794.5787353515625,804.6520385742188,801.8314819335938
1568,793.3699340820312,796.1904907226562,807.069580078125,802.6373901367188
1569,790.5494384765625,793.7728881835938,804.6520385742188,799.010986328125
1570,790.5494384765625,790.1465454101562,803.8461303710938,804.6520385742188
1571,790.952392578125,787.7289428710938,803.4432373046875,811.90478515625
1572,794.1758422851562,794.1758422851562,805.054931640625,805.054931640625
1573,798.6080322265625,800.2197875976562,805.054931640625,799.4139404296875
1574,797.8021850585938,794.5787353515625,801.8314819335938,803.4432373046875
1575,800.6226806640625,789.3406372070312,804.2490844726562,805.4578857421875
1576,804.6520385742188,791.7582397460938,811.90478515625,801.4285888671875
