timestamp,RAW_TP9,RAW_AF7,RAW_AF8,RAW_TP10
1,788.1318969726562,784.908447265625,788.1318969726562,784.5054931640625
2,788.5347900390625,791.7582397460938,790.1465454101562,786.923095703125
3,786.5201416015625,790.952392578125,792.1611938476562,790.1465454101562
4,786.5201416015625,786.923095703125,792.5640869140625,785.3113403320312
5,787.3259887695312,789.3406372070312,785.3113403320312,782.087890625
6,785.7142944335938,789.3406372070312,785.3113403320312,780.4761962890625
7,789.3406372070312,789.7435913085938,790.952392578125,792.967041015625
8,791.3552856445312,790.5494384765625,788.937744140625,797.3992919921875
9,787.3259887695312,788.1318969726562,786.923095703125,786.5201416015625
10,786.5201416015625,788.1318969726562,784.908447265625,790.5494384765625
11,792.1611938476562,793.3699340820312,789.3406372070312,791.3552856445312
12,796.996337890625,796.1904907226562,793.3699340820312,789.3406372070312
13,797.8021850585938,799.4139404296875,795.3846435546875,792.5640869140625
14,797.3992919921875,793.3699340820312,797.3992919921875,792.1611938476562
15,799.8168334960938,790.5494384765625,795.7875366210938,792.1611938476562
16,798.6080322265625,801.4285888671875,794.5787353515625,791.3552856445312
17,795.3846435546875,803.8461303710938,788.937744140625,788.5347900390625
18,799.010986328125,798.6080322265625,784.5054931640625,792.5640869140625
19,801.4285888671875,794.1758422851562,788.937744140625,800.2197875976562
20,802.6373901367188,796.996337890625,796.1904907226562,794.5787353515625
21,801.8314819335938,796.1904907226562,795.3846435546875,788.937744140625
22,795.3846435546875,789.3406372070312,789.7435913085938,789.7435913085938
23,788.937744140625,789.7435913085938,791.3552856445312,788.5347900390625
24,787.7289428710938,796.5933837890625,796.1904907226562,790.1465454101562
25,794.5787353515625,794.5787353515625,788.937744140625,794.981689453125
26,799.8168334960938,790.952392578125,788.937744140625,803.4432373046875
27,807.87548828125,788.5347900390625,792.5640869140625,810.2930297851562
28,810.6959838867188,791.7582397460938,793.3699340820312,809.084228515625
29,798.2051391601562,795.3846435546875,797.8021850585938,796.996337890625
30,797.8021850585938,797.8021850585938,796.5933837890625,797.8021850585938
31,794.981689453125,792.1611938476562,792.1611938476562,790.5494384765625
32,786.5201416015625,788.1318969726562,795.7875366210938,782.4908447265625
33,784.1025390625,790.5494384765625,799.4139404296875,788.5347900390625
34,780.879150390625,788.5347900390625,791.3552856445312,790.5494384765625
35,787.3259887695312,788.937744140625,794.1758422851562,790.1465454101562
36,787.3259887695312,786.5201416015625,799.010986328125,784.5054931640625
37,788.1318969726562,787.3259887695312,793.7728881835938,779.6703491210938
38,789.7435913085938,789.7435913085938,786.923095703125,782.087890625
39,789.7435913085938,789.3406372070312,786.5201416015625,790.1465454101562
40,790.1465454101562,788.937744140625,794.1758422851562,788.1318969726562
41,796.996337890625,793.7728881835938,800.6226806640625,793.3699340820312
42,796.5933837890625,793.7728881835938,801.8314819335938,803.040283203125
43,788.1318969726562,791.3552856445312,801.8314819335938,793.7728881835938
44,793.7728881835938,794.1758422851562,799.8168334960938,791.7582397460938
45,791.7582397460938,793.3699340820312,793.7728881835938,797.8021850585938
46,792.967041015625,799.8168334960938,797.8021850585938,803.8461303710938
47,796.1904907226562,803.4432373046875,803.040283203125,799.010986328125
48,788.5347900390625,800.6226806640625,812.3076782226562,796.5933837890625
49,786.5201416015625,799.4139404296875,809.4871826171875,804.2490844726562
50,782.4908447265625,800.2197875976562,797.3992919921875,793.3699340820312
51,764.7619018554688,794.1758422851562,791.3552856445312,776.4468994140625
52,764.7619018554688,796.5933837890625,798.2051391601562,780.879150390625
53,762.7472534179688,804.2490844726562,804.2490844726562,778.4615478515625
54,743.8095092773438,800.6226806640625,802.6373901367188,761.1355590820312
55,740.989013671875,814.7252807617188,800.6226806640625,748.6447143554688
56,734.5421142578125,818.7545776367188,799.4139404296875,732.5274658203125
57,719.6337280273438,814.7252807617188,796.1904907226562,714.3956298828125
58,718.4249267578125,825.6043701171875,803.040283203125,712.3809814453125
59,702.7106323242188,821.1721801757812,809.084228515625,699.4871826171875
60,694.2490844726562,821.97802734375,804.6520385742188,689.4139404296875
61,698.2783813476562,826.4102783203125,809.89013671875,694.6520385742188
62,695.054931640625,826.4102783203125,814.7252807617188,694.6520385742188
63,697.87548828125,831.2454223632812,816.7399291992188,690.6226806640625
64,693.4432373046875,826.8131713867188,815.93408203125,687.8021850585938
65,691.025634765625,819.1575317382812,815.1282348632812,699.4871826171875
66,695.054931640625,827.6190185546875,820.3662719726562,699.4871826171875
67,699.89013671875,833.6630249023438,827.6190185546875,697.069580078125
68,706.7399291992188,825.6043701171875,830.03662109375,707.94873046875
69,716.00732421875,825.2014770507812,824.3956298828125,722.8571166992188
70,726.08056640625,822.3809814453125,817.94873046875,732.12451171875
71,744.2124633789062,817.5457763671875,815.1282348632812,742.1978149414062
72,756.7033081054688,819.96337890625,810.2930297851562,754.2857055664062
73,764.3589477539062,810.2930297851562,809.89013671875,759.5238037109375
74,776.8497924804688,799.010986328125,807.4725341796875,768.7911987304688
75,783.6996459960938,800.6226806640625,803.4432373046875,782.087890625
76,786.1171875,801.8314819335938,797.8021850585938,786.923095703125
77,793.7728881835938,799.8168334960938,792.5640869140625,793.7728881835938
78,805.8607788085938,798.6080322265625,795.3846435546875,809.4871826171875
79,807.87548828125,787.3259887695312,793.3699340820312,809.89013671875
80,807.4725341796875,780.879150390625,788.5347900390625,812.7106323242188
81,807.4725341796875,779.6703491210938,787.7289428710938,817.94873046875
82,817.5457763671875,777.6557006835938,784.908447265625,817.94873046875
83,826.8131713867188,776.0439453125,779.6703491210938,825.2014770507812
84,828.4249267578125,768.7911987304688,781.6849975585938,838.4981689453125
85,830.03662109375,776.8497924804688,788.1318969726562,839.3040161132812
86,833.6630249023438,784.1025390625,788.937744140625,829.2307739257812
87,836.08056640625,781.2820434570312,787.3259887695312,828.02197265625
88,834.8717651367188,780.879150390625,782.4908447265625,830.4395751953125
89,834.8717651367188,780.879150390625,782.4908447265625,828.02197265625
90,831.6483764648438,779.6703491210938,784.908447265625,826.8131713867188
91,836.08056640625,774.8351440429688,779.2673950195312,834.4688720703125
92,839.3040161132812,774.4322509765625,776.0439453125,834.06591796875
93,839.7069702148438,777.2527465820312,778.4615478515625,831.6483764648438
94,843.7362670898438,772.4176025390625,779.2673950195312,837.6923217773438
95,840.915771484375,770.4029541015625,779.2673950195312,840.10986328125
96,836.886474609375,774.8351440429688,782.087890625,834.8717651367188
97,836.4835205078125,776.8497924804688,782.4908447265625,833.6630249023438
98,836.886474609375,782.4908447265625,780.4761962890625,838.09521484375
99,838.4981689453125,778.4615478515625,780.0732421875,838.4981689453125
100,836.4835205078125,772.4176025390625,785.3113403320312,837.6923217773438
101,833.2600708007812,778.05859375,782.893798828125,837.2893676757812
102,831.6483764648438,783.6996459960938,781.6849975585938,836.886474609375
103,831.2454223632812,782.4908447265625,783.2966918945312,838.901123046875
104,835.2747192382812,782.4908447265625,785.3113403320312,840.915771484375
105,832.4542236328125,785.7142944335938,785.7142944335938,832.8571166992188
106,828.4249267578125,784.5054931640625,782.087890625,833.6630249023438
107,832.05126953125,779.6703491210938,785.7142944335938,833.6630249023438
108,834.06591796875,775.6410522460938,784.908447265625,824.7985229492188
109,834.8717651367188,781.6849975585938,780.4761962890625,827.2161254882812
110,834.06591796875,784.908447265625,781.2820434570312,828.4249267578125
111,830.8424682617188,782.893798828125,779.6703491210938,823.5897216796875
112,828.02197265625,782.087890625,778.4615478515625,825.2014770507812
113,826.8131713867188,783.6996459960938,782.893798828125,823.1868286132812
114,827.6190185546875,788.1318969726562,781.2820434570312,821.1721801757812
115,828.8278198242188,784.5054931640625,780.879150390625,823.1868286132812
116,821.97802734375,782.893798828125,792.5640869140625,820.3662719726562
117,814.3223266601562,786.5201416015625,792.5640869140625,814.7252807617188
118,813.5164794921875,788.5347900390625,792.1611938476562,811.90478515625
119,809.084228515625,787.7289428710938,794.1758422851562,811.90478515625
120,805.054931640625,781.6849975585938,792.967041015625,810.6959838867188
121,811.5018310546875,787.3259887695312,789.3406372070312,814.3223266601562
122,814.7252807617188,785.7142944335938,793.3699340820312,820.7692260742188
123,815.1282348632812,785.3113403320312,797.3992919921875,823.99267578125
124,816.7399291992188,794.981689453125,798.2051391601562,819.1575317382812
125,812.3076782226562,799.010986328125,798.6080322265625,815.93408203125
126,806.6666870117188,794.981689453125,796.1904907226562,817.94873046875
127,803.8461303710938,790.1465454101562,793.7728881835938,813.113525390625
128,802.2344360351562,793.3699340820312,792.967041015625,808.2783813476562
129,809.4871826171875,793.3699340820312,791.3552856445312,807.4725341796875
130,810.6959838867188,788.1318969726562,790.952392578125,804.6520385742188
131,804.6520385742188,784.1025390625,791.7582397460938,801.8314819335938
132,803.4432373046875,785.3113403320312,791.3552856445312,801.4285888671875
133,799.010986328125,785.3113403320312,791.3552856445312,797.3992919921875
134,802.6373901367188,781.2820434570312,788.937744140625,796.1904907226562
135,805.054931640625,783.6996459960938,790.952392578125,795.7875366210938
136,797.8021850585938,786.5201416015625,789.3406372070312,795.3846435546875
137,794.1758422851562,786.1171875,784.1025390625,800.6226806640625
138,794.5787353515625,789.7435913085938,789.3406372070312,803.8461303710938
139,794.1758422851562,794.5787353515625,795.7875366210938,802.2344360351562
140,799.4139404296875,794.5787353515625,795.7875366210938,802.6373901367188
141,798.2051391601562,792.5640869140625,791.7582397460938,799.010986328125
142,790.952392578125,790.5494384765625,786.923095703125,792.1611938476562
143,791.3552856445312,789.7435913085938,786.923095703125,791.7582397460938
144,792.1611938476562,783.2966918945312,790.5494384765625,801.025634765625
145,790.1465454101562,786.5201416015625,793.3699340820312,802.2344360351562
146,786.923095703125,789.7435913085938,794.1758422851562,790.952392578125
147,787.7289428710938,784.5054931640625,794.5787353515625,787.3259887695312
148,791.7582397460938,787.3259887695312,794.5787353515625,790.952392578125
149,802.2344360351562,789.7435913085938,793.3699340820312,797.3992919921875
150,800.6226806640625,788.5347900390625,794.1758422851562,796.996337890625
151,792.5640869140625,788.937744140625,795.3846435546875,786.1171875
152,799.8168334960938,788.937744140625,800.2197875976562,790.1465454101562
153,799.010986328125,788.1318969726562,799.010986328125,794.1758422851562
154,794.981689453125,786.923095703125,794.1758422851562,789.3406372070312
155,796.5933837890625,786.1171875,794.1758422851562,782.4908447265625
156,795.3846435546875,785.3113403320312,790.1465454101562,780.879150390625
157,797.8021850585938,784.1025390625,788.937744140625,787.3259887695312
158,796.5933837890625,791.7582397460938,792.5640869140625,783.6996459960938
159,792.5640869140625,793.7728881835938,791.7582397460938,787.7289428710938
160,794.981689453125,786.923095703125,791.3552856445312,800.2197875976562
161,795.7875366210938,789.3406372070312,788.5347900390625,805.4578857421875
162,794.981689453125,794.1758422851562,794.1758422851562,796.5933837890625
163,793.7728881835938,798.6080322265625,799.4139404296875,790.952392578125
164,787.7289428710938,792.1611938476562,797.3992919921875,794.981689453125
165,782.087890625,788.1318969726562,791.3552856445312,789.3406372070312
166,783.2966918945312,792.1611938476562,791.3552856445312,787.7289428710938
167,783.6996459960938,791.3552856445312,793.7728881835938,790.5494384765625
168,788.5347900390625,788.1318969726562,795.3846435546875,795.7875366210938
169,792.967041015625,791.7582397460938,796.5933837890625,795.7875366210938
170,795.3846435546875,786.923095703125,794.5787353515625,797.8021850585938
171,799.8168334960938,786.5201416015625,794.5787353515625,803.040283203125
172,796.5933837890625,790.952392578125,791.7582397460938,799.8168334960938
173,793.3699340820312,787.7289428710938,789.7435913085938,795.3846435546875
174,794.981689453125,789.7435913085938,793.7728881835938,788.5347900390625
175,803.8461303710938,789.3406372070312,791.7582397460938,793.7728881835938
176,805.054931640625,791.3552856445312,791.3552856445312,795.7875366210938
177,797.3992919921875,792.967041015625,791.3552856445312,789.7435913085938
178,797.8021850585938,785.3113403320312,789.7435913085938,790.1465454101562
179,797.8021850585938,782.4908447265625,788.5347900390625,786.5201416015625
180,802.2344360351562,787.3259887695312,790.952392578125,784.5054931640625
181,805.4578857421875,786.923095703125,796.996337890625,788.5347900390625
182,799.8168334960938,787.3259887695312,795.7875366210938,789.7435913085938
183,796.5933837890625,789.3406372070312,794.5787353515625,792.1611938476562
184,795.7875366210938,788.1318969726562,794.5787353515625,797.3992919921875
185,794.5787353515625,793.3699340820312,798.6080322265625,797.8021850585938
186,790.1465454101562,795.7875366210938,799.8168334960938,795.3846435546875
187,790.5494384765625,786.1171875,794.981689453125,790.5494384765625
188,789.7435913085938,784.1025390625,792.5640869140625,787.7289428710938
189,782.4908447265625,786.5201416015625,794.5787353515625,783.2966918945312
190,778.4615478515625,783.2966918945312,792.5640869140625,781.2820434570312
191,784.5054931640625,782.4908447265625,792.5640869140625,790.5494384765625
192,787.7289428710938,784.1025390625,794.981689453125,794.981689453125
193,786.1171875,786.5201416015625,795.3846435546875,795.3846435546875
194,790.1465454101562,785.7142944335938,797.8021850585938,794.981689453125
195,790.1465454101562,784.908447265625,794.5787353515625,794.5787353515625
196,790.1465454101562,786.923095703125,790.5494384765625,796.5933837890625
197,784.1025390625,787.7289428710938,790.952392578125,794.1758422851562
198,781.6849975585938,788.1318969726562,793.7728881835938,788.937744140625
199,787.3259887695312,786.5201416015625,794.1758422851562,788.937744140625
200,789.3406372070312,786.5201416015625,791.3552856445312,779.6703491210938
201,795.3846435546875,787.7289428710938,793.3699340820312,776.8497924804688
202,803.4432373046875,790.5494384765625,796.5933837890625,787.3259887695312
203,798.6080322265625,791.7582397460938,792.967041015625,790.1465454101562
204,793.7728881835938,793.7728881835938,793.3699340820312,791.7582397460938
205,796.996337890625,796.1904907226562,794.5787353515625,796.5933837890625
206,793.7728881835938,793.3699340820312,790.952392578125,794.5787353515625
207,792.1611938476562,793.3699340820312,789.7435913085938,788.1318969726562
208,792.1611938476562,790.952392578125,790.1465454101562,780.879150390625
209,795.7875366210938,788.937744140625,793.3699340820312,778.05859375
210,800.2197875976562,795.7875366210938,792.967041015625,789.7435913085938
211,799.4139404296875,794.5787353515625,791.7582397460938,801.8314819335938
212,796.5933837890625,794.1758422851562,797.8021850585938,805.4578857421875
213,795.7875366210938,795.3846435546875,796.996337890625,796.5933837890625
214,784.908447265625,795.3846435546875,795.7875366210938,779.6703491210938
215,783.6996459960938,796.1904907226562,800.2197875976562,784.1025390625
216,796.996337890625,793.3699340820312,799.010986328125,796.996337890625
217,803.8461303710938,791.3552856445312,797.3992919921875,797.8021850585938
218,802.6373901367188,796.5933837890625,801.025634765625,797.8021850585938
219,801.4285888671875,795.7875366210938,801.4285888671875,799.4139404296875
220,806.2637329101562,793.3699340820312,798.2051391601562,803.4432373046875
221,806.6666870117188,787.7289428710938,797.3992919921875,805.054931640625
222,802.6373901367188,788.1318969726562,798.6080322265625,809.084228515625
223,799.4139404296875,798.2051391601562,799.4139404296875,811.098876953125
224,792.967041015625,802.6373901367188,802.6373901367188,798.6080322265625
225,796.5933837890625,800.2197875976562,804.2490844726562,794.1758422851562
226,801.8314819335938,801.025634765625,799.8168334960938,790.952392578125
227,798.6080322265625,796.996337890625,801.025634765625,791.3552856445312
228,799.010986328125,792.1611938476562,801.8314819335938,792.1611938476562
229,801.025634765625,795.3846435546875,801.8314819335938,793.7728881835938
230,802.2344360351562,794.981689453125,802.6373901367188,798.6080322265625
231,803.4432373046875,796.5933837890625,800.6226806640625,796.996337890625
232,804.6520385742188,799.4139404296875,799.8168334960938,795.7875366210938
233,803.8461303710938,795.7875366210938,798.2051391601562,797.8021850585938
234,803.040283203125,792.967041015625,797.8021850585938,797.8021850585938
235,799.010986328125,794.981689453125,796.1904907226562,792.967041015625
236,798.6080322265625,796.996337890625,797.3992919921875,795.3846435546875
237,802.6373901367188,790.1465454101562,798.2051391601562,801.025634765625
238,805.054931640625,786.923095703125,795.7875366210938,806.6666870117188
239,798.6080322265625,789.3406372070312,795.3846435546875,800.6226806640625
240,798.2051391601562,795.7875366210938,796.996337890625,791.3552856445312
241,803.040283203125,796.1904907226562,796.996337890625,801.025634765625
242,796.1904907226562,792.5640869140625,797.3992919921875,803.4432373046875
243,790.952392578125,795.7875366210938,799.4139404296875,794.1758422851562
244,789.3406372070312,793.7728881835938,797.3992919921875,791.7582397460938
245,790.5494384765625,788.5347900390625,801.025634765625,796.996337890625
246,793.7728881835938,789.7435913085938,798.6080322265625,796.996337890625
247,787.3259887695312,790.1465454101562,792.5640869140625,783.6996459960938
248,785.3113403320312,790.952392578125,796.1904907226562,788.1318969726562
249,784.908447265625,791.3552856445312,799.010986328125,795.3846435546875
250,781.2820434570312,793.7728881835938,796.5933837890625,791.7582397460938
251,779.6703491210938,794.5787353515625,795.3846435546875,794.5787353515625
252,782.4908447265625,785.7142944335938,799.8168334960938,797.8021850585938
253,783.6996459960938,786.923095703125,793.7728881835938,790.952392578125
254,784.1025390625,795.3846435546875,784.1025390625,786.923095703125
255,786.5201416015625,793.7728881835938,789.3406372070312,789.7435913085938
256,790.5494384765625,790.5494384765625,791.7582397460938,787.3259887695312
257,792.5640869140625,789.3406372070312,792.5640869140625,785.7142944335938
258,794.5787353515625,784.5054931640625,795.7875366210938,787.3259887695312
259,793.3699340820312,788.1318969726562,795.3846435546875,790.5494384765625
260,787.7289428710938,792.967041015625,792.5640869140625,793.7728881835938
261,790.952392578125,790.5494384765625,792.1611938476562,794.981689453125
262,791.3552856445312,790.1465454101562,792.5640869140625,794.1758422851562
263,786.923095703125,790.5494384765625,793.3699340820312,794.981689453125
264,791.3552856445312,784.5054931640625,794.5787353515625,799.8168334960938
265,788.1318969726562,778.05859375,792.1611938476562,799.8168334960938
266,786.1171875,786.1171875,789.7435913085938,793.3699340820312
267,790.1465454101562,793.7728881835938,793.3699340820312,790.1465454101562
268,791.7582397460938,792.1611938476562,794.981689453125,792.5640869140625
269,787.7289428710938,790.5494384765625,790.1465454101562,799.010986328125
270,784.1025390625,794.5787353515625,790.1465454101562,793.3699340820312
271,789.7435913085938,797.8021850585938,792.1611938476562,790.5494384765625
272,790.952392578125,796.5933837890625,789.3406372070312,796.1904907226562
273,792.1611938476562,798.6080322265625,787.7289428710938,789.7435913085938
274,792.967041015625,795.7875366210938,791.3552856445312,782.893798828125
275,790.1465454101562,790.952392578125,795.7875366210938,785.3113403320312
276,792.1611938476562,793.3699340820312,797.3992919921875,791.3552856445312
277,792.5640869140625,793.3699340820312,797.8021850585938,792.5640869140625
278,786.923095703125,788.5347900390625,799.8168334960938,790.952392578125
279,789.3406372070312,782.893798828125,798.2051391601562,793.7728881835938
280,792.1611938476562,787.7289428710938,791.7582397460938,792.967041015625
281,786.923095703125,800.2197875976562,796.996337890625,790.1465454101562
282,786.5201416015625,796.996337890625,800.2197875976562,792.5640869140625
283,793.7728881835938,787.3259887695312,796.996337890625,800.6226806640625
284,791.7582397460938,790.1465454101562,796.1904907226562,799.8168334960938
285,790.952392578125,795.3846435546875,793.7728881835938,796.996337890625
286,795.3846435546875,797.8021850585938,796.5933837890625,799.010986328125
287,790.5494384765625,795.3846435546875,794.981689453125,798.2051391601562
288,786.1171875,791.3552856445312,792.1611938476562,794.1758422851562
289,788.937744140625,789.3406372070312,796.996337890625,792.1611938476562
290,793.7728881835938,790.5494384765625,795.7875366210938,795.7875366210938
291,796.996337890625,790.952392578125,795.3846435546875,803.4432373046875
292,797.8021850585938,789.7435913085938,800.6226806640625,802.6373901367188
293,798.6080322265625,797.8021850585938,799.8168334960938,799.010986328125
294,797.8021850585938,795.3846435546875,796.5933837890625,799.4139404296875
295,794.981689453125,788.1318969726562,791.3552856445312,800.2197875976562
296,792.5640869140625,793.7728881835938,791.3552856445312,798.2051391601562
297,796.5933837890625,797.3992919921875,792.5640869140625,796.1904907226562
298,801.025634765625,790.1465454101562,791.3552856445312,792.967041015625
299,800.6226806640625,790.5494384765625,791.3552856445312,791.3552856445312
300,802.6373901367188,791.3552856445312,794.5787353515625,798.6080322265625
301,799.8168334960938,794.981689453125,796.5933837890625,801.025634765625
302,797.8021850585938,794.981689453125,796.5933837890625,803.8461303710938
303,801.025634765625,788.1318969726562,794.5787353515625,808.6813354492188
304,801.025634765625,790.5494384765625,792.5640869140625,801.025634765625
305,793.7728881835938,792.967041015625,792.5640869140625,796.5933837890625
306,789.3406372070312,794.1758422851562,790.5494384765625,796.5933837890625
307,786.923095703125,787.3259887695312,791.3552856445312,796.5933837890625
308,782.087890625,785.7142944335938,794.5787353515625,790.1465454101562
309,789.3406372070312,790.1465454101562,795.3846435546875,788.937744140625
310,797.3992919921875,791.7582397460938,795.7875366210938,796.5933837890625
311,791.3552856445312,792.1611938476562,794.5787353515625,796.1904907226562
312,793.3699340820312,797.3992919921875,795.7875366210938,797.8021850585938
313,800.6226806640625,796.996337890625,801.025634765625,803.4432373046875
314,796.5933837890625,790.1465454101562,798.2051391601562,796.5933837890625
315,797.3992919921875,790.5494384765625,799.4139404296875,792.5640869140625
316,793.7728881835938,793.3699340820312,798.2051391601562,789.3406372070312
317,788.5347900390625,796.1904907226562,793.7728881835938,783.2966918945312
318,798.2051391601562,799.010986328125,792.1611938476562,796.5933837890625
319,803.040283203125,795.7875366210938,791.7582397460938,807.4725341796875
320,794.5787353515625,794.5787353515625,793.7728881835938,795.7875366210938
321,788.937744140625,792.967041015625,793.7728881835938,792.967041015625
322,786.1171875,790.952392578125,793.7728881835938,795.3846435546875
323,790.952392578125,796.5933837890625,791.7582397460938,797.8021850585938
324,796.1904907226562,796.1904907226562,794.981689453125,794.5787353515625
325,799.010986328125,792.1611938476562,791.3552856445312,794.5787353515625
326,806.6666870117188,791.3552856445312,788.937744140625,798.6080322265625
327,801.4285888671875,794.981689453125,796.1904907226562,796.1904907226562
328,793.7728881835938,800.2197875976562,796.996337890625,801.025634765625
329,798.2051391601562,796.996337890625,790.1465454101562,805.8607788085938
330,801.025634765625,789.3406372070312,790.5494384765625,811.098876953125
331,795.3846435546875,791.7582397460938,795.7875366210938,803.040283203125
332,794.1758422851562,796.996337890625,796.5933837890625,797.3992919921875
333,788.1318969726562,795.7875366210938,791.3552856445312,796.1904907226562
334,787.7289428710938,790.952392578125,791.3552856445312,792.967041015625
335,795.7875366210938,788.937744140625,793.3699340820312,794.981689453125
336,796.5933837890625,788.937744140625,798.2051391601562,799.4139404296875
337,794.1758422851562,791.7582397460938,801.025634765625,800.6226806640625
338,790.952392578125,790.5494384765625,799.4139404296875,794.981689453125
339,797.8021850585938,789.3406372070312,796.5933837890625,794.5787353515625
340,803.040283203125,797.3992919921875,792.967041015625,794.5787353515625
341,796.996337890625,797.8021850585938,790.5494384765625,799.010986328125
342,792.1611938476562,795.7875366210938,792.1611938476562,800.6226806640625
343,789.3406372070312,795.3846435546875,796.996337890625,792.967041015625
344,788.1318969726562,796.996337890625,795.3846435546875,798.6080322265625
345,793.3699340820312,796.5933837890625,792.1611938476562,798.2051391601562
346,797.3992919921875,791.7582397460938,791.3552856445312,790.5494384765625
347,794.981689453125,793.7728881835938,794.5787353515625,796.5933837890625
348,794.1758422851562,793.7728881835938,796.996337890625,801.4285888671875
349,798.6080322265625,794.1758422851562,796.1904907226562,801.025634765625
350,800.6226806640625,791.7582397460938,794.1758422851562,794.5787353515625
351,794.1758422851562,790.1465454101562,792.5640869140625,789.7435913085938
352,795.7875366210938,796.996337890625,792.1611938476562,790.952392578125
353,799.4139404296875,795.7875366210938,790.5494384765625,797.3992919921875
354,800.6226806640625,796.996337890625,796.996337890625,799.4139404296875
355,803.4432373046875,799.010986328125,799.010986328125,792.967041015625
356,803.4432373046875,797.8021850585938,791.3552856445312,796.5933837890625
357,801.025634765625,790.5494384765625,797.3992919921875,807.069580078125
358,798.2051391601562,787.7289428710938,796.5933837890625,803.4432373046875
359,796.996337890625,791.3552856445312,791.3552856445312,796.1904907226562
360,800.6226806640625,790.5494384765625,791.3552856445312,797.3992919921875
361,801.025634765625,784.908447265625,789.3406372070312,800.6226806640625
362,801.4285888671875,788.5347900390625,789.7435913085938,796.1904907226562
363,796.5933837890625,796.1904907226562,786.1171875,787.3259887695312
364,789.7435913085938,788.1318969726562,788.5347900390625,794.981689453125
365,785.7142944335938,788.5347900390625,794.981689453125,796.5933837890625
366,779.6703491210938,796.5933837890625,791.7582397460938,790.5494384765625
367,780.4761962890625,790.952392578125,788.1318969726562,792.1611938476562
368,785.7142944335938,791.3552856445312,790.1465454101562,790.5494384765625
369,784.908447265625,798.2051391601562,792.967041015625,788.5347900390625
370,783.2966918945312,798.2051391601562,799.4139404296875,783.2966918945312
371,794.1758422851562,792.5640869140625,799.010986328125,788.1318969726562
372,798.2051391601562,788.1318969726562,792.967041015625,793.7728881835938
373,792.5640869140625,790.1465454101562,796.996337890625,789.3406372070312
374,794.5787353515625,792.1611938476562,804.2490844726562,789.3406372070312
375,796.1904907226562,788.5347900390625,801.4285888671875,789.7435913085938
376,799.010986328125,790.952392578125,799.8168334960938,795.7875366210938
377,796.1904907226562,798.6080322265625,801.025634765625,792.5640869140625
378,788.1318969726562,797.3992919921875,800.6226806640625,785.3113403320312
379,785.3113403320312,792.967041015625,801.8314819335938,786.923095703125
380,787.3259887695312,789.7435913085938,799.4139404296875,789.3406372070312
381,786.5201416015625,788.5347900390625,792.1611938476562,789.7435913085938
382,783.6996459960938,787.7289428710938,788.5347900390625,788.937744140625
383,785.7142944335938,789.3406372070312,791.3552856445312,781.2820434570312
384,791.7582397460938,789.7435913085938,789.7435913085938,786.923095703125
385,790.952392578125,786.1171875,789.3406372070312,799.010986328125
386,787.7289428710938,787.3259887695312,792.967041015625,799.8168334960938
387,787.7289428710938,786.1171875,788.937744140625,804.6520385742188
388,790.5494384765625,786.5201416015625,786.5201416015625,800.2197875976562
389,786.923095703125,794.981689453125,792.5640869140625,785.7142944335938
390,788.1318969726562,799.8168334960938,794.981689453125,788.1318969726562
391,794.1758422851562,796.5933837890625,798.2051391601562,800.2197875976562
392,791.7582397460938,797.8021850585938,799.4139404296875,800.2197875976562
393,794.5787353515625,799.010986328125,800.6226806640625,792.5640869140625
394,796.1904907226562,792.5640869140625,797.8021850585938,784.908447265625
395,792.967041015625,785.7142944335938,793.7728881835938,786.1171875
396,792.1611938476562,788.1318969726562,799.8168334960938,793.3699340820312
397,792.967041015625,790.1465454101562,799.4139404296875,791.7582397460938
398,798.2051391601562,788.5347900390625,797.3992919921875,794.981689453125
399,796.996337890625,790.952392578125,798.2051391601562,803.040283203125
400,795.3846435546875,793.3699340820312,792.967041015625,805.8607788085938
401,799.8168334960938,788.937744140625,793.7728881835938,807.4725341796875
402,798.2051391601562,788.5347900390625,795.7875366210938,803.4432373046875
403,793.7728881835938,791.3552856445312,796.1904907226562,805.4578857421875
404,799.010986328125,792.967041015625,796.5933837890625,806.6666870117188
405,802.2344360351562,794.981689453125,794.981689453125,802.6373901367188
406,796.1904907226562,790.952392578125,797.3992919921875,803.8461303710938
407,799.8168334960938,789.7435913085938,799.8168334960938,807.4725341796875
408,800.2197875976562,795.7875366210938,797.8021850585938,797.3992919921875
409,792.967041015625,793.3699340820312,798.2051391601562,790.5494384765625
410,794.5787353515625,785.3113403320312,801.4285888671875,796.996337890625
411,797.3992919921875,782.4908447265625,798.6080322265625,796.1904907226562
412,799.010986328125,790.5494384765625,795.7875366210938,792.5640869140625
413,795.3846435546875,789.7435913085938,798.2051391601562,788.5347900390625
414,791.7582397460938,789.3406372070312,799.010986328125,794.981689453125
415,792.5640869140625,794.1758422851562,799.8168334960938,797.8021850585938
416,791.7582397460938,793.7728881835938,800.2197875976562,782.087890625
417,800.6226806640625,799.010986328125,795.3846435546875,781.6849975585938
418,801.8314819335938,798.2051391601562,791.3552856445312,789.3406372070312
419,799.010986328125,795.3846435546875,792.1611938476562,796.1904907226562
420,803.4432373046875,797.3992919921875,796.5933837890625,794.1758422851562
421,796.5933837890625,792.967041015625,791.7582397460938,794.1758422851562
422,793.3699340820312,787.3259887695312,792.5640869140625,799.8168334960938
423,791.3552856445312,789.3406372070312,795.7875366210938,793.7728881835938
424,788.1318969726562,788.1318969726562,796.5933837890625,790.1465454101562
425,786.5201416015625,784.5054931640625,792.967041015625,798.6080322265625
426,786.1171875,787.3259887695312,791.3552856445312,794.981689453125
427,789.7435913085938,793.7728881835938,794.981689453125,795.3846435546875
428,793.3699340820312,796.5933837890625,794.5787353515625,804.2490844726562
429,791.7582397460938,793.3699340820312,791.7582397460938,801.8314819335938
430,788.1318969726562,793.3699340820312,794.981689453125,804.2490844726562
431,792.5640869140625,794.1758422851562,795.3846435546875,806.2637329101562
432,797.8021850585938,790.1465454101562,795.3846435546875,799.010986328125
433,797.3992919921875,790.952392578125,793.7728881835938,792.5640869140625
434,799.8168334960938,796.996337890625,787.7289428710938,793.3699340820312
435,797.8021850585938,794.1758422851562,792.1611938476562,785.7142944335938
436,790.1465454101562,793.3699340820312,794.5787353515625,778.4615478515625
437,791.3552856445312,796.5933837890625,791.3552856445312,787.7289428710938
438,798.2051391601562,794.981689453125,790.1465454101562,799.4139404296875
439,793.3699340820312,792.5640869140625,792.1611938476562,792.5640869140625
440,796.5933837890625,799.010986328125,792.967041015625,786.923095703125
441,799.010986328125,803.040283203125,791.7582397460938,792.1611938476562
442,795.3846435546875,799.4139404296875,792.1611938476562,799.010986328125
443,794.981689453125,795.3846435546875,790.1465454101562,790.5494384765625
444,797.3992919921875,795.3846435546875,792.5640869140625,785.7142944335938
445,791.7582397460938,799.8168334960938,795.7875366210938,785.7142944335938
446,793.7728881835938,799.8168334960938,798.6080322265625,788.5347900390625
447,804.6520385742188,800.6226806640625,799.4139404296875,797.3992919921875
448,798.2051391601562,796.996337890625,794.1758422851562,797.8021850585938
449,794.981689453125,796.996337890625,796.5933837890625,803.040283203125
450,796.5933837890625,798.6080322265625,796.1904907226562,799.8168334960938
451,794.5787353515625,787.3259887695312,791.3552856445312,790.1465454101562
452,797.3992919921875,783.6996459960938,791.3552856445312,792.5640869140625
453,798.2051391601562,789.7435913085938,791.3552856445312,795.7875366210938
454,796.5933837890625,793.7728881835938,796.5933837890625,799.010986328125
455,789.3406372070312,794.5787353515625,794.1758422851562,795.3846435546875
456,782.087890625,791.3552856445312,784.1025390625,790.952392578125
457,779.2673950195312,787.3259887695312,784.908447265625,786.923095703125
458,783.6996459960938,788.1318969726562,788.5347900390625,784.5054931640625
459,784.908447265625,792.5640869140625,788.5347900390625,785.7142944335938
460,784.5054931640625,792.967041015625,790.5494384765625,790.952392578125
461,787.3259887695312,794.5787353515625,792.1611938476562,795.3846435546875
462,789.3406372070312,799.8168334960938,794.981689453125,793.3699340820312
463,796.5933837890625,794.5787353515625,799.4139404296875,794.1758422851562
464,794.5787353515625,788.1318969726562,794.1758422851562,795.7875366210938
465,789.3406372070312,792.5640869140625,794.981689453125,803.4432373046875
466,790.5494384765625,792.967041015625,796.5933837890625,803.4432373046875
467,789.3406372070312,788.1318969726562,792.967041015625,797.8021850585938
468,786.1171875,788.937744140625,797.3992919921875,801.4285888671875
469,781.6849975585938,790.5494384765625,798.6080322265625,803.4432373046875
470,785.3113403320312,790.5494384765625,797.8021850585938,797.8021850585938
471,790.952392578125,794.5787353515625,797.8021850585938,796.5933837890625
472,788.937744140625,796.1904907226562,799.010986328125,798.2051391601562
473,788.937744140625,794.1758422851562,799.4139404296875,796.1904907226562
474,791.3552856445312,793.7728881835938,797.3992919921875,794.5787353515625
475,793.3699340820312,792.1611938476562,797.3992919921875,800.2197875976562
476,792.967041015625,789.7435913085938,792.1611938476562,807.069580078125
477,790.952392578125,792.1611938476562,790.5494384765625,801.025634765625
478,798.6080322265625,791.7582397460938,796.5933837890625,799.010986328125
479,806.2637329101562,792.967041015625,795.7875366210938,800.6226806640625
480,795.7875366210938,793.3699340820312,794.981689453125,799.4139404296875
481,788.937744140625,793.3699340820312,792.967041015625,798.6080322265625
482,791.3552856445312,793.3699340820312,786.5201416015625,796.5933837890625
483,788.937744140625,788.5347900390625,786.923095703125,792.1611938476562
484,786.1171875,789.7435913085938,792.5640869140625,790.5494384765625
485,788.1318969726562,796.5933837890625,795.7875366210938,794.981689453125
486,791.3552856445312,796.5933837890625,794.981689453125,793.7728881835938
487,792.5640869140625,787.3259887695312,788.5347900390625,793.7728881835938
488,790.952392578125,782.893798828125,787.7289428710938,790.1465454101562
489,792.1611938476562,788.1318969726562,791.7582397460938,778.8644409179688
490,797.8021850585938,792.967041015625,795.3846435546875,786.5201416015625
491,796.1904907226562,794.5787353515625,797.3992919921875,786.923095703125
492,790.952392578125,795.3846435546875,792.1611938476562,783.6996459960938
493,785.7142944335938,794.5787353515625,793.7728881835938,789.7435913085938
494,786.923095703125,788.937744140625,792.5640869140625,787.7289428710938
495,791.7582397460938,788.1318969726562,789.3406372070312,796.5933837890625
496,790.1465454101562,790.1465454101562,794.5787353515625,799.8168334960938
497,790.1465454101562,790.952392578125,792.967041015625,792.5640869140625
498,795.7875366210938,790.5494384765625,788.5347900390625,792.5640869140625
499,803.4432373046875,790.5494384765625,790.952392578125,797.3992919921875
500,802.6373901367188,794.1758422851562,793.7728881835938,795.3846435546875
501,796.1904907226562,793.7728881835938,793.7728881835938,789.3406372070312
502,798.6080322265625,782.893798828125,794.981689453125,791.3552856445312
503,799.4139404296875,782.087890625,799.8168334960938,798.2051391601562
504,792.5640869140625,793.3699340820312,801.8314819335938,792.5640869140625
505,789.7435913085938,792.967041015625,797.3992919921875,790.1465454101562
506,795.3846435546875,784.908447265625,795.3846435546875,800.6226806640625
507,788.5347900390625,780.879150390625,799.8168334960938,803.040283203125
508,778.8644409179688,783.2966918945312,801.8314819335938,792.1611938476562
509,782.4908447265625,780.879150390625,798.6080322265625,788.1318969726562
510,781.2820434570312,777.2527465820312,799.010986328125,799.010986328125
511,779.6703491210938,771.6116943359375,805.054931640625,793.7728881835938
512,788.937744140625,777.2527465820312,800.6226806640625,781.6849975585938
513,790.952392578125,788.1318969726562,796.5933837890625,787.7289428710938
514,786.5201416015625,786.1171875,799.4139404296875,788.937744140625
515,789.3406372070312,788.937744140625,795.7875366210938,788.1318969726562
516,793.3699340820312,793.7728881835938,796.5933837890625,788.937744140625
517,799.4139404296875,791.3552856445312,792.967041015625,797.3992919921875
518,804.2490844726562,797.8021850585938,788.5347900390625,801.025634765625
519,808.6813354492188,801.8314819335938,790.1465454101562,794.981689453125
520,811.098876953125,797.8021850585938,786.5201416015625,794.5787353515625
521,808.6813354492188,794.1758422851562,784.1025390625,792.967041015625
522,809.4871826171875,792.967041015625,786.5201416015625,799.8168334960938
523,802.2344360351562,794.5787353515625,788.5347900390625,797.8021850585938
524,799.8168334960938,793.3699340820312,791.7582397460938,787.3259887695312
525,803.4432373046875,794.5787353515625,793.7728881835938,788.5347900390625
526,804.2490844726562,792.5640869140625,786.923095703125,789.7435913085938
527,800.6226806640625,790.5494384765625,785.7142944335938,787.3259887695312
528,792.5640869140625,788.1318969726562,788.937744140625,791.3552856445312
529,792.967041015625,786.1171875,790.1465454101562,797.3992919921875
530,791.3552856445312,786.5201416015625,791.7582397460938,796.996337890625
531,783.6996459960938,782.893798828125,789.7435913085938,791.3552856445312
532,785.7142944335938,782.893798828125,792.967041015625,792.1611938476562
533,785.7142944335938,781.2820434570312,796.5933837890625,794.1758422851562
534,784.908447265625,782.893798828125,797.8021850585938,793.3699340820312
535,791.7582397460938,787.3259887695312,799.4139404296875,792.1611938476562
536,793.3699340820312,791.3552856445312,797.3992919921875,791.7582397460938
537,789.7435913085938,790.5494384765625,796.5933837890625,792.5640869140625
538,792.5640869140625,788.5347900390625,796.996337890625,796.1904907226562
539,790.5494384765625,789.3406372070312,794.981689453125,796.996337890625
540,788.5347900390625,787.7289428710938,792.1611938476562,793.7728881835938
541,788.1318969726562,786.1171875,789.3406372070312,790.952392578125
542,793.3699340820312,786.1171875,784.908447265625,792.967041015625
543,794.981689453125,791.3552856445312,787.3259887695312,788.937744140625
544,795.7875366210938,790.952392578125,788.5347900390625,788.937744140625
545,803.8461303710938,796.5933837890625,787.3259887695312,797.3992919921875
546,798.6080322265625,802.6373901367188,790.1465454101562,789.3406372070312
547,799.4139404296875,801.8314819335938,793.3699340820312,786.1171875
548,813.91943359375,802.6373901367188,796.1904907226562,788.937744140625
549,811.90478515625,796.996337890625,798.2051391601562,782.087890625
550,807.069580078125,794.5787353515625,800.2197875976562,779.6703491210938
551,808.6813354492188,794.1758422851562,796.996337890625,786.5201416015625
552,804.6520385742188,792.967041015625,797.3992919921875,793.7728881835938
553,795.7875366210938,795.3846435546875,802.6373901367188,791.3552856445312
554,789.3406372070312,792.967041015625,797.3992919921875,787.3259887695312
555,786.923095703125,784.908447265625,796.1904907226562,790.1465454101562
556,784.908447265625,781.6849975585938,798.6080322265625,801.025634765625
557,779.6703491210938,788.5347900390625,798.6080322265625,799.8168334960938
558,776.0439453125,789.3406372070312,800.6226806640625,788.1318969726562
559,780.0732421875,787.3259887695312,801.025634765625,792.1611938476562
560,783.6996459960938,787.3259887695312,796.996337890625,797.8021850585938
561,779.6703491210938,786.1171875,791.7582397460938,794.1758422851562
562,776.0439453125,784.1025390625,792.1611938476562,790.1465454101562
563,788.1318969726562,790.1465454101562,797.8021850585938,793.7728881835938
564,792.967041015625,788.5347900390625,795.7875366210938,795.7875366210938
565,794.981689453125,782.4908447265625,794.981689453125,797.3992919921875
566,795.7875366210938,786.1171875,796.5933837890625,798.6080322265625
567,794.981689453125,787.3259887695312,794.5787353515625,799.010986328125
568,794.5787353515625,786.923095703125,792.1611938476562,799.010986328125
569,794.1758422851562,791.3552856445312,789.3406372070312,791.3552856445312
570,793.7728881835938,797.3992919921875,786.5201416015625,786.923095703125
571,794.5787353515625,796.1904907226562,790.1465454101562,788.5347900390625
572,796.1904907226562,802.2344360351562,793.3699340820312,793.3699340820312
573,790.952392578125,810.6959838867188,794.5787353515625,791.3552856445312
574,787.3259887695312,807.4725341796875,792.1611938476562,788.5347900390625
575,791.7582397460938,803.4432373046875,786.923095703125,787.7289428710938
576,796.5933837890625,800.6226806640625,789.7435913085938,787.3259887695312
577,797.3992919921875,797.3992919921875,796.5933837890625,789.7435913085938
578,791.3552856445312,796.996337890625,798.2051391601562,796.1904907226562
579,791.3552856445312,794.1758422851562,799.010986328125,796.996337890625
580,793.7728881835938,796.996337890625,799.010986328125,790.952392578125
581,790.952392578125,796.996337890625,796.996337890625,791.3552856445312
582,791.3552856445312,786.5201416015625,799.010986328125,796.5933837890625
583,788.937744140625,782.4908447265625,801.4285888671875,806.2637329101562
584,784.1025390625,785.7142944335938,805.054931640625,807.4725341796875
585,797.3992919921875,792.967041015625,808.2783813476562,800.2197875976562
586,801.8314819335938,789.3406372070312,802.6373901367188,802.6373901367188
587,795.7875366210938,782.4908447265625,803.4432373046875,807.87548828125
588,797.8021850585938,783.6996459960938,805.054931640625,807.87548828125
589,795.7875366210938,781.2820434570312,803.8461303710938,803.8461303710938
590,797.3992919921875,778.4615478515625,805.054931640625,800.6226806640625
591,801.4285888671875,778.4615478515625,802.2344360351562,801.025634765625
592,796.1904907226562,782.4908447265625,796.1904907226562,802.6373901367188
593,793.3699340820312,786.5201416015625,794.1758422851562,802.2344360351562
594,795.7875366210938,787.7289428710938,794.1758422851562,798.6080322265625
595,799.8168334960938,792.967041015625,791.3552856445312,795.7875366210938
596,796.5933837890625,799.010986328125,791.3552856445312,790.952392578125
597,793.3699340820312,805.4578857421875,788.937744140625,790.5494384765625
598,796.996337890625,803.4432373046875,784.1025390625,791.7582397460938
599,795.3846435546875,799.4139404296875,780.4761962890625,786.5201416015625
600,792.1611938476562,799.8168334960938,784.1025390625,781.2820434570312
601,790.952392578125,801.025634765625,790.1465454101562,783.6996459960938
602,794.1758422851562,799.8168334960938,784.1025390625,785.7142944335938
603,798.2051391601562,793.3699340820312,782.893798828125,786.1171875
604,792.967041015625,786.1171875,794.1758422851562,789.3406372070312
605,786.5201416015625,782.893798828125,797.8021850585938,790.952392578125
606,785.7142944335938,782.893798828125,794.5787353515625,798.2051391601562
607,777.2527465820312,778.4615478515625,793.7728881835938,789.7435913085938
608,774.8351440429688,778.05859375,798.6080322265625,782.893798828125
609,779.2673950195312,781.6849975585938,801.4285888671875,789.3406372070312
610,777.2527465820312,783.2966918945312,801.4285888671875,794.5787353515625
611,779.2673950195312,784.1025390625,804.2490844726562,801.025634765625
612,781.6849975585938,782.087890625,802.6373901367188,804.6520385742188
613,784.1025390625,776.4468994140625,798.6080322265625,805.4578857421875
614,792.1611938476562,776.0439453125,800.6226806640625,803.8461303710938
615,801.025634765625,777.6557006835938,805.8607788085938,802.2344360351562
616,798.6080322265625,775.2380981445312,803.4432373046875,796.1904907226562
617,796.996337890625,777.2527465820312,795.3846435546875,797.3992919921875
618,803.040283203125,783.2966918945312,794.981689453125,806.2637329101562
619,805.4578857421875,785.7142944335938,798.2051391601562,799.4139404296875
620,809.084228515625,782.4908447265625,796.1904907226562,793.7728881835938
621,813.113525390625,785.3113403320312,793.7728881835938,794.5787353515625
622,815.5311279296875,792.967041015625,794.981689453125,797.8021850585938
623,813.91943359375,794.981689453125,796.5933837890625,804.2490844726562
624,806.2637329101562,797.8021850585938,794.5787353515625,802.6373901367188
625,802.6373901367188,797.8021850585938,792.5640869140625,798.2051391601562
626,799.010986328125,797.3992919921875,794.981689453125,789.3406372070312
627,797.8021850585938,799.4139404296875,796.5933837890625,785.3113403320312
628,795.7875366210938,798.6080322265625,793.7728881835938,788.937744140625
629,794.1758422851562,800.2197875976562,794.1758422851562,791.3552856445312
630,794.1758422851562,801.8314819335938,796.5933837890625,789.7435913085938
631,793.3699340820312,796.996337890625,795.3846435546875,786.5201416015625
632,791.3552856445312,794.5787353515625,788.1318969726562,786.923095703125
633,783.2966918945312,791.3552856445312,789.3406372070312,785.7142944335938
634,778.4615478515625,790.1465454101562,796.1904907226562,779.6703491210938
635,770.0,792.1611938476562,793.7728881835938,776.8497924804688
636,763.9560546875,789.3406372070312,795.3846435546875,783.2966918945312
637,759.5238037109375,792.5640869140625,794.5787353515625,792.5640869140625
638,762.3442993164062,799.8168334960938,797.3992919921875,798.6080322265625
639,770.4029541015625,794.981689453125,802.2344360351562,789.3406372070312
640,769.5970458984375,784.5054931640625,800.6226806640625,785.3113403320312
641,776.0439453125,780.4761962890625,803.040283203125,801.4285888671875
642,781.2820434570312,785.7142944335938,800.6226806640625,805.054931640625
643,787.7289428710938,790.1465454101562,796.996337890625,802.2344360351562
644,800.2197875976562,794.981689453125,798.2051391601562,805.4578857421875
645,802.6373901367188,792.967041015625,800.2197875976562,805.054931640625
646,807.87548828125,784.908447265625,799.4139404296875,801.025634765625
647,820.3662719726562,794.981689453125,795.3846435546875,805.054931640625
648,819.96337890625,805.8607788085938,792.5640869140625,798.2051391601562
649,811.90478515625,797.3992919921875,791.3552856445312,784.1025390625
650,810.6959838867188,797.3992919921875,792.967041015625,784.5054931640625
651,807.87548828125,803.040283203125,795.3846435546875,786.5201416015625
652,805.054931640625,798.2051391601562,792.967041015625,788.5347900390625
653,801.8314819335938,794.5787353515625,788.5347900390625,788.937744140625
654,791.3552856445312,796.996337890625,792.1611938476562,784.1025390625
655,788.937744140625,796.1904907226562,799.4139404296875,783.2966918945312
656,792.5640869140625,791.7582397460938,799.010986328125,784.908447265625
657,788.1318969726562,788.937744140625,799.010986328125,782.087890625
658,789.7435913085938,790.5494384765625,802.2344360351562,780.879150390625
659,793.3699340820312,795.3846435546875,799.010986328125,783.6996459960938
660,784.5054931640625,793.7728881835938,796.1904907226562,780.4761962890625
661,777.2527465820312,791.3552856445312,797.8021850585938,779.6703491210938
662,779.2673950195312,794.5787353515625,794.5787353515625,779.2673950195312
663,785.3113403320312,789.3406372070312,789.7435913085938,780.4761962890625
664,781.2820434570312,784.5054931640625,791.7582397460938,792.967041015625
665,774.029296875,794.5787353515625,796.1904907226562,799.010986328125
666,776.0439453125,790.952392578125,796.5933837890625,795.3846435546875
667,778.4615478515625,785.7142944335938,794.1758422851562,797.3992919921875
668,787.3259887695312,791.3552856445312,794.981689453125,799.8168334960938
669,796.5933837890625,788.5347900390625,796.5933837890625,785.3113403320312
670,791.3552856445312,788.1318969726562,793.7728881835938,773.6264038085938
671,786.1171875,790.1465454101562,792.1611938476562,776.4468994140625
672,787.7289428710938,792.1611938476562,790.5494384765625,779.2673950195312
673,789.7435913085938,796.5933837890625,792.1611938476562,778.05859375
674,794.1758422851562,794.981689453125,794.1758422851562,780.879150390625
675,794.5787353515625,789.3406372070312,791.3552856445312,781.2820434570312
676,793.7728881835938,789.7435913085938,792.1611938476562,782.4908447265625
677,792.967041015625,794.5787353515625,794.1758422851562,782.4908447265625
678,790.952392578125,790.1465454101562,792.1611938476562,781.6849975585938
679,790.1465454101562,788.937744140625,787.3259887695312,793.3699340820312
680,783.6996459960938,788.5347900390625,790.5494384765625,796.1904907226562
681,781.6849975585938,784.908447265625,796.1904907226562,788.1318969726562
682,785.7142944335938,786.5201416015625,798.2051391601562,791.7582397460938
683,786.923095703125,793.7728881835938,794.1758422851562,796.1904907226562
684,783.6996459960938,796.996337890625,789.7435913085938,788.1318969726562
685,784.5054931640625,796.5933837890625,792.5640869140625,782.4908447265625
686,790.1465454101562,791.7582397460938,794.1758422851562,792.967041015625
687,784.908447265625,787.7289428710938,793.7728881835938,794.5787353515625
688,782.087890625,798.2051391601562,796.1904907226562,792.967041015625
689,789.7435913085938,802.2344360351562,795.3846435546875,794.1758422851562
690,796.5933837890625,792.967041015625,791.3552856445312,799.4139404296875
691,802.2344360351562,788.5347900390625,793.7728881835938,807.87548828125
692,805.4578857421875,792.5640869140625,796.1904907226562,797.8021850585938
693,812.3076782226562,791.7582397460938,794.1758422851562,790.1465454101562
694,806.2637329101562,790.5494384765625,797.8021850585938,791.7582397460938
695,795.7875366210938,793.7728881835938,794.1758422851562,790.1465454101562
696,801.8314819335938,794.5787353515625,791.7582397460938,787.7289428710938
697,806.6666870117188,791.7582397460938,794.1758422851562,785.7142944335938
698,801.8314819335938,794.1758422851562,790.952392578125,783.6996459960938
699,805.4578857421875,796.5933837890625,792.1611938476562,790.1465454101562
700,802.6373901367188,794.1758422851562,794.981689453125,793.3699340820312
701,795.3846435546875,795.3846435546875,792.967041015625,786.5201416015625
702,801.025634765625,797.3992919921875,792.1611938476562,790.5494384765625
703,800.2197875976562,794.981689453125,794.5787353515625,800.6226806640625
704,794.1758422851562,790.952392578125,795.7875366210938,794.5787353515625
705,793.7728881835938,788.1318969726562,796.5933837890625,782.893798828125
706,786.5201416015625,790.1465454101562,794.5787353515625,781.6849975585938
707,782.4908447265625,791.7582397460938,796.5933837890625,794.1758422851562
708,785.7142944335938,790.1465454101562,796.5933837890625,794.981689453125
709,782.4908447265625,792.1611938476562,792.5640869140625,789.3406372070312
710,784.908447265625,790.952392578125,794.1758422851562,796.1904907226562
711,793.3699340820312,785.3113403320312,795.7875366210938,800.2197875976562
712,796.996337890625,788.1318969726562,799.8168334960938,799.4139404296875
713,801.4285888671875,791.3552856445312,799.8168334960938,800.6226806640625
714,807.4725341796875,788.937744140625,796.5933837890625,811.90478515625
715,802.6373901367188,789.7435913085938,799.8168334960938,808.2783813476562
716,796.1904907226562,794.5787353515625,801.8314819335938,801.4285888671875
717,803.8461303710938,792.5640869140625,802.2344360351562,807.87548828125
718,809.4871826171875,789.7435913085938,803.040283203125,807.87548828125
719,805.8607788085938,788.5347900390625,799.010986328125,800.6226806640625
720,803.4432373046875,782.893798828125,793.7728881835938,790.5494384765625
721,808.2783813476562,787.3259887695312,794.5787353515625,792.5640869140625
722,807.87548828125,792.1611938476562,796.5933837890625,798.6080322265625
723,807.069580078125,787.7289428710938,797.3992919921875,793.3699340820312
724,803.8461303710938,787.3259887695312,795.3846435546875,786.1171875
725,795.3846435546875,787.3259887695312,791.3552856445312,789.7435913085938
726,793.7728881835938,787.7289428710938,790.1465454101562,797.3992919921875
727,792.967041015625,790.952392578125,794.1758422851562,796.1904907226562
728,788.5347900390625,792.1611938476562,794.981689453125,791.7582397460938
729,784.5054931640625,786.923095703125,794.5787353515625,790.952392578125
730,784.5054931640625,783.6996459960938,792.1611938476562,782.893798828125
731,784.5054931640625,790.1465454101562,788.937744140625,772.4176025390625
732,782.4908447265625,791.7582397460938,787.7289428710938,777.2527465820312
733,780.879150390625,786.923095703125,788.1318969726562,782.4908447265625
734,784.5054931640625,788.937744140625,789.7435913085938,785.3113403320312
735,790.1465454101562,790.952392578125,789.7435913085938,786.5201416015625
736,793.3699340820312,786.923095703125,790.5494384765625,784.908447265625
737,793.3699340820312,790.952392578125,792.967041015625,789.7435913085938
738,792.967041015625,800.2197875976562,796.5933837890625,794.5787353515625
739,794.981689453125,800.6226806640625,792.1611938476562,794.981689453125
740,798.6080322265625,795.7875366210938,792.5640869140625,798.2051391601562
741,805.054931640625,791.7582397460938,792.967041015625,799.8168334960938
742,803.040283203125,793.3699340820312,791.3552856445312,792.967041015625
743,802.2344360351562,796.5933837890625,794.5787353515625,788.937744140625
744,811.098876953125,799.010986328125,792.967041015625,792.967041015625
745,808.2783813476562,792.5640869140625,793.7728881835938,793.3699340820312
746,801.8314819335938,787.7289428710938,791.7582397460938,793.7728881835938
747,798.2051391601562,794.1758422851562,789.7435913085938,789.3406372070312
748,797.3992919921875,792.967041015625,792.5640869140625,792.967041015625
749,797.8021850585938,790.5494384765625,795.3846435546875,798.2051391601562
750,794.1758422851562,792.967041015625,794.5787353515625,791.3552856445312
751,793.7728881835938,790.1465454101562,793.3699340820312,790.952392578125
752,794.1758422851562,797.8021850585938,798.6080322265625,794.981689453125
753,792.1611938476562,801.4285888671875,799.010986328125,795.3846435546875
754,791.3552856445312,796.996337890625,797.8021850585938,788.937744140625
755,794.1758422851562,798.2051391601562,796.1904907226562,786.5201416015625
756,798.6080322265625,797.8021850585938,794.981689453125,792.1611938476562
757,794.5787353515625,799.4139404296875,799.8168334960938,797.3992919921875
758,791.3552856445312,798.6080322265625,799.010986328125,792.5640869140625
759,795.3846435546875,795.7875366210938,796.5933837890625,795.3846435546875
760,796.1904907226562,791.7582397460938,795.3846435546875,801.025634765625
761,794.981689453125,788.937744140625,794.1758422851562,794.981689453125
762,798.6080322265625,798.6080322265625,795.3846435546875,796.5933837890625
763,801.025634765625,799.4139404296875,796.5933837890625,805.8607788085938
764,792.1611938476562,793.3699340820312,791.3552856445312,804.2490844726562
765,792.1611938476562,792.967041015625,793.3699340820312,797.8021850585938
766,798.6080322265625,789.7435913085938,796.996337890625,792.5640869140625
767,797.3992919921875,789.3406372070312,795.7875366210938,796.996337890625
768,794.1758422851562,793.7728881835938,796.1904907226562,807.4725341796875
769,794.1758422851562,794.5787353515625,793.3699340820312,803.040283203125
770,789.7435913085938,794.1758422851562,792.967041015625,799.4139404296875
771,794.5787353515625,785.3113403320312,792.5640869140625,809.084228515625
772,802.2344360351562,784.908447265625,793.7728881835938,815.5311279296875
773,797.8021850585938,791.3552856445312,798.2051391601562,803.8461303710938
774,794.1758422851562,788.937744140625,797.8021850585938,794.5787353515625
775,796.5933837890625,784.5054931640625,799.8168334960938,802.2344360351562
776,794.1758422851562,786.1171875,800.2197875976562,807.4725341796875
777,792.1611938476562,794.1758422851562,798.6080322265625,796.5933837890625
778,792.967041015625,794.981689453125,796.1904907226562,794.1758422851562
779,793.3699340820312,797.3992919921875,796.5933837890625,801.8314819335938
780,798.2051391601562,801.025634765625,796.996337890625,804.6520385742188
781,800.2197875976562,799.010986328125,796.1904907226562,802.2344360351562
782,799.4139404296875,795.7875366210938,795.7875366210938,803.040283203125
783,797.8021850585938,794.5787353515625,792.967041015625,804.6520385742188
784,797.8021850585938,797.3992919921875,796.5933837890625,801.8314819335938
785,797.3992919921875,799.010986328125,801.025634765625,799.8168334960938
786,795.3846435546875,801.4285888671875,796.996337890625,799.4139404296875
787,799.8168334960938,800.2197875976562,792.5640869140625,805.054931640625
788,794.5787353515625,799.8168334960938,794.5787353515625,797.8021850585938
789,789.3406372070312,801.4285888671875,794.1758422851562,788.5347900390625
790,791.7582397460938,800.2197875976562,790.952392578125,795.7875366210938
791,792.5640869140625,800.2197875976562,794.1758422851562,794.5787353515625
792,796.996337890625,801.8314819335938,793.7728881835938,788.5347900390625
793,803.8461303710938,798.6080322265625,793.7728881835938,791.3552856445312
794,805.4578857421875,792.967041015625,796.1904907226562,790.5494384765625
795,797.8021850585938,790.952392578125,793.7728881835938,787.7289428710938
796,792.5640869140625,791.7582397460938,794.5787353515625,794.5787353515625
797,801.025634765625,787.3259887695312,799.8168334960938,797.8021850585938
798,804.6520385742188,785.3113403320312,799.8168334960938,796.996337890625
799,795.3846435546875,794.5787353515625,794.1758422851562,793.3699340820312
800,795.3846435546875,797.3992919921875,793.3699340820312,790.1465454101562
801,802.6373901367188,794.981689453125,793.3699340820312,795.3846435546875
802,807.069580078125,788.937744140625,794.981689453125,805.8607788085938
803,803.4432373046875,785.7142944335938,800.2197875976562,808.2783813476562
804,796.5933837890625,784.5054931640625,802.6373901367188,795.3846435546875
805,796.5933837890625,786.1171875,800.6226806640625,796.996337890625
806,799.8168334960938,791.7582397460938,797.8021850585938,795.7875366210938
807,795.7875366210938,792.1611938476562,796.1904907226562,792.5640869140625
808,792.967041015625,791.7582397460938,801.025634765625,794.981689453125
809,789.3406372070312,789.3406372070312,799.4139404296875,791.3552856445312
810,782.4908447265625,788.5347900390625,793.7728881835938,784.5054931640625
811,776.8497924804688,792.967041015625,796.996337890625,778.4615478515625
812,774.029296875,796.996337890625,795.7875366210938,779.2673950195312
813,778.4615478515625,795.3846435546875,794.981689453125,784.908447265625
814,777.2527465820312,794.981689453125,795.7875366210938,785.7142944335938
815,773.2234497070312,795.3846435546875,795.3846435546875,780.4761962890625
816,782.087890625,792.967041015625,793.7728881835938,783.2966918945312
817,790.1465454101562,792.1611938476562,786.1171875,789.7435913085938
818,790.5494384765625,790.952392578125,785.7142944335938,787.3259887695312
819,795.7875366210938,790.952392578125,787.3259887695312,788.937744140625
820,801.4285888671875,796.5933837890625,784.5054931640625,794.981689453125
821,802.2344360351562,797.8021850585938,784.5054931640625,799.8168334960938
822,801.025634765625,790.1465454101562,788.937744140625,800.2197875976562
823,800.6226806640625,788.937744140625,789.3406372070312,793.7728881835938
824,800.2197875976562,794.5787353515625,790.5494384765625,795.7875366210938
825,802.2344360351562,795.3846435546875,792.1611938476562,801.025634765625
826,801.8314819335938,794.1758422851562,792.5640869140625,805.054931640625
827,796.1904907226562,792.1611938476562,795.7875366210938,806.2637329101562
828,794.981689453125,788.937744140625,793.7728881835938,806.6666870117188
829,792.1611938476562,781.2820434570312,792.1611938476562,805.054931640625
830,788.1318969726562,780.0732421875,794.1758422851562,799.8168334960938
831,780.879150390625,780.879150390625,794.981689453125,792.5640869140625
832,779.6703491210938,780.879150390625,796.5933837890625,794.981689453125
833,780.879150390625,781.6849975585938,795.7875366210938,803.4432373046875
834,778.8644409179688,780.4761962890625,798.6080322265625,801.4285888671875
835,776.8497924804688,782.893798828125,799.8168334960938,796.1904907226562
836,778.05859375,785.7142944335938,797.8021850585938,793.3699340820312
837,780.0732421875,786.5201416015625,796.996337890625,790.1465454101562
838,782.4908447265625,786.923095703125,794.1758422851562,790.5494384765625
839,780.0732421875,788.1318969726562,791.7582397460938,789.7435913085938
840,773.6264038085938,786.923095703125,790.952392578125,790.5494384765625
841,776.0439453125,790.1465454101562,790.5494384765625,786.5201416015625
842,779.2673950195312,790.1465454101562,792.1611938476562,781.6849975585938
843,782.087890625,787.3259887695312,791.7582397460938,780.879150390625
844,788.1318969726562,786.1171875,788.1318969726562,784.1025390625
845,788.937744140625,786.5201416015625,791.7582397460938,786.5201416015625
846,795.3846435546875,791.7582397460938,796.5933837890625,783.6996459960938
847,799.010986328125,788.937744140625,792.967041015625,788.937744140625
848,796.996337890625,790.952392578125,791.3552856445312,796.1904907226562
849,799.010986328125,800.6226806640625,793.3699340820312,796.5933837890625
850,800.2197875976562,805.054931640625,794.5787353515625,792.5640869140625
851,805.4578857421875,801.8314819335938,791.3552856445312,797.8021850585938
852,803.040283203125,796.1904907226562,785.3113403320312,794.5787353515625
853,796.996337890625,801.4285888671875,784.908447265625,786.1171875
854,796.5933837890625,799.010986328125,790.1465454101562,788.1318969726562
855,793.3699340820312,796.1904907226562,790.1465454101562,790.5494384765625
856,796.996337890625,796.996337890625,789.3406372070312,803.4432373046875
857,795.3846435546875,794.1758422851562,792.967041015625,794.5787353515625
858,790.1465454101562,793.7728881835938,790.5494384765625,784.908447265625
859,792.1611938476562,792.5640869140625,790.5494384765625,794.5787353515625
860,787.7289428710938,792.1611938476562,791.7582397460938,792.5640869140625
861,785.7142944335938,796.996337890625,789.3406372070312,788.5347900390625
862,790.952392578125,797.8021850585938,792.967041015625,789.7435913085938
863,790.5494384765625,792.967041015625,791.3552856445312,789.7435913085938
864,786.923095703125,792.5640869140625,790.952392578125,783.2966918945312
865,786.923095703125,794.1758422851562,796.1904907226562,780.4761962890625
866,788.1318969726562,792.1611938476562,790.952392578125,782.087890625
867,791.3552856445312,790.1465454101562,791.7582397460938,787.3259887695312
868,792.967041015625,791.3552856445312,796.1904907226562,793.7728881835938
869,788.5347900390625,789.3406372070312,794.5787353515625,790.5494384765625
870,786.1171875,791.7582397460938,792.967041015625,785.3113403320312
871,789.7435913085938,792.1611938476562,790.5494384765625,790.1465454101562
872,791.3552856445312,788.1318969726562,792.5640869140625,789.7435913085938
873,796.996337890625,792.5640869140625,799.4139404296875,784.1025390625
874,798.2051391601562,793.7728881835938,797.3992919921875,790.5494384765625
875,795.7875366210938,789.3406372070312,794.981689453125,797.3992919921875
876,799.8168334960938,788.5347900390625,794.1758422851562,797.3992919921875
877,792.5640869140625,792.5640869140625,793.3699340820312,788.937744140625
878,786.5201416015625,793.3699340820312,790.952392578125,789.7435913085938
879,789.3406372070312,790.5494384765625,788.937744140625,796.1904907226562
880,793.7728881835938,789.3406372070312,794.981689453125,800.6226806640625
881,793.7728881835938,786.5201416015625,794.1758422851562,794.1758422851562
882,790.952392578125,789.3406372070312,788.1318969726562,788.1318969726562
883,790.5494384765625,794.5787353515625,782.4908447265625,788.1318969726562
884,789.3406372070312,797.3992919921875,784.1025390625,782.893798828125
885,788.5347900390625,793.7728881835938,788.5347900390625,782.4908447265625
886,788.937744140625,788.937744140625,784.908447265625,780.0732421875
887,793.7728881835938,797.3992919921875,784.908447265625,779.6703491210938
888,797.8021850585938,799.8168334960938,786.5201416015625,781.2820434570312
889,796.1904907226562,794.981689453125,782.4908447265625,777.2527465820312
890,796.996337890625,794.981689453125,783.6996459960938,782.893798828125
891,792.967041015625,794.1758422851562,785.3113403320312,781.6849975585938
892,790.5494384765625,790.5494384765625,781.2820434570312,777.2527465820312
893,800.6226806640625,789.3406372070312,785.3113403320312,784.1025390625
894,797.8021850585938,786.1171875,786.5201416015625,792.1611938476562
895,795.3846435546875,788.937744140625,783.6996459960938,793.3699340820312
896,800.6226806640625,791.7582397460938,791.3552856445312,784.5054931640625
897,803.040283203125,790.1465454101562,797.8021850585938,788.1318969726562
898,803.4432373046875,787.3259887695312,801.4285888671875,795.3846435546875
899,799.8168334960938,789.3406372070312,804.6520385742188,797.8021850585938
900,792.967041015625,793.7728881835938,803.040283203125,796.996337890625
901,790.1465454101562,790.952392578125,803.8461303710938,796.996337890625
902,789.3406372070312,790.952392578125,804.2490844726562,803.4432373046875
903,789.3406372070312,787.7289428710938,803.040283203125,809.4871826171875
904,790.952392578125,782.893798828125,805.4578857421875,801.4285888671875
905,791.7582397460938,785.7142944335938,805.8607788085938,797.8021850585938
906,788.937744140625,788.1318969726562,803.040283203125,804.6520385742188
907,784.908447265625,790.1465454101562,804.2490844726562,800.2197875976562
908,786.5201416015625,790.1465454101562,807.4725341796875,790.5494384765625
909,786.1171875,794.1758422851562,805.054931640625,790.952392578125
910,789.7435913085938,797.3992919921875,802.6373901367188,789.7435913085938
911,798.6080322265625,791.7582397460938,803.4432373046875,785.7142944335938
912,801.025634765625,792.1611938476562,795.7875366210938,781.2820434570312
913,798.6080322265625,794.5787353515625,788.5347900390625,778.8644409179688
914,797.8021850585938,798.6080322265625,793.7728881835938,779.2673950195312
915,804.6520385742188,797.8021850585938,794.981689453125,779.6703491210938
916,803.040283203125,796.1904907226562,793.7728881835938,785.3113403320312
917,799.010986328125,796.996337890625,790.952392578125,792.1611938476562
918,804.2490844726562,795.7875366210938,788.5347900390625,796.996337890625
919,807.069580078125,792.1611938476562,791.3552856445312,798.2051391601562
920,799.010986328125,790.5494384765625,792.5640869140625,800.2197875976562
921,794.5787353515625,794.5787353515625,794.5787353515625,799.8168334960938
922,796.996337890625,793.3699340820312,799.4139404296875,801.025634765625
923,792.5640869140625,787.3259887695312,795.7875366210938,798.2051391601562
924,791.3552856445312,788.1318969726562,792.967041015625,799.010986328125
925,795.3846435546875,791.3552856445312,791.7582397460938,799.4139404296875
926,795.7875366210938,790.952392578125,794.981689453125,800.6226806640625
927,798.2051391601562,786.1171875,800.2197875976562,801.8314819335938
928,797.8021850585938,786.5201416015625,797.8021850585938,790.1465454101562
929,798.6080322265625,791.7582397460938,792.967041015625,791.3552856445312
930,798.2051391601562,792.967041015625,792.1611938476562,791.7582397460938
931,796.996337890625,796.5933837890625,798.6080322265625,791.7582397460938
932,796.5933837890625,795.3846435546875,799.4139404296875,800.2197875976562
933,792.1611938476562,791.3552856445312,790.5494384765625,796.1904907226562
934,796.5933837890625,795.7875366210938,790.5494384765625,790.952392578125
935,797.3992919921875,795.7875366210938,791.3552856445312,788.5347900390625
936,803.040283203125,794.1758422851562,788.937744140625,786.5201416015625
937,803.040283203125,800.6226806640625,786.923095703125,785.7142944335938
938,795.7875366210938,795.7875366210938,784.908447265625,788.1318969726562
939,803.8461303710938,793.7728881835938,784.5054931640625,794.1758422851562
940,808.2783813476562,795.7875366210938,788.937744140625,799.010986328125
941,803.4432373046875,792.5640869140625,790.1465454101562,805.8607788085938
942,796.1904907226562,790.952392578125,787.3259887695312,799.8168334960938
943,789.3406372070312,786.5201416015625,788.5347900390625,794.981689453125
944,784.5054931640625,786.5201416015625,789.3406372070312,801.8314819335938
945,789.7435913085938,791.7582397460938,796.5933837890625,807.4725341796875
946,798.2051391601562,794.1758422851562,802.6373901367188,811.098876953125
947,798.2051391601562,794.981689453125,801.8314819335938,815.5311279296875
948,795.7875366210938,790.952392578125,799.8168334960938,815.93408203125
949,792.1611938476562,788.1318969726562,800.6226806640625,809.89013671875
950,795.3846435546875,791.3552856445312,801.4285888671875,799.010986328125
951,802.2344360351562,790.5494384765625,798.2051391601562,794.5787353515625
952,794.5787353515625,791.7582397460938,800.6226806640625,792.5640869140625
953,788.5347900390625,788.5347900390625,803.4432373046875,787.7289428710938
954,790.952392578125,785.7142944335938,804.6520385742188,788.5347900390625
955,792.1611938476562,788.937744140625,802.2344360351562,791.3552856445312
956,793.7728881835938,794.5787353515625,796.996337890625,796.996337890625
957,793.7728881835938,794.981689453125,796.5933837890625,792.5640869140625
958,792.5640869140625,791.3552856445312,796.996337890625,783.6996459960938
959,799.8168334960938,798.6080322265625,799.4139404296875,784.908447265625
960,796.1904907226562,792.967041015625,798.2051391601562,786.923095703125
961,782.4908447265625,784.5054931640625,794.1758422851562,781.6849975585938
962,783.2966918945312,790.5494384765625,794.5787353515625,779.6703491210938
963,783.2966918945312,790.952392578125,798.6080322265625,782.893798828125
964,784.908447265625,788.1318969726562,795.3846435546875,782.4908447265625
965,784.5054931640625,788.1318969726562,794.5787353515625,783.6996459960938
966,780.879150390625,785.3113403320312,793.3699340820312,785.7142944335938
967,789.3406372070312,791.3552856445312,792.967041015625,791.7582397460938
968,799.8168334960938,797.8021850585938,794.1758422851562,800.6226806640625
969,793.3699340820312,792.967041015625,789.3406372070312,801.025634765625
970,790.952392578125,789.3406372070312,789.3406372070312,799.010986328125
971,794.1758422851562,788.1318969726562,787.7289428710938,806.2637329101562
972,792.5640869140625,789.7435913085938,789.3406372070312,805.054931640625
973,796.996337890625,790.5494384765625,793.7728881835938,792.5640869140625
974,804.6520385742188,795.7875366210938,796.5933837890625,796.996337890625
975,805.8607788085938,801.4285888671875,795.7875366210938,799.8168334960938
976,799.4139404296875,794.1758422851562,794.1758422851562,797.3992919921875
977,796.5933837890625,792.5640869140625,787.7289428710938,800.6226806640625
978,801.4285888671875,792.1611938476562,786.5201416015625,799.4139404296875
979,798.6080322265625,792.967041015625,794.1758422851562,801.025634765625
980,790.5494384765625,798.6080322265625,792.967041015625,797.3992919921875
981,794.1758422851562,796.996337890625,790.5494384765625,790.952392578125
982,798.6080322265625,796.996337890625,791.7582397460938,795.3846435546875
983,798.2051391601562,798.6080322265625,792.1611938476562,797.8021850585938
984,796.996337890625,792.1611938476562,792.5640869140625,788.937744140625
985,790.952392578125,785.7142944335938,790.1465454101562,784.5054931640625
986,794.1758422851562,794.5787353515625,794.1758422851562,793.3699340820312
987,801.025634765625,800.6226806640625,802.2344360351562,796.5933837890625
988,798.6080322265625,796.5933837890625,798.2051391601562,787.7289428710938
989,795.3846435546875,790.952392578125,795.3846435546875,787.3259887695312
990,797.3992919921875,790.952392578125,796.996337890625,801.025634765625
991,799.4139404296875,795.3846435546875,799.010986328125,802.2344360351562
992,796.5933837890625,795.7875366210938,801.025634765625,793.3699340820312
993,790.952392578125,793.3699340820312,795.3846435546875,797.3992919921875
994,791.3552856445312,789.7435913085938,792.967041015625,797.3992919921875
995,794.981689453125,785.3113403320312,799.010986328125,793.3699340820312
996,796.996337890625,787.3259887695312,796.5933837890625,785.7142944335938
997,792.1611938476562,792.967041015625,790.1465454101562,776.4468994140625
998,792.967041015625,791.7582397460938,793.7728881835938,785.7142944335938
999,794.5787353515625,792.967041015625,795.7875366210938,794.1758422851562
1000,789.3406372070312,794.981689453125,791.7582397460938,788.5347900390625
1001,794.1758422851562,794.981689453125,791.3552856445312,792.967041015625
1002,802.2344360351562,795.3846435546875,795.7875366210938,801.8314819335938
1003,800.6226806640625,796.5933837890625,797.3992919921875,794.5787353515625
1004,797.3992919921875,797.3992919921875,798.6080322265625,790.1465454101562
1005,793.3699340820312,796.996337890625,798.6080322265625,789.7435913085938
1006,793.7728881835938,796.996337890625,797.8021850585938,787.3259887695312
1007,793.7728881835938,794.981689453125,800.6226806640625,788.937744140625
1008,796.5933837890625,791.3552856445312,802.2344360351562,799.8168334960938
1009,790.952392578125,788.1318969726562,803.040283203125,802.2344360351562
1010,789.3406372070312,788.1318969726562,804.6520385742188,798.2051391601562
1011,791.7582397460938,791.7582397460938,803.040283203125,797.3992919921875
1012,790.952392578125,792.5640869140625,801.4285888671875,799.8168334960938
1013,795.7875366210938,788.937744140625,803.040283203125,796.5933837890625
1014,791.3552856445312,788.937744140625,802.6373901367188,799.010986328125
1015,788.1318969726562,790.1465454101562,800.6226806640625,805.054931640625
1016,789.7435913085938,794.981689453125,802.2344360351562,806.2637329101562
1017,794.5787353515625,793.7728881835938,800.2197875976562,806.6666870117188
1018,797.8021850585938,789.3406372070312,797.8021850585938,798.6080322265625
1019,800.6226806640625,794.981689453125,796.5933837890625,799.8168334960938
1020,799.4139404296875,795.7875366210938,791.3552856445312,793.7728881835938
1021,794.1758422851562,788.5347900390625,786.923095703125,790.952392578125
1022,795.7875366210938,791.3552856445312,789.7435913085938,794.1758422851562
1023,792.1611938476562,795.3846435546875,788.937744140625,790.952392578125
1024,791.7582397460938,792.1611938476562,789.3406372070312,798.6080322265625
1025,794.5787353515625,787.3259887695312,793.3699340820312,805.4578857421875
1026,795.3846435546875,794.1758422851562,798.6080322265625,800.2197875976562
1027,789.3406372070312,796.1904907226562,795.7875366210938,785.3113403320312
1028,791.7582397460938,793.3699340820312,792.967041015625,788.5347900390625
1029,792.967041015625,793.3699340820312,798.2051391601562,791.7582397460938
1030,794.1758422851562,789.7435913085938,794.5787353515625,786.923095703125
1031,797.8021850585938,788.5347900390625,791.7582397460938,784.5054931640625
1032,791.7582397460938,794.1758422851562,792.1611938476562,778.8644409179688
1033,789.7435913085938,796.1904907226562,793.3699340820312,780.879150390625
1034,793.3699340820312,793.7728881835938,792.967041015625,789.7435913085938
1035,796.5933837890625,790.952392578125,794.1758422851562,799.4139404296875
1036,801.8314819335938,789.7435913085938,796.5933837890625,809.084228515625
1037,799.010986328125,794.1758422851562,796.996337890625,807.87548828125
1038,794.5787353515625,796.1904907226562,796.996337890625,803.4432373046875
1039,799.8168334960938,795.3846435546875,796.1904907226562,802.6373901367188
1040,797.8021850585938,791.7582397460938,796.1904907226562,804.6520385742188
1041,790.5494384765625,790.1465454101562,796.996337890625,807.069580078125
1042,788.937744140625,789.3406372070312,794.981689453125,799.8168334960938
1043,794.981689453125,789.3406372070312,797.8021850585938,805.054931640625
1044,797.3992919921875,789.3406372070312,796.1904907226562,812.3076782226562
1045,792.5640869140625,790.1465454101562,792.5640869140625,804.2490844726562
1046,790.5494384765625,788.5347900390625,792.5640869140625,797.8021850585938
1047,792.1611938476562,786.5201416015625,795.3846435546875,793.7728881835938
1048,792.5640869140625,785.3113403320312,794.981689453125,792.5640869140625
1049,795.3846435546875,783.2966918945312,793.7728881835938,786.1171875
1050,793.7728881835938,789.7435913085938,792.1611938476562,783.6996459960938
1051,787.7289428710938,792.5640869140625,792.967041015625,792.1611938476562
1052,784.908447265625,789.7435913085938,796.5933837890625,789.7435913085938
1053,791.3552856445312,789.7435913085938,800.2197875976562,788.1318969726562
1054,794.1758422851562,790.1465454101562,799.8168334960938,790.1465454101562
1055,786.923095703125,791.7582397460938,797.3992919921875,790.952392578125
1056,784.908447265625,794.5787353515625,797.3992919921875,794.1758422851562
1057,785.7142944335938,794.981689453125,798.2051391601562,792.5640869140625
1058,784.908447265625,793.3699340820312,797.8021850585938,795.3846435546875
1059,789.3406372070312,791.3552856445312,796.996337890625,802.6373901367188
1060,790.952392578125,791.3552856445312,797.3992919921875,805.8607788085938
1061,784.908447265625,786.923095703125,798.6080322265625,800.6226806640625
1062,783.2966918945312,782.4908447265625,796.996337890625,791.3552856445312
1063,781.6849975585938,784.1025390625,792.967041015625,790.952392578125
1064,780.879150390625,787.7289428710938,793.3699340820312,794.5787353515625
1065,785.7142944335938,794.1758422851562,792.1611938476562,788.5347900390625
1066,790.1465454101562,792.1611938476562,790.952392578125,786.5201416015625
1067,789.3406372070312,787.3259887695312,792.967041015625,789.7435913085938
1068,786.1171875,788.5347900390625,792.5640869140625,787.3259887695312
1069,790.952392578125,785.7142944335938,794.1758422851562,784.1025390625
1070,795.7875366210938,783.6996459960938,794.981689453125,790.952392578125
1071,798.6080322265625,790.1465454101562,790.952392578125,792.5640869140625
1072,794.1758422851562,786.1171875,790.952392578125,788.1318969726562
1073,786.1171875,788.5347900390625,794.5787353515625,789.3406372070312
1074,782.4908447265625,795.3846435546875,792.967041015625,790.5494384765625
1075,790.1465454101562,790.952392578125,796.5933837890625,800.6226806640625
1076,788.937744140625,792.967041015625,797.3992919921875,795.3846435546875
1077,783.2966918945312,794.981689453125,796.1904907226562,788.5347900390625
1078,788.5347900390625,793.3699340820312,795.3846435546875,792.5640869140625
1079,790.5494384765625,791.7582397460938,794.1758422851562,796.5933837890625
1080,790.1465454101562,793.7728881835938,798.2051391601562,798.2051391601562
1081,786.5201416015625,795.3846435546875,798.2051391601562,794.981689453125
1082,783.6996459960938,790.5494384765625,799.010986328125,801.4285888671875
1083,784.5054931640625,786.5201416015625,799.8168334960938,803.040283203125
1084,788.5347900390625,788.1318969726562,799.010986328125,793.7728881835938
1085,792.967041015625,798.2051391601562,796.996337890625,788.937744140625
1086,795.7875366210938,797.3992919921875,795.3846435546875,801.025634765625
1087,796.1904907226562,788.937744140625,794.981689453125,801.025634765625
1088,790.5494384765625,788.1318969726562,791.7582397460938,788.1318969726562
1089,795.7875366210938,788.937744140625,793.3699340820312,790.1465454101562
1090,807.069580078125,792.5640869140625,793.7728881835938,793.3699340820312
1091,811.098876953125,788.1318969726562,793.3699340820312,794.981689453125
1092,802.6373901367188,784.1025390625,794.981689453125,793.7728881835938
1093,792.1611938476562,788.937744140625,794.5787353515625,794.5787353515625
1094,790.1465454101562,791.7582397460938,795.3846435546875,791.7582397460938
1095,790.1465454101562,792.5640869140625,795.7875366210938,786.5201416015625
1096,791.3552856445312,788.5347900390625,793.3699340820312,787.3259887695312
1097,787.7289428710938,785.7142944335938,790.1465454101562,789.7435913085938
1098,789.7435913085938,794.5787353515625,790.5494384765625,794.981689453125
1099,791.3552856445312,792.967041015625,794.1758422851562,785.3113403320312
1100,789.7435913085938,792.1611938476562,793.3699340820312,781.2820434570312
1101,788.937744140625,795.7875366210938,787.3259887695312,786.923095703125
1102,795.3846435546875,798.2051391601562,791.7582397460938,790.1465454101562
1103,806.6666870117188,796.996337890625,794.981689453125,796.1904907226562
1104,803.4432373046875,793.7728881835938,791.3552856445312,795.7875366210938
1105,789.3406372070312,788.937744140625,793.7728881835938,788.5347900390625
1106,785.3113403320312,790.1465454101562,790.952392578125,788.1318969726562
1107,790.5494384765625,790.5494384765625,786.923095703125,795.3846435546875
1108,788.937744140625,782.4908447265625,790.5494384765625,792.1611938476562
1109,789.3406372070312,781.2820434570312,792.967041015625,799.4139404296875
1110,788.5347900390625,788.1318969726562,790.5494384765625,805.054931640625
1111,784.1025390625,790.1465454101562,796.1904907226562,796.5933837890625
1112,787.3259887695312,789.7435913085938,796.1904907226562,798.6080322265625
1113,789.3406372070312,791.7582397460938,787.3259887695312,802.2344360351562
1114,785.3113403320312,791.3552856445312,790.1465454101562,794.1758422851562
1115,786.1171875,788.937744140625,792.967041015625,792.1611938476562
1116,793.3699340820312,792.5640869140625,792.5640869140625,796.1904907226562
1117,795.7875366210938,793.7728881835938,796.1904907226562,798.2051391601562
1118,789.7435913085938,789.7435913085938,796.996337890625,799.010986328125
1119,792.1611938476562,787.7289428710938,796.996337890625,799.010986328125
1120,793.7728881835938,789.7435913085938,795.7875366210938,801.4285888671875
1121,785.7142944335938,794.981689453125,791.3552856445312,802.2344360351562
1122,785.7142944335938,795.7875366210938,792.1611938476562,795.7875366210938
1123,794.981689453125,788.937744140625,794.981689453125,795.3846435546875
1124,798.2051391601562,788.937744140625,795.3846435546875,798.6080322265625
1125,790.1465454101562,796.5933837890625,797.3992919921875,792.5640869140625
1126,790.952392578125,800.2197875976562,794.981689453125,777.6557006835938
1127,792.967041015625,802.2344360351562,792.1611938476562,776.4468994140625
1128,783.2966918945312,796.1904907226562,794.5787353515625,780.4761962890625
1129,778.8644409179688,794.5787353515625,792.5640869140625,783.2966918945312
1130,784.1025390625,794.5787353515625,789.3406372070312,788.1318969726562
1131,789.3406372070312,788.5347900390625,790.952392578125,790.1465454101562
1132,790.1465454101562,788.937744140625,790.1465454101562,799.010986328125
1133,786.5201416015625,789.3406372070312,790.5494384765625,798.2051391601562
1134,784.908447265625,788.5347900390625,792.967041015625,792.1611938476562
1135,785.3113403320312,784.5054931640625,792.5640869140625,790.1465454101562
1136,784.5054931640625,788.937744140625,794.981689453125,779.6703491210938
1137,787.7289428710938,795.7875366210938,794.981689453125,780.879150390625
1138,788.1318969726562,793.7728881835938,791.3552856445312,787.3259887695312
1139,786.923095703125,791.7582397460938,788.5347900390625,786.1171875
1140,792.5640869140625,788.937744140625,792.1611938476562,782.4908447265625
1141,792.967041015625,790.952392578125,794.981689453125,782.4908447265625
1142,790.952392578125,791.7582397460938,790.952392578125,789.7435913085938
1143,796.1904907226562,790.1465454101562,787.3259887695312,794.1758422851562
1144,797.8021850585938,793.3699340820312,787.7289428710938,798.6080322265625
1145,790.952392578125,791.7582397460938,790.952392578125,796.5933837890625
1146,785.3113403320312,785.3113403320312,789.3406372070312,788.937744140625
1147,788.1318969726562,786.5201416015625,789.3406372070312,791.3552856445312
1148,787.3259887695312,787.3259887695312,789.7435913085938,786.5201416015625
1149,788.937744140625,785.3113403320312,788.5347900390625,780.0732421875
1150,785.7142944335938,786.1171875,789.7435913085938,783.6996459960938
1151,785.7142944335938,786.1171875,790.1465454101562,786.923095703125
1152,783.2966918945312,781.6849975585938,790.952392578125,789.7435913085938
1153,781.2820434570312,780.4761962890625,790.5494384765625,786.5201416015625
1154,787.7289428710938,789.3406372070312,792.5640869140625,796.996337890625
1155,789.7435913085938,786.923095703125,791.7582397460938,807.4725341796875
1156,786.1171875,778.05859375,790.952392578125,808.2783813476562
1157,788.937744140625,780.879150390625,796.1904907226562,805.054931640625
1158,790.5494384765625,783.6996459960938,794.981689453125,797.8021850585938
1159,790.1465454101562,788.5347900390625,795.7875366210938,799.8168334960938
1160,797.8021850585938,793.7728881835938,796.5933837890625,794.981689453125
1161,801.4285888671875,794.981689453125,790.952392578125,789.3406372070312
1162,802.2344360351562,792.967041015625,788.937744140625,793.3699340820312
1163,804.2490844726562,788.937744140625,789.3406372070312,799.010986328125
1164,799.010986328125,788.937744140625,792.967041015625,798.2051391601562
1165,792.967041015625,786.923095703125,800.6226806640625,795.7875366210938
1166,784.908447265625,785.3113403320312,798.2051391601562,800.2197875976562
1167,780.879150390625,784.5054931640625,792.1611938476562,791.3552856445312
1168,785.7142944335938,786.923095703125,788.1318969726562,786.1171875
1169,781.6849975585938,790.5494384765625,790.1465454101562,783.2966918945312
1170,782.893798828125,783.2966918945312,794.5787353515625,787.3259887695312
1171,789.7435913085938,780.879150390625,792.1611938476562,796.5933837890625
1172,788.937744140625,794.981689453125,789.3406372070312,782.087890625
1173,790.5494384765625,803.4432373046875,790.5494384765625,784.1025390625
1174,788.937744140625,799.8168334960938,792.1611938476562,790.952392578125
1175,790.1465454101562,791.3552856445312,791.7582397460938,783.2966918945312
1176,794.5787353515625,792.967041015625,791.3552856445312,784.5054931640625
1177,799.4139404296875,797.3992919921875,789.3406372070312,781.6849975585938
1178,801.8314819335938,794.981689453125,790.952392578125,788.5347900390625
1179,801.4285888671875,795.7875366210938,792.5640869140625,795.3846435546875
1180,800.2197875976562,796.1904907226562,791.3552856445312,793.3699340820312
1181,801.8314819335938,796.996337890625,792.5640869140625,794.981689453125
1182,805.8607788085938,790.952392578125,794.5787353515625,792.1611938476562
1183,809.084228515625,794.981689453125,793.3699340820312,790.5494384765625
1184,804.2490844726562,803.040283203125,792.967041015625,796.1904907226562
1185,797.8021850585938,801.025634765625,797.3992919921875,807.069580078125
1186,796.5933837890625,798.2051391601562,797.3992919921875,811.098876953125
1187,796.1904907226562,794.5787353515625,794.981689453125,802.2344360351562
1188,801.8314819335938,795.7875366210938,794.5787353515625,802.2344360351562
1189,809.084228515625,796.1904907226562,797.8021850585938,811.90478515625
1190,810.6959838867188,791.7582397460938,799.010986328125,823.5897216796875
1191,810.6959838867188,792.5640869140625,799.8168334960938,824.3956298828125
1192,805.4578857421875,794.5787353515625,799.010986328125,809.89013671875
1193,798.2051391601562,792.1611938476562,796.1904907226562,805.054931640625
1194,795.7875366210938,790.5494384765625,795.3846435546875,802.2344360351562
1195,793.3699340820312,794.5787353515625,791.7582397460938,792.1611938476562
1196,788.937744140625,797.8021850585938,790.1465454101562,782.893798828125
1197,788.937744140625,797.8021850585938,791.7582397460938,785.7142944335938
1198,789.3406372070312,798.2051391601562,793.7728881835938,792.5640869140625
1199,791.7582397460938,797.8021850585938,795.3846435546875,786.5201416015625
1200,792.967041015625,796.1904907226562,790.952392578125,778.4615478515625
1201,794.5787353515625,795.3846435546875,791.3552856445312,784.1025390625
1202,800.2197875976562,794.1758422851562,793.3699340820312,788.937744140625
1203,797.8021850585938,792.1611938476562,788.5347900390625,786.1171875
1204,797.8021850585938,792.5640869140625,787.3259887695312,785.7142944335938
1205,802.2344360351562,790.952392578125,793.3699340820312,797.8021850585938
1206,799.010986328125,790.1465454101562,795.7875366210938,800.6226806640625
1207,797.3992919921875,793.7728881835938,796.1904907226562,788.937744140625
1208,796.996337890625,794.1758422851562,797.3992919921875,794.981689453125
1209,794.981689453125,790.5494384765625,795.7875366210938,805.4578857421875
1210,790.1465454101562,792.967041015625,792.967041015625,799.8168334960938
1211,788.937744140625,798.2051391601562,796.5933837890625,792.1611938476562
1212,798.6080322265625,795.7875366210938,794.5787353515625,797.8021850585938
1213,798.6080322265625,792.1611938476562,794.981689453125,801.8314819335938
1214,789.7435913085938,792.5640869140625,801.4285888671875,801.8314819335938
1215,790.1465454101562,790.5494384765625,799.010986328125,802.6373901367188
1216,789.3406372070312,790.1465454101562,793.7728881835938,800.2197875976562
1217,792.5640869140625,788.5347900390625,794.5787353515625,795.3846435546875
1218,796.5933837890625,791.3552856445312,795.7875366210938,792.967041015625
1219,793.7728881835938,795.7875366210938,797.8021850585938,793.7728881835938
1220,790.5494384765625,793.3699340820312,796.996337890625,796.1904907226562
1221,790.952392578125,791.7582397460938,794.1758422851562,794.5787353515625
1222,793.7728881835938,790.5494384765625,793.7728881835938,791.7582397460938
1223,794.981689453125,792.967041015625,794.981689453125,790.952392578125
1224,799.010986328125,798.2051391601562,793.3699340820312,790.5494384765625
1225,796.996337890625,798.2051391601562,788.937744140625,785.3113403320312
1226,791.7582397460938,798.2051391601562,787.3259887695312,787.7289428710938
1227,789.7435913085938,794.5787353515625,789.7435913085938,791.7582397460938
1228,785.7142944335938,791.3552856445312,791.7582397460938,791.3552856445312
1229,792.1611938476562,795.3846435546875,796.1904907226562,796.5933837890625
1230,799.010986328125,794.5787353515625,797.3992919921875,790.952392578125
1231,794.5787353515625,788.937744140625,794.5787353515625,794.1758422851562
1232,792.967041015625,790.5494384765625,796.996337890625,800.2197875976562
1233,791.3552856445312,794.5787353515625,802.2344360351562,802.2344360351562
1234,793.3699340820312,793.3699340820312,803.8461303710938,797.3992919921875
1235,796.5933837890625,796.5933837890625,801.8314819335938,796.1904907226562
1236,789.3406372070312,797.8021850585938,802.2344360351562,800.2197875976562
1237,789.7435913085938,798.2051391601562,805.4578857421875,801.025634765625
1238,791.7582397460938,797.8021850585938,803.8461303710938,799.010986328125
1239,794.981689453125,791.7582397460938,796.996337890625,797.3992919921875
1240,798.2051391601562,790.5494384765625,798.2051391601562,810.6959838867188
1241,784.908447265625,794.5787353515625,798.2051391601562,802.2344360351562
1242,768.7911987304688,792.1611938476562,797.3992919921875,779.6703491210938
1243,777.6557006835938,787.3259887695312,797.3992919921875,780.4761962890625
1244,787.7289428710938,789.7435913085938,796.996337890625,788.1318969726562
1245,784.1025390625,791.7582397460938,797.3992919921875,789.7435913085938
1246,786.1171875,792.5640869140625,796.1904907226562,790.5494384765625
1247,784.5054931640625,787.3259887695312,794.5787353515625,794.1758422851562
1248,783.2966918945312,784.908447265625,792.1611938476562,793.7728881835938
1249,785.3113403320312,795.7875366210938,795.3846435546875,787.3259887695312
1250,779.6703491210938,795.7875366210938,796.996337890625,779.2673950195312
1251,777.2527465820312,790.5494384765625,792.967041015625,778.4615478515625
1252,783.2966918945312,794.1758422851562,788.937744140625,780.4761962890625
1253,780.879150390625,793.7728881835938,788.5347900390625,774.4322509765625
1254,777.2527465820312,790.1465454101562,790.1465454101562,770.8058471679688
1255,783.2966918945312,793.3699340820312,789.3406372070312,787.7289428710938
1256,786.5201416015625,794.981689453125,789.3406372070312,794.5787353515625
1257,788.1318969726562,794.981689453125,790.5494384765625,788.1318969726562
1258,793.3699340820312,792.5640869140625,791.7582397460938,794.981689453125
1259,794.981689453125,792.5640869140625,792.5640869140625,797.8021850585938
1260,794.981689453125,794.981689453125,794.981689453125,796.996337890625
1261,794.1758422851562,790.1465454101562,795.7875366210938,801.4285888671875
1262,793.7728881835938,788.1318969726562,790.952392578125,799.8168334960938
1263,793.3699340820312,791.3552856445312,785.7142944335938,794.981689453125
1264,793.7728881835938,794.981689453125,790.1465454101562,798.6080322265625
1265,796.5933837890625,792.967041015625,797.3992919921875,795.7875366210938
1266,793.3699340820312,793.3699340820312,794.981689453125,794.1758422851562
1267,792.5640869140625,794.5787353515625,796.5933837890625,810.6959838867188
1268,792.5640869140625,792.1611938476562,797.3992919921875,805.4578857421875
1269,788.937744140625,789.3406372070312,796.996337890625,799.8168334960938
1270,790.5494384765625,786.5201416015625,800.6226806640625,806.2637329101562
1271,791.7582397460938,792.5640869140625,797.8021850585938,799.4139404296875
1272,790.1465454101562,796.5933837890625,798.2051391601562,789.7435913085938
1273,786.1171875,790.5494384765625,799.8168334960938,787.3259887695312
1274,784.908447265625,788.937744140625,797.3992919921875,784.1025390625
1275,786.1171875,793.3699340820312,798.6080322265625,784.908447265625
1276,788.937744140625,793.7728881835938,801.4285888671875,786.1171875
1277,786.5201416015625,790.952392578125,797.8021850585938,782.893798828125
1278,786.5201416015625,788.937744140625,792.967041015625,787.7289428710938
1279,788.5347900390625,789.3406372070312,790.1465454101562,789.3406372070312
1280,791.3552856445312,792.1611938476562,793.3699340820312,777.6557006835938
1281,796.996337890625,792.1611938476562,797.3992919921875,779.2673950195312
1282,794.981689453125,790.952392578125,798.6080322265625,783.2966918945312
1283,790.5494384765625,795.7875366210938,796.5933837890625,781.6849975585938
1284,791.7582397460938,796.5933837890625,793.7728881835938,782.087890625
1285,794.5787353515625,799.010986328125,792.1611938476562,784.5054931640625
1286,800.6226806640625,803.040283203125,792.967041015625,791.7582397460938
1287,801.8314819335938,804.2490844726562,790.952392578125,797.3992919921875
1288,797.8021850585938,802.2344360351562,797.3992919921875,801.4285888671875
1289,793.7728881835938,798.6080322265625,799.010986328125,807.87548828125
1290,798.2051391601562,796.1904907226562,790.5494384765625,817.5457763671875
1291,801.4285888671875,796.1904907226562,796.996337890625,812.7106323242188
1292,794.1758422851562,794.5787353515625,802.2344360351562,801.4285888671875
1293,792.1611938476562,789.7435913085938,794.981689453125,805.054931640625
1294,789.7435913085938,788.5347900390625,790.5494384765625,807.87548828125
1295,784.908447265625,788.937744140625,794.1758422851562,805.4578857421875
1296,785.3113403320312,790.952392578125,795.7875366210938,805.054931640625
1297,786.1171875,795.7875366210938,792.5640869140625,805.4578857421875
1298,783.6996459960938,797.8021850585938,791.7582397460938,800.6226806640625
1299,784.5054931640625,794.981689453125,795.3846435546875,789.7435913085938
1300,782.893798828125,792.5640869140625,794.981689453125,784.5054931640625
1301,782.893798828125,792.1611938476562,793.7728881835938,785.7142944335938
1302,788.5347900390625,792.1611938476562,793.3699340820312,787.7289428710938
1303,788.5347900390625,799.010986328125,791.7582397460938,782.4908447265625
1304,791.3552856445312,802.2344360351562,795.3846435546875,786.923095703125
1305,794.981689453125,795.3846435546875,796.1904907226562,793.3699340820312
1306,797.3992919921875,791.3552856445312,791.7582397460938,792.967041015625
1307,798.2051391601562,788.5347900390625,792.967041015625,794.5787353515625
1308,801.4285888671875,794.1758422851562,796.5933837890625,799.8168334960938
1309,798.2051391601562,791.3552856445312,796.5933837890625,800.2197875976562
1310,793.7728881835938,792.967041015625,800.2197875976562,794.1758422851562
1311,801.025634765625,797.3992919921875,803.040283203125,795.3846435546875
1312,796.5933837890625,788.937744140625,798.6080322265625,792.1611938476562
1313,786.5201416015625,785.3113403320312,790.1465454101562,791.3552856445312
1314,784.5054931640625,790.5494384765625,794.1758422851562,794.981689453125
1315,786.5201416015625,791.3552856445312,798.2051391601562,797.8021850585938
1316,787.3259887695312,791.3552856445312,793.7728881835938,796.5933837890625
1317,783.2966918945312,790.1465454101562,796.1904907226562,793.7728881835938
1318,788.1318969726562,789.7435913085938,800.2197875976562,797.3992919921875
1319,790.952392578125,796.1904907226562,800.6226806640625,800.2197875976562
1320,788.937744140625,791.7582397460938,799.010986328125,798.2051391601562
1321,790.5494384765625,780.879150390625,796.1904907226562,796.5933837890625
1322,792.5640869140625,788.5347900390625,793.7728881835938,795.7875366210938
1323,789.3406372070312,801.025634765625,794.5787353515625,790.5494384765625
1324,787.3259887695312,796.1904907226562,795.3846435546875,786.923095703125
1325,789.7435913085938,792.1611938476562,795.3846435546875,792.1611938476562
1326,791.3552856445312,797.3992919921875,799.010986328125,791.3552856445312
1327,795.7875366210938,796.996337890625,796.1904907226562,790.1465454101562
1328,803.4432373046875,791.3552856445312,795.7875366210938,794.1758422851562
1329,801.025634765625,786.923095703125,795.7875366210938,788.1318969726562
1330,794.1758422851562,784.5054931640625,794.1758422851562,785.7142944335938
1331,793.3699340820312,784.5054931640625,796.5933837890625,791.3552856445312
1332,799.4139404296875,790.952392578125,794.5787353515625,791.3552856445312
1333,799.8168334960938,788.937744140625,793.7728881835938,791.3552856445312
1334,795.7875366210938,787.3259887695312,794.1758422851562,795.7875366210938
1335,794.1758422851562,796.5933837890625,790.952392578125,799.010986328125
1336,792.1611938476562,796.5933837890625,792.967041015625,801.4285888671875
1337,787.7289428710938,790.5494384765625,793.3699340820312,801.025634765625
1338,788.1318969726562,793.3699340820312,788.5347900390625,801.8314819335938
1339,799.4139404296875,794.981689453125,792.5640869140625,810.2930297851562
1340,798.2051391601562,792.1611938476562,792.5640869140625,811.098876953125
1341,787.3259887695312,793.7728881835938,790.1465454101562,799.4139404296875
1342,790.952392578125,794.981689453125,791.7582397460938,803.4432373046875
1343,792.967041015625,792.1611938476562,792.967041015625,805.054931640625
1344,786.923095703125,787.3259887695312,790.5494384765625,792.5640869140625
1345,792.5640869140625,789.7435913085938,793.7728881835938,789.7435913085938
1346,801.025634765625,795.3846435546875,797.8021850585938,798.2051391601562
1347,796.5933837890625,790.952392578125,797.8021850585938,797.8021850585938
1348,795.7875366210938,790.952392578125,801.025634765625,788.1318969726562
1349,794.1758422851562,799.4139404296875,794.5787353515625,780.879150390625
1350,794.1758422851562,796.996337890625,792.1611938476562,779.6703491210938
1351,796.5933837890625,795.3846435546875,791.7582397460938,785.7142944335938
1352,794.1758422851562,797.3992919921875,793.3699340820312,788.937744140625
1353,792.1611938476562,792.5640869140625,795.7875366210938,790.1465454101562
1354,792.1611938476562,788.5347900390625,794.981689453125,795.7875366210938
1355,792.967041015625,790.1465454101562,796.996337890625,795.7875366210938
1356,788.5347900390625,792.967041015625,799.8168334960938,797.3992919921875
1357,786.923095703125,793.3699340820312,799.8168334960938,802.6373901367188
1358,792.5640869140625,790.1465454101562,799.8168334960938,809.89013671875
1359,792.967041015625,788.5347900390625,803.040283203125,812.3076782226562
1360,789.7435913085938,793.3699340820312,799.010986328125,804.2490844726562
1361,789.7435913085938,796.5933837890625,798.2051391601562,800.6226806640625
1362,794.981689453125,790.5494384765625,799.010986328125,797.8021850585938
1363,799.8168334960938,790.952392578125,795.7875366210938,802.2344360351562
1364,797.8021850585938,796.996337890625,799.8168334960938,811.098876953125
1365,793.3699340820312,794.5787353515625,801.025634765625,807.4725341796875
1366,792.967041015625,792.967041015625,796.1904907226562,799.4139404296875
1367,796.1904907226562,791.3552856445312,792.1611938476562,791.7582397460938
1368,799.8168334960938,791.3552856445312,791.3552856445312,793.3699340820312
1369,792.967041015625,788.5347900390625,789.7435913085938,796.5933837890625
1370,793.3699340820312,785.7142944335938,788.937744140625,799.4139404296875
1371,799.8168334960938,786.5201416015625,792.5640869140625,806.6666870117188
1372,794.981689453125,786.5201416015625,792.967041015625,796.996337890625
1373,798.2051391601562,789.3406372070312,792.967041015625,788.1318969726562
1374,801.4285888671875,789.7435913085938,794.1758422851562,796.5933837890625
1375,797.8021850585938,791.3552856445312,788.5347900390625,788.1318969726562
1376,792.5640869140625,793.3699340820312,788.937744140625,782.893798828125
1377,788.1318969726562,792.5640869140625,792.967041015625,792.1611938476562
1378,786.1171875,791.7582397460938,793.3699340820312,794.981689453125
1379,783.6996459960938,790.5494384765625,796.1904907226562,791.7582397460938
1380,787.7289428710938,788.5347900390625,794.1758422851562,794.1758422851562
1381,788.937744140625,787.7289428710938,790.952392578125,793.3699340820312
1382,791.3552856445312,791.7582397460938,792.967041015625,798.6080322265625
1383,795.7875366210938,796.5933837890625,796.5933837890625,805.8607788085938
1384,793.7728881835938,797.3992919921875,796.1904907226562,798.2051391601562
1385,788.937744140625,794.5787353515625,792.1611938476562,788.937744140625
1386,788.5347900390625,788.5347900390625,792.1611938476562,790.952392578125
1387,790.1465454101562,785.3113403320312,796.5933837890625,784.908447265625
1388,792.5640869140625,786.923095703125,797.3992919921875,778.8644409179688
1389,800.2197875976562,791.7582397460938,796.996337890625,786.1171875
1390,799.4139404296875,796.5933837890625,794.1758422851562,791.3552856445312
1391,796.5933837890625,796.1904907226562,793.3699340820312,792.967041015625
1392,794.5787353515625,790.952392578125,796.1904907226562,793.3699340820312
1393,797.8021850585938,789.7435913085938,796.1904907226562,797.3992919921875
1394,799.8168334960938,794.5787353515625,794.981689453125,791.7582397460938
1395,796.5933837890625,794.5787353515625,796.5933837890625,786.923095703125
1396,791.7582397460938,794.1758422851562,799.010986328125,792.5640869140625
1397,788.5347900390625,793.7728881835938,797.3992919921875,796.5933837890625
1398,793.3699340820312,796.5933837890625,797.3992919921875,797.8021850585938
1399,789.3406372070312,797.3992919921875,798.2051391601562,789.7435913085938
1400,788.1318969726562,795.7875366210938,796.5933837890625,786.1171875
1401,788.937744140625,793.3699340820312,792.967041015625,787.7289428710938
1402,783.2966918945312,789.7435913085938,792.5640869140625,789.7435913085938
1403,786.5201416015625,791.3552856445312,797.3992919921875,793.7728881835938
1404,791.3552856445312,793.3699340820312,797.3992919921875,791.3552856445312
1405,792.5640869140625,790.5494384765625,794.981689453125,786.923095703125
1406,793.7728881835938,789.7435913085938,792.1611938476562,792.1611938476562
1407,795.7875366210938,791.3552856445312,790.5494384765625,792.967041015625
1408,795.7875366210938,789.3406372070312,789.3406372070312,786.1171875
1409,799.010986328125,785.7142944335938,791.7582397460938,796.996337890625
1410,794.1758422851562,792.5640869140625,798.6080322265625,795.7875366210938
1411,791.3552856445312,797.3992919921875,802.2344360351562,787.7289428710938
1412,792.967041015625,792.967041015625,800.6226806640625,786.923095703125
1413,792.967041015625,793.3699340820312,799.010986328125,784.5054931640625
1414,794.1758422851562,793.3699340820312,798.2051391601562,782.087890625
1415,792.5640869140625,787.7289428710938,800.6226806640625,788.1318969726562
1416,794.981689453125,791.7582397460938,801.8314819335938,799.4139404296875
1417,792.1611938476562,792.967041015625,800.2197875976562,795.7875366210938
1418,788.937744140625,790.5494384765625,801.025634765625,795.7875366210938
1419,784.5054931640625,786.5201416015625,796.996337890625,794.1758422851562
1420,784.1025390625,786.923095703125,794.1758422851562,791.3552856445312
1421,789.7435913085938,793.7728881835938,792.967041015625,797.8021850585938
1422,786.5201416015625,792.967041015625,790.1465454101562,790.952392578125
1423,787.3259887695312,793.3699340820312,793.7728881835938,792.967041015625
1424,797.3992919921875,794.5787353515625,798.2051391601562,802.6373901367188
1425,796.1904907226562,792.5640869140625,795.7875366210938,802.2344360351562
1426,786.5201416015625,794.1758422851562,791.3552856445312,796.996337890625
1427,783.6996459960938,793.3699340820312,789.3406372070312,789.7435913085938
1428,784.5054931640625,790.952392578125,791.3552856445312,786.1171875
1429,791.3552856445312,790.5494384765625,792.5640869140625,792.5640869140625
1430,793.3699340820312,792.1611938476562,787.7289428710938,792.967041015625
1431,792.1611938476562,796.1904907226562,788.937744140625,793.7728881835938
1432,789.3406372070312,796.1904907226562,788.1318969726562,798.2051391601562
1433,785.3113403320312,797.3992919921875,786.923095703125,796.1904907226562
1434,790.952392578125,794.5787353515625,788.1318969726562,792.1611938476562
1435,796.1904907226562,794.1758422851562,784.5054931640625,796.996337890625
1436,795.3846435546875,795.7875366210938,786.5201416015625,801.025634765625
1437,793.3699340820312,794.1758422851562,791.3552856445312,795.7875366210938
1438,792.1611938476562,787.7289428710938,792.1611938476562,790.5494384765625
1439,794.5787353515625,787.7289428710938,792.5640869140625,787.3259887695312
1440,795.3846435546875,794.5787353515625,792.1611938476562,790.5494384765625
1441,792.967041015625,796.5933837890625,794.981689453125,793.7728881835938
1442,791.3552856445312,796.996337890625,792.5640869140625,797.3992919921875
1443,786.5201416015625,793.3699340820312,790.952392578125,797.8021850585938
1444,787.7289428710938,785.7142944335938,792.5640869140625,791.7582397460938
1445,789.7435913085938,787.7289428710938,793.7728881835938,788.1318969726562
1446,790.952392578125,790.952392578125,794.1758422851562,787.7289428710938
1447,800.2197875976562,788.5347900390625,794.981689453125,797.3992919921875
1448,797.8021850585938,789.3406372070312,798.6080322265625,798.6080322265625
1449,792.1611938476562,788.5347900390625,800.2197875976562,792.1611938476562
1450,796.1904907226562,788.5347900390625,801.4285888671875,792.1611938476562
1451,799.8168334960938,792.1611938476562,800.6226806640625,790.5494384765625
1452,794.981689453125,792.5640869140625,795.7875366210938,787.7289428710938
1453,791.3552856445312,788.937744140625,790.952392578125,784.5054931640625
1454,791.7582397460938,786.5201416015625,790.952392578125,791.3552856445312
1455,795.3846435546875,786.1171875,792.967041015625,802.2344360351562
1456,793.7728881835938,786.5201416015625,792.967041015625,795.7875366210938
1457,788.1318969726562,784.5054931640625,794.981689453125,786.5201416015625
1458,787.7289428710938,781.6849975585938,798.2051391601562,792.5640869140625
1459,793.7728881835938,783.6996459960938,797.8021850585938,798.6080322265625
1460,790.1465454101562,793.7728881835938,794.981689453125,791.7582397460938
1461,778.05859375,796.5933837890625,792.5640869140625,784.5054931640625
1462,780.879150390625,791.3552856445312,791.7582397460938,786.923095703125
1463,789.7435913085938,793.3699340820312,790.5494384765625,786.1171875
1464,790.1465454101562,795.3846435546875,790.5494384765625,780.0732421875
1465,790.952392578125,794.5787353515625,792.967041015625,781.6849975585938
1466,798.2051391601562,795.3846435546875,794.981689453125,796.5933837890625
1467,799.010986328125,790.952392578125,794.981689453125,797.8021850585938
1468,794.981689453125,788.1318969726562,792.1611938476562,786.923095703125
1469,795.7875366210938,795.7875366210938,793.3699340820312,792.967041015625
1470,793.3699340820312,791.3552856445312,793.7728881835938,796.5933837890625
1471,790.5494384765625,788.1318969726562,792.967041015625,794.5787353515625
1472,794.981689453125,804.2490844726562,795.7875366210938,790.5494384765625
1473,797.8021850585938,803.040283203125,792.5640869140625,795.7875366210938
1474,801.025634765625,796.1904907226562,786.923095703125,801.025634765625
1475,796.996337890625,792.5640869140625,791.7582397460938,795.7875366210938
1476,783.2966918945312,789.3406372070312,796.1904907226562,784.908447265625
1477,783.6996459960938,792.5640869140625,791.3552856445312,780.4761962890625
1478,789.7435913085938,786.1171875,790.5494384765625,787.3259887695312
1479,789.7435913085938,784.908447265625,788.937744140625,790.1465454101562
1480,795.7875366210938,793.7728881835938,792.5640869140625,794.5787353515625
1481,794.5787353515625,794.1758422851562,794.981689453125,796.1904907226562
1482,790.1465454101562,788.5347900390625,790.1465454101562,791.3552856445312
1483,790.952392578125,788.1318969726562,790.1465454101562,784.1025390625
1484,788.5347900390625,787.3259887695312,786.5201416015625,780.4761962890625
1485,784.908447265625,792.967041015625,789.7435913085938,783.2966918945312
1486,785.3113403320312,802.6373901367188,791.7582397460938,789.3406372070312
1487,786.923095703125,801.8314819335938,788.1318969726562,790.5494384765625
1488,788.937744140625,800.6226806640625,790.1465454101562,789.3406372070312
1489,789.7435913085938,796.996337890625,793.7728881835938,792.967041015625
1490,790.1465454101562,796.1904907226562,795.3846435546875,790.5494384765625
1491,790.1465454101562,796.996337890625,790.952392578125,786.923095703125
1492,784.5054931640625,793.7728881835938,786.5201416015625,782.4908447265625
1493,782.087890625,789.3406372070312,790.5494384765625,784.1025390625
1494,785.7142944335938,787.7289428710938,793.7728881835938,788.1318969726562
1495,785.7142944335938,786.5201416015625,790.5494384765625,782.893798828125
1496,791.7582397460938,787.7289428710938,792.1611938476562,787.7289428710938
1497,794.5787353515625,789.3406372070312,789.7435913085938,789.7435913085938
1498,799.010986328125,792.1611938476562,793.7728881835938,796.1904907226562
1499,800.2197875976562,796.996337890625,799.8168334960938,805.054931640625
1500,801.8314819335938,796.1904907226562,792.1611938476562,798.6080322265625
1501,801.4285888671875,794.5787353515625,791.3552856445312,795.7875366210938
1502,796.5933837890625,798.6080322265625,796.996337890625,801.8314819335938
1503,797.3992919921875,795.3846435546875,795.7875366210938,806.2637329101562
1504,800.2197875976562,792.1611938476562,795.3846435546875,807.069580078125
1505,803.8461303710938,793.3699340820312,796.1904907226562,811.5018310546875
1506,799.8168334960938,790.5494384765625,796.1904907226562,803.040283203125
1507,795.3846435546875,792.5640869140625,797.8021850585938,788.1318969726562
1508,795.7875366210938,795.7875366210938,796.5933837890625,795.3846435546875
1509,794.1758422851562,794.5787353515625,793.3699340820312,793.3699340820312
1510,786.5201416015625,794.5787353515625,794.5787353515625,785.3113403320312
1511,788.937744140625,792.1611938476562,794.5787353515625,788.1318969726562
1512,792.967041015625,791.3552856445312,793.3699340820312,796.5933837890625
1513,786.5201416015625,794.5787353515625,797.3992919921875,800.6226806640625
1514,788.1318969726562,797.3992919921875,800.6226806640625,799.8168334960938
1515,790.952392578125,799.010986328125,800.2197875976562,797.3992919921875
1516,791.7582397460938,797.8021850585938,796.996337890625,794.981689453125
1517,792.5640869140625,792.1611938476562,798.2051391601562,792.5640869140625
1518,787.3259887695312,793.7728881835938,806.6666870117188,786.1171875
1519,790.5494384765625,795.3846435546875,806.2637329101562,785.3113403320312
1520,790.1465454101562,789.7435913085938,798.6080322265625,787.3259887695312
1521,790.1465454101562,792.967041015625,799.010986328125,786.5201416015625
1522,795.7875366210938,801.025634765625,802.6373901367188,787.7289428710938
1523,796.1904907226562,800.2197875976562,798.2051391601562,790.5494384765625
1524,791.7582397460938,790.952392578125,792.5640869140625,786.5201416015625
1525,783.2966918945312,790.952392578125,791.7582397460938,783.6996459960938
1526,781.2820434570312,792.967041015625,795.3846435546875,786.923095703125
1527,786.923095703125,788.937744140625,794.1758422851562,792.5640869140625
1528,787.7289428710938,786.5201416015625,789.3406372070312,803.040283203125
1529,783.2966918945312,787.3259887695312,794.5787353515625,796.5933837890625
1530,785.3113403320312,786.5201416015625,798.2051391601562,792.5640869140625
1531,792.5640869140625,789.7435913085938,795.3846435546875,805.4578857421875
1532,795.3846435546875,795.7875366210938,795.7875366210938,802.6373901367188
1533,792.967041015625,799.010986328125,798.2051391601562,798.6080322265625
1534,793.3699340820312,796.5933837890625,798.2051391601562,802.6373901367188
1535,791.3552856445312,793.7728881835938,796.996337890625,802.6373901367188
1536,790.5494384765625,794.1758422851562,799.8168334960938,800.2197875976562
1537,799.010986328125,800.2197875976562,802.6373901367188,796.996337890625
1538,798.2051391601562,802.6373901367188,800.2197875976562,790.952392578125
1539,796.5933837890625,795.7875366210938,796.5933837890625,790.1465454101562
1540,795.7875366210938,792.967041015625,795.3846435546875,793.7728881835938
1541,792.5640869140625,796.1904907226562,795.7875366210938,790.5494384765625
1542,793.3699340820312,794.1758422851562,793.3699340820312,786.5201416015625
1543,796.1904907226562,788.1318969726562,790.5494384765625,796.1904907226562
1544,794.5787353515625,789.7435913085938,788.937744140625,796.1904907226562
1545,791.3552856445312,794.5787353515625,791.3552856445312,788.1318969726562
1546,793.3699340820312,797.3992919921875,790.1465454101562,790.952392578125
1547,795.7875366210938,798.6080322265625,787.3259887695312,796.5933837890625
1548,793.3699340820312,795.7875366210938,786.1171875,796.5933837890625
1549,798.2051391601562,794.1758422851562,792.1611938476562,796.1904907226562
1550,794.981689453125,799.4139404296875,797.3992919921875,799.4139404296875
1551,787.3259887695312,800.6226806640625,791.7582397460938,806.6666870117188
1552,789.7435913085938,799.8168334960938,790.1465454101562,804.2490844726562
1553,788.1318969726562,796.996337890625,791.3552856445312,792.967041015625
1554,789.3406372070312,789.7435913085938,789.7435913085938,791.7582397460938
1555,794.981689453125,790.952392578125,788.937744140625,801.4285888671875
1556,792.1611938476562,798.2051391601562,795.3846435546875,801.4285888671875
1557,788.5347900390625,799.8168334960938,799.8168334960938,798.6080322265625
1558,786.1171875,790.952392578125,796.996337890625,798.2051391601562
1559,786.5201416015625,787.7289428710938,795.7875366210938,795.7875366210938
1560,785.3113403320312,789.7435913085938,799.4139404296875,794.981689453125
1561,784.5054931640625,788.5347900390625,795.7875366210938,793.3699340820312
1562,793.3699340820312,790.952392578125,789.3406372070312,794.981689453125
1563,792.1611938476562,788.937744140625,790.5494384765625,798.2051391601562
1564,793.3699340820312,786.923095703125,794.981689453125,801.025634765625
1565,795.3846435546875,793.7728881835938,794.1758422851562,795.3846435546875
1566,794.981689453125,794.981689453125,786.923095703125,798.2051391601562
1567,796.5933837890625,795.7875366210938,788.5347900390625,801.8314819335938
1568,797.8021850585938,796.996337890625,794.1758422851562,792.5640869140625
1569,798.2051391601562,797.3992919921875,796.1904907226562,796.5933837890625
1570,788.937744140625,802.6373901367188,797.3992919921875,791.3552856445312
1571,784.908447265625,803.040283203125,793.3699340820312,785.3113403320312
1572,787.3259887695312,797.3992919921875,792.5640869140625,790.1465454101562
1573,796.5933837890625,797.3992919921875,792.5640869140625,799.8168334960938
1574,800.2197875976562,796.1904907226562,790.1465454101562,796.996337890625
1575,795.7875366210938,797.8021850585938,790.5494384765625,791.3552856445312
1576,788.1318969726562,797.3992919921875,788.937744140625,792.967041015625
1577,787.7289428710938,795.3846435546875,792.1611938476562,792.967041015625
1578,792.1611938476562,795.7875366210938,794.981689453125,805.4578857421875
