timestamp,RAW_TP9,RAW_AF7,RAW_AF8,RAW_TP10
1,812.7106323242188,794.1758422851562,794.981689453125,805.8607788085938
2,810.2930297851562,791.7582397460938,795.7875366210938,803.8461303710938
3,809.084228515625,787.7289428710938,798.2051391601562,803.4432373046875
4,812.7106323242188,792.5640869140625,796.996337890625,800.6226806640625
5,816.3369750976562,794.1758422851562,797.8021850585938,801.025634765625
6,813.91943359375,793.7728881835938,797.8021850585938,804.6520385742188
7,817.5457763671875,788.937744140625,797.3992919921875,804.2490844726562
8,819.96337890625,786.1171875,794.1758422851562,807.069580078125
9,819.5604248046875,792.967041015625,789.7435913085938,813.113525390625
10,818.3516235351562,794.1758422851562,786.923095703125,814.7252807617188
11,816.3369750976562,795.3846435546875,787.3259887695312,811.098876953125
12,815.5311279296875,795.7875366210938,792.1611938476562,812.3076782226562
13,814.7252807617188,792.1611938476562,793.3699340820312,812.7106323242188
14,817.1428833007812,795.7875366210938,793.7728881835938,809.4871826171875
15,815.1282348632812,792.1611938476562,794.981689453125,807.069580078125
16,809.084228515625,786.1171875,792.1611938476562,807.069580078125
17,807.069580078125,785.7142944335938,791.7582397460938,808.2783813476562
18,807.4725341796875,786.5201416015625,789.7435913085938,809.4871826171875
19,803.4432373046875,790.1465454101562,787.3259887695312,813.113525390625
20,799.8168334960938,787.3259887695312,789.7435913085938,811.098876953125
21,797.3992919921875,784.908447265625,789.7435913085938,805.054931640625
22,797.8021850585938,783.2966918945312,796.1904907226562,806.6666870117188
23,803.4432373046875,784.1025390625,798.2051391601562,805.8607788085938
24,807.069580078125,790.5494384765625,801.4285888671875,807.069580078125
25,805.8607788085938,796.1904907226562,803.040283203125,804.2490844726562
26,800.2197875976562,792.967041015625,796.5933837890625,795.7875366210938
27,798.2051391601562,785.7142944335938,793.7728881835938,796.1904907226562
28,795.3846435546875,788.1318969726562,795.3846435546875,801.8314819335938
29,796.1904907226562,789.3406372070312,793.7728881835938,804.6520385742188
30,802.2344360351562,786.5201416015625,794.5787353515625,805.4578857421875
31,802.6373901367188,784.5054931640625,796.1904907226562,802.6373901367188
32,799.8168334960938,783.6996459960938,796.5933837890625,796.5933837890625
33,801.025634765625,784.1025390625,799.010986328125,805.054931640625
34,804.6520385742188,787.3259887695312,799.8168334960938,810.6959838867188
35,807.4725341796875,790.952392578125,801.8314819335938,807.87548828125
36,807.87548828125,790.952392578125,803.040283203125,809.4871826171875
37,797.8021850585938,790.5494384765625,799.010986328125,802.2344360351562
38,797.3992919921875,792.1611938476562,793.7728881835938,797.3992919921875
39,798.6080322265625,791.7582397460938,787.7289428710938,801.025634765625
40,798.2051391601562,789.7435913085938,790.1465454101562,801.025634765625
41,800.2197875976562,787.3259887695312,795.7875366210938,798.2051391601562
42,798.2051391601562,790.952392578125,794.1758422851562,793.3699340820312
43,794.5787353515625,798.2051391601562,794.981689453125,790.952392578125
44,798.2051391601562,803.040283203125,799.8168334960938,801.025634765625
45,801.4285888671875,797.3992919921875,802.2344360351562,807.069580078125
46,800.6226806640625,793.3699340820312,798.6080322265625,799.010986328125
47,797.3992919921875,792.1611938476562,791.7582397460938,792.967041015625
48,796.996337890625,788.5347900390625,792.5640869140625,794.981689453125
49,799.010986328125,790.5494384765625,796.996337890625,794.981689453125
50,805.054931640625,792.967041015625,798.6080322265625,796.5933837890625
51,803.040283203125,794.1758422851562,796.996337890625,797.3992919921875
52,795.3846435546875,795.3846435546875,796.5933837890625,791.7582397460938
53,795.7875366210938,795.3846435546875,792.1611938476562,791.7582397460938
54,799.010986328125,794.1758422851562,791.7582397460938,790.1465454101562
55,801.4285888671875,794.981689453125,796.5933837890625,787.3259887695312
56,798.6080322265625,796.5933837890625,795.3846435546875,791.7582397460938
57,795.3846435546875,793.3699340820312,794.1758422851562,798.6080322265625
58,790.952392578125,794.1758422851562,794.5787353515625,794.5787353515625
59,794.5787353515625,793.3699340820312,797.8021850585938,796.1904907226562
60,806.6666870117188,794.5787353515625,800.2197875976562,806.6666870117188
61,805.8607788085938,800.2197875976562,800.2197875976562,804.6520385742188
62,797.3992919921875,795.7875366210938,796.5933837890625,801.8314819335938
63,792.967041015625,790.1465454101562,790.1465454101562,801.8314819335938
64,794.5787353515625,790.5494384765625,790.952392578125,800.6226806640625
65,798.6080322265625,792.5640869140625,794.5787353515625,800.2197875976562
66,796.996337890625,789.7435913085938,796.1904907226562,795.3846435546875
67,791.7582397460938,788.1318969726562,794.5787353515625,788.937744140625
68,782.087890625,786.923095703125,792.5640869140625,785.7142944335938
69,779.6703491210938,787.3259887695312,795.3846435546875,790.5494384765625
70,782.087890625,789.7435913085938,795.7875366210938,790.5494384765625
71,781.6849975585938,785.3113403320312,795.7875366210938,788.937744140625
72,782.893798828125,788.937744140625,796.996337890625,795.7875366210938
73,786.1171875,791.7582397460938,797.8021850585938,796.996337890625
74,787.7289428710938,786.923095703125,797.3992919921875,794.5787353515625
75,789.7435913085938,792.1611938476562,799.4139404296875,794.1758422851562
76,790.5494384765625,791.7582397460938,799.4139404296875,788.1318969726562
77,785.7142944335938,791.7582397460938,799.010986328125,786.1171875
78,788.937744140625,798.2051391601562,800.6226806640625,788.1318969726562
79,794.5787353515625,797.8021850585938,803.040283203125,792.1611938476562
80,796.996337890625,799.010986328125,804.6520385742188,791.7582397460938
81,802.2344360351562,801.025634765625,803.040283203125,796.1904907226562
82,798.6080322265625,797.8021850585938,801.8314819335938,801.4285888671875
83,793.3699340820312,796.996337890625,799.8168334960938,790.952392578125
84,794.5787353515625,798.2051391601562,799.010986328125,793.3699340820312
85,795.7875366210938,799.8168334960938,796.5933837890625,799.4139404296875
86,799.4139404296875,802.2344360351562,795.3846435546875,794.1758422851562
87,798.6080322265625,799.4139404296875,794.5787353515625,790.5494384765625
88,796.996337890625,794.5787353515625,791.7582397460938,789.7435913085938
89,792.967041015625,795.3846435546875,794.5787353515625,791.7582397460938
90,783.6996459960938,793.7728881835938,792.967041015625,787.3259887695312
91,786.923095703125,792.967041015625,786.923095703125,788.5347900390625
92,790.1465454101562,796.1904907226562,790.1465454101562,789.3406372070312
93,786.1171875,793.7728881835938,790.952392578125,780.0732421875
94,782.087890625,789.3406372070312,788.1318969726562,777.2527465820312
95,783.6996459960938,788.937744140625,787.7289428710938,778.8644409179688
96,782.893798828125,785.7142944335938,787.3259887695312,776.8497924804688
97,785.3113403320312,782.893798828125,792.967041015625,782.4908447265625
98,785.7142944335938,786.5201416015625,798.2051391601562,785.7142944335938
99,784.1025390625,794.5787353515625,796.1904907226562,783.2966918945312
100,787.3259887695312,795.7875366210938,791.7582397460938,782.087890625
101,788.1318969726562,788.5347900390625,790.952392578125,781.2820434570312
102,792.1611938476562,784.908447265625,790.5494384765625,790.1465454101562
103,792.5640869140625,787.7289428710938,792.1611938476562,792.5640869140625
104,788.1318969726562,789.7435913085938,794.1758422851562,784.1025390625
105,792.1611938476562,784.908447265625,794.1758422851562,785.3113403320312
106,798.6080322265625,786.1171875,796.5933837890625,786.923095703125
107,798.2051391601562,790.5494384765625,793.3699340820312,783.6996459960938
108,796.1904907226562,790.5494384765625,792.1611938476562,784.5054931640625
109,790.1465454101562,786.5201416015625,793.7728881835938,787.3259887695312
110,788.5347900390625,785.3113403320312,794.1758422851562,789.7435913085938
111,787.7289428710938,788.5347900390625,793.3699340820312,788.937744140625
112,782.087890625,789.3406372070312,789.7435913085938,784.5054931640625
113,779.2673950195312,788.937744140625,786.5201416015625,784.1025390625
114,780.0732421875,791.3552856445312,787.3259887695312,786.1171875
115,778.05859375,793.3699340820312,788.1318969726562,784.5054931640625
116,773.6264038085938,788.1318969726562,785.3113403320312,782.4908447265625
117,779.2673950195312,784.1025390625,784.908447265625,784.908447265625
118,784.5054931640625,791.7582397460938,790.952392578125,790.5494384765625
119,785.3113403320312,794.5787353515625,791.7582397460938,787.3259887695312
120,782.893798828125,790.1465454101562,788.1318969726562,780.879150390625
121,784.1025390625,794.5787353515625,787.7289428710938,779.6703491210938
122,793.7728881835938,799.010986328125,788.5347900390625,784.1025390625
123,796.5933837890625,794.5787353515625,786.5201416015625,783.2966918945312
124,793.3699340820312,788.5347900390625,785.3113403320312,778.4615478515625
125,793.3699340820312,791.3552856445312,785.3113403320312,778.4615478515625
126,790.952392578125,794.1758422851562,785.3113403320312,783.2966918945312
127,791.7582397460938,790.5494384765625,788.937744140625,789.7435913085938
128,791.7582397460938,791.3552856445312,788.1318969726562,789.7435913085938
129,783.6996459960938,786.923095703125,784.1025390625,782.893798828125
130,779.2673950195312,781.6849975585938,784.5054931640625,784.908447265625
131,780.0732421875,782.4908447265625,786.5201416015625,784.5054931640625
132,789.7435913085938,783.2966918945312,786.1171875,782.087890625
133,785.3113403320312,786.1171875,790.1465454101562,784.908447265625
134,777.6557006835938,787.7289428710938,791.7582397460938,786.5201416015625
135,786.1171875,789.3406372070312,789.7435913085938,791.3552856445312
136,785.3113403320312,789.7435913085938,790.1465454101562,788.1318969726562
137,788.1318969726562,787.7289428710938,792.967041015625,801.025634765625
138,795.3846435546875,788.937744140625,792.5640869140625,809.084228515625
139,793.3699340820312,790.5494384765625,789.7435913085938,796.1904907226562
140,791.3552856445312,792.1611938476562,787.7289428710938,794.1758422851562
141,794.5787353515625,792.5640869140625,790.1465454101562,796.1904907226562
142,796.5933837890625,791.3552856445312,793.3699340820312,796.1904907226562
143,795.7875366210938,788.937744140625,791.7582397460938,791.7582397460938
144,793.7728881835938,790.1465454101562,795.7875366210938,791.7582397460938
145,792.5640869140625,792.1611938476562,797.8021850585938,799.8168334960938
146,792.967041015625,793.7728881835938,796.996337890625,799.4139404296875
147,793.3699340820312,795.7875366210938,794.1758422851562,790.1465454101562
148,794.5787353515625,794.1758422851562,790.5494384765625,788.1318969726562
149,788.5347900390625,791.3552856445312,786.1171875,788.5347900390625
150,784.908447265625,788.937744140625,784.908447265625,787.3259887695312
151,791.7582397460938,788.5347900390625,788.937744140625,793.7728881835938
152,790.952392578125,784.908447265625,793.3699340820312,803.4432373046875
153,784.1025390625,786.1171875,790.1465454101562,798.6080322265625
154,784.908447265625,783.6996459960938,787.7289428710938,787.7289428710938
155,780.879150390625,785.7142944335938,789.7435913085938,790.952392578125
156,783.6996459960938,787.3259887695312,790.1465454101562,792.5640869140625
157,794.5787353515625,786.923095703125,792.5640869140625,790.952392578125
158,795.7875366210938,793.7728881835938,796.1904907226562,786.5201416015625
159,793.3699340820312,794.981689453125,792.967041015625,784.1025390625
160,792.1611938476562,795.3846435546875,792.5640869140625,788.937744140625
161,789.7435913085938,796.5933837890625,799.8168334960938,793.7728881835938
162,792.1611938476562,794.5787353515625,801.8314819335938,796.5933837890625
163,795.7875366210938,791.7582397460938,793.3699340820312,797.8021850585938
164,795.3846435546875,790.1465454101562,786.5201416015625,799.010986328125
165,796.1904907226562,790.1465454101562,790.952392578125,790.5494384765625
166,793.3699340820312,789.3406372070312,789.3406372070312,780.879150390625
167,794.1758422851562,786.1171875,788.937744140625,781.2820434570312
168,799.8168334960938,784.5054931640625,788.937744140625,778.05859375
169,799.010986328125,790.952392578125,785.3113403320312,775.2380981445312
170,793.3699340820312,795.3846435546875,786.5201416015625,778.8644409179688
171,795.7875366210938,795.3846435546875,790.952392578125,793.3699340820312
172,795.3846435546875,797.3992919921875,790.952392578125,796.996337890625
173,791.3552856445312,798.2051391601562,792.1611938476562,784.5054931640625
174,789.3406372070312,792.967041015625,795.7875366210938,784.908447265625
175,790.5494384765625,790.952392578125,796.996337890625,791.3552856445312
176,788.5347900390625,788.937744140625,797.8021850585938,792.1611938476562
177,788.5347900390625,786.5201416015625,799.010986328125,791.7582397460938
178,797.8021850585938,791.3552856445312,800.6226806640625,792.967041015625
179,798.6080322265625,788.1318969726562,798.6080322265625,794.981689453125
180,787.3259887695312,790.952392578125,794.981689453125,783.6996459960938
181,778.8644409179688,796.996337890625,791.7582397460938,772.4176025390625
182,781.6849975585938,795.3846435546875,790.5494384765625,776.4468994140625
183,786.5201416015625,799.4139404296875,790.5494384765625,786.1171875
184,785.7142944335938,799.4139404296875,788.937744140625,793.3699340820312
185,786.1171875,794.981689453125,788.937744140625,790.952392578125
186,785.7142944335938,791.7582397460938,789.3406372070312,787.3259887695312
187,787.3259887695312,790.952392578125,789.3406372070312,792.967041015625
188,791.3552856445312,795.7875366210938,789.3406372070312,798.6080322265625
189,795.3846435546875,800.2197875976562,791.3552856445312,795.7875366210938
190,799.010986328125,801.8314819335938,791.3552856445312,793.3699340820312
191,799.4139404296875,803.4432373046875,792.5640869140625,792.967041015625
192,805.4578857421875,805.054931640625,797.3992919921875,796.5933837890625
193,805.8607788085938,800.2197875976562,799.8168334960938,799.010986328125
194,803.4432373046875,797.3992919921875,800.2197875976562,798.6080322265625
195,801.8314819335938,801.4285888671875,799.010986328125,792.967041015625
196,794.1758422851562,798.2051391601562,799.010986328125,788.5347900390625
197,794.981689453125,795.7875366210938,799.010986328125,790.952392578125
198,800.2197875976562,794.1758422851562,798.2051391601562,792.5640869140625
199,798.2051391601562,791.7582397460938,801.4285888671875,794.1758422851562
200,794.1758422851562,799.4139404296875,807.4725341796875,795.7875366210938
201,791.7582397460938,805.054931640625,807.069580078125,788.937744140625
202,788.5347900390625,799.4139404296875,803.4432373046875,790.5494384765625
203,788.1318969726562,792.967041015625,803.4432373046875,799.4139404296875
204,783.2966918945312,790.5494384765625,798.2051391601562,790.5494384765625
205,780.0732421875,789.3406372070312,794.981689453125,785.7142944335938
206,779.2673950195312,782.087890625,794.981689453125,784.908447265625
207,774.8351440429688,777.2527465820312,790.5494384765625,778.8644409179688
208,778.4615478515625,780.879150390625,791.7582397460938,780.879150390625
209,788.1318969726562,782.087890625,791.7582397460938,790.1465454101562
210,790.5494384765625,785.3113403320312,794.1758422851562,795.7875366210938
211,789.3406372070312,787.3259887695312,796.1904907226562,796.996337890625
212,788.5347900390625,787.3259887695312,794.981689453125,796.5933837890625
213,793.3699340820312,788.5347900390625,794.981689453125,797.8021850585938
214,796.1904907226562,785.7142944335938,795.7875366210938,805.4578857421875
215,790.5494384765625,786.1171875,794.1758422851562,798.2051391601562
216,788.5347900390625,788.1318969726562,790.1465454101562,786.5201416015625
217,786.1171875,786.5201416015625,790.952392578125,789.7435913085938
218,787.7289428710938,786.5201416015625,794.5787353515625,792.1611938476562
219,792.967041015625,790.1465454101562,792.967041015625,788.5347900390625
220,786.5201416015625,788.5347900390625,791.3552856445312,785.3113403320312
221,781.6849975585938,786.5201416015625,793.7728881835938,783.2966918945312
222,786.5201416015625,793.7728881835938,791.7582397460938,784.1025390625
223,790.1465454101562,796.996337890625,795.3846435546875,789.3406372070312
224,790.5494384765625,793.7728881835938,798.6080322265625,789.3406372070312
225,789.3406372070312,791.3552856445312,793.7728881835938,790.1465454101562
226,785.7142944335938,796.1904907226562,795.3846435546875,794.1758422851562
227,779.6703491210938,792.5640869140625,793.7728881835938,782.4908447265625
228,782.087890625,785.7142944335938,791.7582397460938,774.4322509765625
229,788.1318969726562,792.5640869140625,794.1758422851562,780.4761962890625
230,785.7142944335938,793.3699340820312,795.7875366210938,781.2820434570312
231,782.4908447265625,786.923095703125,795.7875366210938,775.6410522460938
232,781.2820434570312,788.5347900390625,796.1904907226562,778.05859375
233,780.879150390625,792.5640869140625,799.010986328125,782.893798828125
234,784.5054931640625,788.937744140625,793.7728881835938,789.7435913085938
235,790.5494384765625,791.3552856445312,788.5347900390625,793.7728881835938
236,791.3552856445312,794.1758422851562,792.967041015625,792.967041015625
237,791.3552856445312,790.1465454101562,794.1758422851562,795.7875366210938
238,792.967041015625,794.5787353515625,793.7728881835938,795.7875366210938
239,796.996337890625,798.2051391601562,796.5933837890625,795.7875366210938
240,801.4285888671875,793.3699340820312,798.2051391601562,793.7728881835938
241,802.2344360351562,789.7435913085938,793.7728881835938,786.923095703125
242,805.8607788085938,788.937744140625,792.967041015625,784.1025390625
243,804.2490844726562,789.3406372070312,794.981689453125,783.6996459960938
244,802.2344360351562,788.1318969726562,795.7875366210938,787.7289428710938
245,800.6226806640625,785.7142944335938,796.996337890625,788.937744140625
246,799.010986328125,784.5054931640625,794.5787353515625,786.1171875
247,805.054931640625,787.3259887695312,791.7582397460938,790.5494384765625
248,806.2637329101562,790.1465454101562,795.7875366210938,794.1758422851562
249,797.8021850585938,790.1465454101562,793.7728881835938,793.7728881835938
250,792.967041015625,788.937744140625,793.3699340820312,794.981689453125
251,797.3992919921875,792.5640869140625,799.4139404296875,792.967041015625
252,800.6226806640625,796.1904907226562,799.4139404296875,791.7582397460938
253,802.2344360351562,799.010986328125,798.2051391601562,793.7728881835938
254,795.3846435546875,799.8168334960938,799.8168334960938,791.7582397460938
255,791.3552856445312,798.6080322265625,799.010986328125,789.7435913085938
256,801.4285888671875,798.2051391601562,795.7875366210938,792.1611938476562
257,805.054931640625,800.2197875976562,796.5933837890625,801.8314819335938
258,798.6080322265625,796.996337890625,803.8461303710938,809.084228515625
259,798.6080322265625,795.7875366210938,801.4285888671875,803.040283203125
260,796.996337890625,799.010986328125,795.3846435546875,797.8021850585938
261,794.5787353515625,799.8168334960938,788.937744140625,797.3992919921875
262,794.5787353515625,796.5933837890625,786.5201416015625,794.981689453125
263,789.7435913085938,796.996337890625,786.1171875,784.5054931640625
264,784.908447265625,797.3992919921875,787.3259887695312,780.879150390625
265,787.3259887695312,798.6080322265625,790.952392578125,786.1171875
266,790.1465454101562,795.7875366210938,786.923095703125,785.7142944335938
267,788.5347900390625,797.8021850585938,785.7142944335938,782.893798828125
268,788.1318969726562,800.2197875976562,786.923095703125,786.1171875
269,783.6996459960938,795.3846435546875,784.908447265625,785.3113403320312
270,780.0732421875,794.1758422851562,784.5054931640625,778.8644409179688
271,776.0439453125,793.7728881835938,786.1171875,777.6557006835938
272,782.4908447265625,797.8021850585938,790.5494384765625,788.1318969726562
273,788.937744140625,794.981689453125,794.1758422851562,794.1758422851562
274,784.908447265625,782.893798828125,792.5640869140625,786.5201416015625
275,780.879150390625,780.4761962890625,789.7435913085938,786.1171875
276,778.05859375,786.923095703125,789.3406372070312,792.5640869140625
277,783.2966918945312,790.952392578125,789.7435913085938,793.3699340820312
278,789.7435913085938,792.967041015625,785.7142944335938,792.5640869140625
279,790.952392578125,794.981689453125,784.5054931640625,791.7582397460938
280,789.7435913085938,794.5787353515625,788.5347900390625,787.3259887695312
281,787.3259887695312,789.7435913085938,792.967041015625,786.5201416015625
282,786.923095703125,786.923095703125,789.7435913085938,792.1611938476562
283,783.6996459960938,782.087890625,785.7142944335938,790.5494384765625
284,780.879150390625,783.6996459960938,786.5201416015625,789.7435913085938
285,780.0732421875,785.3113403320312,788.5347900390625,792.1611938476562
286,780.879150390625,784.1025390625,788.937744140625,782.4908447265625
287,783.6996459960938,778.8644409179688,789.3406372070312,780.0732421875
288,784.1025390625,782.4908447265625,794.1758422851562,784.908447265625
289,783.2966918945312,784.5054931640625,795.3846435546875,785.7142944335938
290,786.5201416015625,785.3113403320312,796.5933837890625,782.4908447265625
291,784.1025390625,791.3552856445312,799.010986328125,780.4761962890625
292,782.087890625,793.3699340820312,794.981689453125,784.5054931640625
293,782.893798828125,788.5347900390625,791.3552856445312,784.908447265625
294,784.908447265625,786.1171875,795.3846435546875,786.5201416015625
295,783.6996459960938,788.937744140625,797.3992919921875,787.7289428710938
296,780.4761962890625,790.5494384765625,798.2051391601562,785.7142944335938
297,779.6703491210938,791.7582397460938,794.1758422851562,781.6849975585938
298,792.967041015625,790.5494384765625,792.5640869140625,790.952392578125
299,795.7875366210938,788.1318969726562,791.3552856445312,792.1611938476562
300,785.3113403320312,788.937744140625,789.7435913085938,778.8644409179688
301,784.1025390625,788.937744140625,791.3552856445312,774.8351440429688
302,783.2966918945312,786.923095703125,793.7728881835938,784.5054931640625
303,784.1025390625,788.5347900390625,795.7875366210938,789.7435913085938
304,788.1318969726562,790.952392578125,799.4139404296875,784.908447265625
305,785.7142944335938,794.1758422851562,799.010986328125,786.1171875
306,785.3113403320312,795.7875366210938,797.8021850585938,790.5494384765625
307,783.6996459960938,794.1758422851562,799.8168334960938,791.3552856445312
308,782.087890625,788.937744140625,794.981689453125,788.1318969726562
309,790.952392578125,784.908447265625,796.5933837890625,784.908447265625
310,790.1465454101562,790.1465454101562,795.7875366210938,786.1171875
311,789.7435913085938,794.1758422851562,792.1611938476562,789.7435913085938
312,794.981689453125,793.7728881835938,794.1758422851562,793.3699340820312
313,792.1611938476562,789.3406372070312,796.1904907226562,795.3846435546875
314,792.5640869140625,789.7435913085938,796.5933837890625,793.7728881835938
315,795.3846435546875,792.5640869140625,797.8021850585938,793.7728881835938
316,789.3406372070312,790.5494384765625,799.4139404296875,792.1611938476562
317,786.5201416015625,790.5494384765625,799.010986328125,796.5933837890625
318,793.3699340820312,793.3699340820312,797.3992919921875,803.8461303710938
319,794.981689453125,793.7728881835938,795.7875366210938,796.1904907226562
320,796.996337890625,793.7728881835938,798.2051391601562,790.1465454101562
321,794.981689453125,797.8021850585938,801.4285888671875,796.1904907226562
322,794.5787353515625,798.6080322265625,801.8314819335938,803.4432373046875
323,793.7728881835938,792.967041015625,798.2051391601562,801.8314819335938
324,797.3992919921875,789.7435913085938,800.2197875976562,798.2051391601562
325,798.6080322265625,792.5640869140625,801.025634765625,797.8021850585938
326,792.5640869140625,792.5640869140625,798.2051391601562,798.6080322265625
327,788.937744140625,792.967041015625,798.2051391601562,795.7875366210938
328,790.5494384765625,795.3846435546875,796.1904907226562,794.1758422851562
329,792.5640869140625,792.967041015625,795.3846435546875,791.3552856445312
330,792.5640869140625,787.7289428710938,796.1904907226562,790.952392578125
331,791.7582397460938,785.3113403320312,792.5640869140625,792.5640869140625
332,787.7289428710938,784.1025390625,790.1465454101562,786.1171875
333,788.5347900390625,784.1025390625,785.7142944335938,782.4908447265625
334,798.2051391601562,787.3259887695312,786.923095703125,791.3552856445312
335,797.8021850585938,786.1171875,790.1465454101562,790.5494384765625
336,795.7875366210938,788.1318969726562,793.3699340820312,790.1465454101562
337,801.8314819335938,787.7289428710938,796.996337890625,795.7875366210938
338,801.025634765625,784.908447265625,798.2051391601562,791.7582397460938
339,797.3992919921875,784.908447265625,798.6080322265625,788.5347900390625
340,797.8021850585938,794.1758422851562,796.996337890625,790.1465454101562
341,792.1611938476562,799.010986328125,793.7728881835938,789.7435913085938
342,785.7142944335938,794.5787353515625,794.1758422851562,787.3259887695312
343,782.087890625,793.3699340820312,796.1904907226562,785.7142944335938
344,787.7289428710938,793.7728881835938,792.5640869140625,784.908447265625
345,794.5787353515625,795.3846435546875,792.5640869140625,793.7728881835938
346,792.1611938476562,792.967041015625,794.5787353515625,800.2197875976562
347,791.7582397460938,794.981689453125,794.981689453125,793.3699340820312
348,795.3846435546875,801.025634765625,794.5787353515625,796.1904907226562
349,794.1758422851562,800.2197875976562,791.7582397460938,794.5787353515625
350,793.7728881835938,794.5787353515625,790.1465454101562,788.1318969726562
351,793.7728881835938,790.1465454101562,791.3552856445312,791.7582397460938
352,794.981689453125,791.7582397460938,793.3699340820312,794.981689453125
353,802.2344360351562,799.4139404296875,800.6226806640625,798.6080322265625
354,806.6666870117188,803.8461303710938,801.8314819335938,800.6226806640625
355,805.054931640625,800.6226806640625,796.996337890625,796.996337890625
356,797.8021850585938,794.5787353515625,796.996337890625,794.1758422851562
357,791.7582397460938,790.5494384765625,800.2197875976562,798.6080322265625
358,789.7435913085938,791.3552856445312,801.8314819335938,793.7728881835938
359,794.981689453125,793.3699340820312,799.8168334960938,787.7289428710938
360,801.025634765625,795.3846435546875,800.2197875976562,786.923095703125
361,798.6080322265625,796.1904907226562,801.025634765625,784.908447265625
362,794.981689453125,796.5933837890625,796.996337890625,793.3699340820312
363,794.981689453125,796.5933837890625,800.2197875976562,801.8314819335938
364,794.5787353515625,795.3846435546875,801.4285888671875,800.6226806640625
365,794.1758422851562,792.1611938476562,797.8021850585938,798.6080322265625
366,794.1758422851562,792.1611938476562,794.5787353515625,795.7875366210938
367,794.5787353515625,795.7875366210938,798.2051391601562,796.1904907226562
368,796.1904907226562,795.7875366210938,801.4285888671875,799.4139404296875
369,800.6226806640625,794.5787353515625,801.4285888671875,805.054931640625
370,796.1904907226562,792.1611938476562,801.8314819335938,793.3699340820312
371,788.5347900390625,789.3406372070312,799.010986328125,784.908447265625
372,786.1171875,790.5494384765625,796.5933837890625,788.1318969726562
373,784.908447265625,790.5494384765625,793.7728881835938,786.5201416015625
374,790.5494384765625,796.5933837890625,797.8021850585938,791.7582397460938
375,791.7582397460938,797.8021850585938,801.4285888671875,794.1758422851562
376,791.7582397460938,790.1465454101562,798.6080322265625,792.967041015625
377,787.7289428710938,792.1611938476562,799.4139404296875,794.981689453125
378,782.893798828125,794.981689453125,798.6080322265625,791.3552856445312
379,790.1465454101562,798.6080322265625,797.3992919921875,792.5640869140625
380,793.7728881835938,801.025634765625,794.981689453125,800.2197875976562
381,789.7435913085938,797.8021850585938,790.1465454101562,793.3699340820312
382,786.923095703125,798.2051391601562,787.7289428710938,783.2966918945312
383,784.1025390625,792.967041015625,788.5347900390625,781.2820434570312
384,788.1318969726562,792.5640869140625,788.937744140625,785.3113403320312
385,793.7728881835938,800.6226806640625,788.1318969726562,786.1171875
386,791.3552856445312,803.8461303710938,790.5494384765625,780.879150390625
387,786.923095703125,801.8314819335938,788.937744140625,780.879150390625
388,784.5054931640625,798.6080322265625,785.7142944335938,778.05859375
389,782.893798828125,792.967041015625,788.937744140625,781.2820434570312
390,783.2966918945312,788.1318969726562,787.3259887695312,780.0732421875
391,788.1318969726562,787.3259887695312,786.5201416015625,783.6996459960938
392,786.923095703125,790.5494384765625,790.952392578125,792.1611938476562
393,786.1171875,795.7875366210938,790.952392578125,788.1318969726562
394,790.1465454101562,792.967041015625,789.3406372070312,788.5347900390625
395,788.937744140625,789.3406372070312,789.3406372070312,789.3406372070312
396,789.7435913085938,792.5640869140625,792.5640869140625,788.937744140625
397,790.952392578125,797.8021850585938,793.3699340820312,786.923095703125
398,788.5347900390625,792.1611938476562,793.3699340820312,785.7142944335938
399,790.952392578125,788.937744140625,790.952392578125,788.1318969726562
400,791.3552856445312,793.3699340820312,792.967041015625,789.7435913085938
401,788.1318969726562,793.7728881835938,793.3699340820312,788.937744140625
402,789.3406372070312,795.7875366210938,793.3699340820312,790.952392578125
403,786.1171875,794.1758422851562,795.3846435546875,793.3699340820312
404,781.2820434570312,790.1465454101562,791.7582397460938,794.1758422851562
405,780.879150390625,788.937744140625,790.1465454101562,793.7728881835938
406,786.1171875,790.952392578125,789.3406372070312,792.5640869140625
407,787.7289428710938,793.3699340820312,792.1611938476562,791.7582397460938
408,789.7435913085938,790.952392578125,792.1611938476562,794.981689453125
409,793.7728881835938,788.5347900390625,795.3846435546875,797.8021850585938
410,787.7289428710938,789.7435913085938,801.8314819335938,790.952392578125
411,784.5054931640625,788.5347900390625,799.4139404296875,790.5494384765625
412,781.6849975585938,787.7289428710938,792.1611938476562,784.5054931640625
413,783.6996459960938,788.937744140625,788.937744140625,780.879150390625
414,782.893798828125,787.7289428710938,789.7435913085938,783.2966918945312
415,787.3259887695312,786.923095703125,795.3846435546875,783.6996459960938
416,796.5933837890625,788.5347900390625,798.6080322265625,782.893798828125
417,793.7728881835938,787.7289428710938,790.5494384765625,781.2820434570312
418,785.7142944335938,780.4761962890625,783.6996459960938,777.6557006835938
419,788.5347900390625,784.5054931640625,784.5054931640625,777.2527465820312
420,790.5494384765625,789.7435913085938,791.7582397460938,782.087890625
421,792.1611938476562,793.3699340820312,788.937744140625,788.937744140625
422,794.5787353515625,793.7728881835938,788.1318969726562,794.1758422851562
423,789.3406372070312,790.5494384765625,793.3699340820312,794.5787353515625
424,790.1465454101562,791.7582397460938,794.5787353515625,788.5347900390625
425,793.7728881835938,789.7435913085938,791.7582397460938,788.1318969726562
426,798.6080322265625,790.5494384765625,788.1318969726562,801.025634765625
427,798.2051391601562,792.5640869140625,794.1758422851562,804.6520385742188
428,793.3699340820312,792.1611938476562,796.5933837890625,794.981689453125
429,793.7728881835938,795.3846435546875,796.996337890625,791.3552856445312
430,792.967041015625,801.025634765625,796.1904907226562,794.981689453125
431,791.3552856445312,799.4139404296875,796.996337890625,794.1758422851562
432,791.7582397460938,790.1465454101562,800.2197875976562,789.7435913085938
433,790.1465454101562,794.5787353515625,801.8314819335938,786.5201416015625
434,786.923095703125,799.8168334960938,800.6226806640625,787.3259887695312
435,787.3259887695312,796.1904907226562,799.4139404296875,780.879150390625
436,790.5494384765625,792.5640869140625,796.5933837890625,772.8204956054688
437,791.7582397460938,792.967041015625,795.7875366210938,776.0439453125
438,790.952392578125,797.8021850585938,796.1904907226562,781.6849975585938
439,786.923095703125,798.6080322265625,797.8021850585938,782.893798828125
440,779.6703491210938,796.5933837890625,797.8021850585938,777.6557006835938
441,782.087890625,793.3699340820312,796.1904907226562,781.2820434570312
442,788.1318969726562,792.1611938476562,799.4139404296875,792.5640869140625
443,786.5201416015625,792.5640869140625,798.6080322265625,790.952392578125
444,784.908447265625,794.981689453125,796.996337890625,791.3552856445312
445,790.952392578125,798.6080322265625,799.8168334960938,794.5787353515625
446,798.6080322265625,798.6080322265625,799.010986328125,793.3699340820312
447,799.010986328125,797.8021850585938,795.7875366210938,792.1611938476562
448,794.5787353515625,796.1904907226562,799.8168334960938,791.7582397460938
449,791.7582397460938,794.5787353515625,799.010986328125,790.952392578125
450,790.952392578125,797.8021850585938,796.1904907226562,790.952392578125
451,793.3699340820312,796.5933837890625,796.1904907226562,789.7435913085938
452,795.3846435546875,792.5640869140625,793.7728881835938,788.1318969726562
453,796.1904907226562,791.7582397460938,792.967041015625,792.1611938476562
454,794.5787353515625,796.996337890625,798.6080322265625,794.5787353515625
455,796.1904907226562,800.2197875976562,802.6373901367188,788.5347900390625
456,793.7728881835938,792.1611938476562,801.025634765625,786.1171875
457,796.5933837890625,798.6080322265625,797.8021850585938,795.7875366210938
458,801.4285888671875,808.2783813476562,801.4285888671875,802.2344360351562
459,792.967041015625,802.2344360351562,799.8168334960938,796.5933837890625
460,787.7289428710938,797.8021850585938,795.7875366210938,790.5494384765625
461,789.3406372070312,794.981689453125,798.2051391601562,793.7728881835938
462,794.981689453125,796.5933837890625,795.3846435546875,800.2197875976562
463,796.996337890625,796.5933837890625,794.1758422851562,795.7875366210938
464,792.5640869140625,792.967041015625,794.981689453125,793.3699340820312
465,786.1171875,785.7142944335938,793.3699340820312,798.2051391601562
466,783.6996459960938,781.2820434570312,792.1611938476562,791.7582397460938
467,782.893798828125,787.3259887695312,791.7582397460938,784.5054931640625
468,783.2966918945312,790.5494384765625,794.1758422851562,787.7289428710938
469,789.7435913085938,790.5494384765625,797.3992919921875,786.1171875
470,790.952392578125,792.967041015625,796.996337890625,783.6996459960938
471,788.937744140625,793.7728881835938,793.3699340820312,781.2820434570312
472,787.7289428710938,794.5787353515625,796.5933837890625,779.2673950195312
473,787.7289428710938,792.967041015625,804.2490844726562,780.4761962890625
474,790.952392578125,790.952392578125,801.8314819335938,783.2966918945312
475,793.7728881835938,792.1611938476562,795.7875366210938,783.6996459960938
476,791.3552856445312,785.7142944335938,797.8021850585938,785.3113403320312
477,792.5640869140625,788.937744140625,803.040283203125,794.5787353515625
478,799.010986328125,792.1611938476562,801.8314819335938,794.5787353515625
479,794.981689453125,788.5347900390625,800.6226806640625,788.937744140625
480,790.5494384765625,794.5787353515625,802.2344360351562,790.5494384765625
481,789.7435913085938,793.7728881835938,796.996337890625,787.7289428710938
482,795.3846435546875,794.981689453125,792.1611938476562,790.5494384765625
483,796.1904907226562,797.8021850585938,793.3699340820312,796.996337890625
484,785.7142944335938,794.1758422851562,797.8021850585938,798.2051391601562
485,782.4908447265625,794.1758422851562,791.7582397460938,792.1611938476562
486,786.923095703125,789.3406372070312,785.7142944335938,790.952392578125
487,790.5494384765625,788.1318969726562,792.5640869140625,796.1904907226562
488,795.7875366210938,794.981689453125,792.967041015625,803.040283203125
489,793.3699340820312,798.6080322265625,792.1611938476562,795.7875366210938
490,788.5347900390625,797.3992919921875,792.967041015625,789.7435913085938
491,787.7289428710938,787.3259887695312,787.3259887695312,792.1611938476562
492,790.1465454101562,787.3259887695312,785.3113403320312,792.967041015625
493,791.3552856445312,794.1758422851562,791.3552856445312,790.5494384765625
494,791.3552856445312,794.1758422851562,796.5933837890625,790.1465454101562
495,792.1611938476562,796.996337890625,795.3846435546875,793.7728881835938
496,798.2051391601562,802.2344360351562,799.8168334960938,799.4139404296875
497,803.4432373046875,800.2197875976562,800.6226806640625,799.8168334960938
498,803.040283203125,793.7728881835938,794.981689453125,796.1904907226562
499,804.6520385742188,794.981689453125,790.1465454101562,796.5933837890625
500,798.2051391601562,793.7728881835938,790.5494384765625,791.7582397460938
501,784.1025390625,786.5201416015625,790.5494384765625,782.087890625
502,786.1171875,786.5201416015625,785.7142944335938,782.893798828125
503,793.3699340820312,789.3406372070312,786.923095703125,786.923095703125
504,793.3699340820312,790.952392578125,793.3699340820312,791.3552856445312
505,788.1318969726562,789.7435913085938,792.1611938476562,793.7728881835938
506,787.3259887695312,792.967041015625,793.3699340820312,793.7728881835938
507,789.3406372070312,793.7728881835938,793.3699340820312,795.7875366210938
508,787.3259887695312,787.3259887695312,789.7435913085938,794.1758422851562
509,791.7582397460938,789.7435913085938,792.967041015625,794.1758422851562
510,786.923095703125,791.3552856445312,793.3699340820312,791.3552856445312
511,781.6849975585938,786.1171875,790.952392578125,788.1318969726562
512,784.908447265625,788.937744140625,792.5640869140625,786.5201416015625
513,785.7142944335938,791.7582397460938,794.5787353515625,784.1025390625
514,790.5494384765625,788.937744140625,791.3552856445312,785.3113403320312
515,788.1318969726562,791.7582397460938,786.923095703125,780.879150390625
516,780.0732421875,792.967041015625,788.1318969726562,777.2527465820312
517,784.5054931640625,794.981689453125,789.7435913085938,781.6849975585938
518,796.1904907226562,801.8314819335938,791.7582397460938,797.8021850585938
519,798.2051391601562,804.6520385742188,792.5640869140625,804.6520385742188
520,804.6520385742188,804.6520385742188,796.1904907226562,797.3992919921875
521,807.069580078125,801.025634765625,797.3992919921875,788.5347900390625
522,799.010986328125,796.996337890625,796.1904907226562,785.3113403320312
523,794.1758422851562,790.5494384765625,792.5640869140625,784.908447265625
524,790.1465454101562,790.5494384765625,791.3552856445312,782.893798828125
525,790.5494384765625,799.010986328125,792.1611938476562,785.3113403320312
526,789.7435913085938,797.3992919921875,789.3406372070312,790.952392578125
527,786.1171875,792.5640869140625,791.3552856445312,788.5347900390625
528,784.5054931640625,793.3699340820312,786.5201416015625,784.1025390625
529,784.908447265625,793.3699340820312,785.7142944335938,789.7435913085938
530,786.1171875,793.7728881835938,788.5347900390625,788.1318969726562
531,782.893798828125,792.967041015625,790.5494384765625,780.4761962890625
532,780.0732421875,791.7582397460938,788.5347900390625,775.6410522460938
533,789.7435913085938,789.7435913085938,782.893798828125,779.2673950195312
534,789.3406372070312,790.5494384765625,781.6849975585938,783.6996459960938
535,776.8497924804688,789.3406372070312,782.893798828125,779.2673950195312
536,777.6557006835938,790.5494384765625,784.5054931640625,781.6849975585938
537,782.087890625,792.967041015625,789.7435913085938,785.3113403320312
538,786.5201416015625,791.7582397460938,789.7435913085938,782.087890625
539,793.3699340820312,790.5494384765625,790.5494384765625,784.1025390625
540,791.7582397460938,787.7289428710938,793.3699340820312,784.1025390625
541,786.923095703125,788.5347900390625,792.5640869140625,788.937744140625
542,790.5494384765625,796.5933837890625,791.3552856445312,796.996337890625
543,797.3992919921875,802.6373901367188,792.967041015625,792.967041015625
544,796.1904907226562,798.6080322265625,790.5494384765625,786.5201416015625
545,792.967041015625,792.967041015625,782.4908447265625,784.1025390625
546,788.937744140625,795.3846435546875,787.3259887695312,786.1171875
547,786.923095703125,795.3846435546875,784.1025390625,786.923095703125
548,800.6226806640625,795.7875366210938,783.6996459960938,795.3846435546875
549,801.025634765625,792.5640869140625,794.981689453125,799.8168334960938
550,791.7582397460938,786.923095703125,792.5640869140625,792.967041015625
551,786.1171875,789.3406372070312,786.1171875,785.7142944335938
552,780.4761962890625,790.5494384765625,790.1465454101562,788.5347900390625
553,778.4615478515625,792.1611938476562,790.1465454101562,789.3406372070312
554,782.4908447265625,793.7728881835938,784.908447265625,784.908447265625
555,785.7142944335938,788.5347900390625,790.1465454101562,782.893798828125
556,785.7142944335938,789.3406372070312,792.1611938476562,786.5201416015625
557,785.3113403320312,794.5787353515625,789.7435913085938,789.3406372070312
558,781.2820434570312,790.952392578125,788.937744140625,791.7582397460938
559,785.3113403320312,790.952392578125,789.3406372070312,792.5640869140625
560,789.7435913085938,795.7875366210938,794.981689453125,793.3699340820312
561,783.2966918945312,795.7875366210938,798.6080322265625,799.8168334960938
562,778.8644409179688,794.5787353515625,799.8168334960938,789.7435913085938
563,785.3113403320312,792.967041015625,799.4139404296875,785.7142944335938
564,789.7435913085938,789.7435913085938,793.3699340820312,791.7582397460938
565,786.923095703125,787.3259887695312,797.3992919921875,789.3406372070312
566,782.4908447265625,783.6996459960938,796.996337890625,784.908447265625
567,775.2380981445312,781.2820434570312,785.7142944335938,783.6996459960938
568,778.8644409179688,789.7435913085938,787.3259887695312,788.1318969726562
569,788.5347900390625,794.1758422851562,794.5787353515625,788.937744140625
570,793.3699340820312,790.952392578125,796.996337890625,788.5347900390625
571,799.4139404296875,789.3406372070312,792.5640869140625,787.7289428710938
572,800.2197875976562,790.5494384765625,792.967041015625,791.3552856445312
573,798.2051391601562,794.5787353515625,798.6080322265625,796.996337890625
574,798.2051391601562,788.1318969726562,800.2197875976562,793.3699340820312
575,794.1758422851562,784.5054931640625,797.8021850585938,790.5494384765625
576,792.5640869140625,784.5054931640625,797.3992919921875,789.7435913085938
577,794.5787353515625,789.7435913085938,801.4285888671875,791.3552856445312
578,799.010986328125,793.3699340820312,805.4578857421875,798.6080322265625
579,799.4139404296875,788.937744140625,802.6373901367188,799.010986328125
580,793.3699340820312,783.6996459960938,796.5933837890625,790.5494384765625
581,787.3259887695312,782.4908447265625,799.8168334960938,786.1171875
582,783.6996459960938,788.937744140625,804.6520385742188,788.5347900390625
583,782.893798828125,790.5494384765625,801.025634765625,791.3552856445312
584,783.2966918945312,783.2966918945312,797.3992919921875,793.3699340820312
585,779.6703491210938,780.879150390625,796.996337890625,785.3113403320312
586,777.6557006835938,787.3259887695312,798.6080322265625,782.087890625
587,778.8644409179688,791.3552856445312,799.010986328125,780.879150390625
588,773.6264038085938,790.1465454101562,797.8021850585938,776.4468994140625
589,768.3883056640625,787.7289428710938,799.8168334960938,776.0439453125
590,774.029296875,789.3406372070312,799.4139404296875,779.2673950195312
591,778.4615478515625,787.3259887695312,797.3992919921875,780.879150390625
592,777.2527465820312,789.7435913085938,792.967041015625,779.6703491210938
593,782.893798828125,798.2051391601562,796.996337890625,780.4761962890625
594,791.7582397460938,796.1904907226562,798.6080322265625,783.2966918945312
595,799.8168334960938,794.1758422851562,793.7728881835938,788.5347900390625
596,802.6373901367188,792.5640869140625,794.5787353515625,790.1465454101562
597,794.5787353515625,793.3699340820312,796.5933837890625,786.923095703125
598,792.5640869140625,798.2051391601562,798.2051391601562,787.7289428710938
599,803.8461303710938,797.3992919921875,799.4139404296875,793.7728881835938
600,808.6813354492188,791.3552856445312,795.7875366210938,799.010986328125
601,812.7106323242188,792.1611938476562,796.5933837890625,803.4432373046875
602,814.3223266601562,794.1758422851562,795.7875366210938,806.2637329101562
603,808.2783813476562,792.967041015625,791.3552856445312,803.4432373046875
604,808.6813354492188,797.3992919921875,793.7728881835938,799.8168334960938
605,809.4871826171875,799.4139404296875,794.981689453125,795.7875366210938
606,806.6666870117188,796.1904907226562,795.3846435546875,797.3992919921875
607,799.010986328125,793.3699340820312,795.7875366210938,798.6080322265625
608,792.967041015625,790.952392578125,796.5933837890625,794.981689453125
609,791.7582397460938,792.967041015625,793.7728881835938,793.7728881835938
610,793.3699340820312,794.1758422851562,790.1465454101562,798.2051391601562
611,795.3846435546875,795.3846435546875,793.7728881835938,799.8168334960938
612,787.3259887695312,798.6080322265625,798.2051391601562,788.1318969726562
613,773.2234497070312,793.7728881835938,796.996337890625,779.2673950195312
614,768.3883056640625,788.1318969726562,793.7728881835938,773.2234497070312
615,774.4322509765625,790.1465454101562,790.1465454101562,768.7911987304688
616,777.6557006835938,792.1611938476562,792.1611938476562,774.8351440429688
617,780.879150390625,792.967041015625,793.3699340820312,782.893798828125
618,782.893798828125,788.1318969726562,786.923095703125,785.3113403320312
619,783.6996459960938,788.937744140625,787.3259887695312,782.893798828125
620,787.7289428710938,793.3699340820312,789.7435913085938,783.2966918945312
621,792.1611938476562,792.967041015625,787.7289428710938,785.3113403320312
622,790.952392578125,792.1611938476562,784.908447265625,788.5347900390625
623,790.1465454101562,793.7728881835938,785.7142944335938,788.5347900390625
624,799.010986328125,799.8168334960938,793.3699340820312,786.923095703125
625,800.2197875976562,802.2344360351562,797.8021850585938,786.5201416015625
626,800.6226806640625,801.8314819335938,795.3846435546875,784.908447265625
627,799.4139404296875,800.2197875976562,790.952392578125,789.7435913085938
628,790.5494384765625,791.3552856445312,793.3699340820312,788.1318969726562
629,790.1465454101562,790.1465454101562,791.7582397460938,782.893798828125
630,798.2051391601562,799.010986328125,791.7582397460938,790.1465454101562
631,803.8461303710938,801.025634765625,797.8021850585938,801.8314819335938
632,795.3846435546875,795.7875366210938,800.6226806640625,796.996337890625
633,785.7142944335938,788.937744140625,796.996337890625,788.5347900390625
634,783.6996459960938,786.923095703125,789.7435913085938,788.937744140625
635,784.908447265625,791.7582397460938,791.3552856445312,788.937744140625
636,784.908447265625,793.3699340820312,793.7728881835938,786.1171875
637,786.5201416015625,790.1465454101562,795.7875366210938,788.5347900390625
638,781.2820434570312,788.937744140625,799.010986328125,784.5054931640625
639,778.8644409179688,786.5201416015625,794.981689453125,778.4615478515625
640,782.4908447265625,787.3259887695312,793.3699340820312,783.2966918945312
641,786.5201416015625,786.1171875,796.1904907226562,790.5494384765625
642,785.3113403320312,782.893798828125,796.996337890625,790.952392578125
643,779.6703491210938,783.2966918945312,796.996337890625,782.893798828125
644,780.879150390625,786.923095703125,798.2051391601562,776.0439453125
645,785.3113403320312,784.1025390625,793.3699340820312,779.2673950195312
646,792.967041015625,788.5347900390625,797.8021850585938,788.937744140625
647,792.967041015625,787.7289428710938,799.8168334960938,789.3406372070312
648,786.1171875,781.2820434570312,791.7582397460938,784.1025390625
649,787.7289428710938,786.923095703125,789.7435913085938,786.5201416015625
650,790.952392578125,789.7435913085938,793.3699340820312,790.952392578125
651,784.1025390625,784.5054931640625,789.3406372070312,782.4908447265625
652,787.3259887695312,784.908447265625,786.923095703125,779.6703491210938
653,795.7875366210938,788.937744140625,793.3699340820312,786.1171875
654,791.3552856445312,786.923095703125,791.3552856445312,787.3259887695312
655,790.5494384765625,782.4908447265625,786.5201416015625,786.5201416015625
656,803.8461303710938,784.908447265625,792.5640869140625,793.7728881835938
657,807.87548828125,791.7582397460938,794.981689453125,803.040283203125
658,799.4139404296875,794.5787353515625,790.5494384765625,796.996337890625
659,794.1758422851562,793.7728881835938,789.3406372070312,788.5347900390625
660,790.5494384765625,788.1318969726562,788.1318969726562,784.5054931640625
661,791.3552856445312,785.7142944335938,788.1318969726562,785.7142944335938
662,792.5640869140625,784.5054931640625,786.923095703125,784.5054931640625
663,792.5640869140625,783.2966918945312,785.7142944335938,786.923095703125
664,790.952392578125,786.923095703125,792.967041015625,791.7582397460938
665,794.5787353515625,794.1758422851562,799.4139404296875,793.7728881835938
666,800.6226806640625,791.7582397460938,803.040283203125,798.2051391601562
667,795.3846435546875,786.5201416015625,804.2490844726562,798.2051391601562
668,789.3406372070312,788.5347900390625,801.8314819335938,795.3846435546875
669,780.4761962890625,789.3406372070312,801.4285888671875,787.3259887695312
670,777.2527465820312,793.7728881835938,799.8168334960938,782.087890625
671,784.908447265625,789.7435913085938,797.8021850585938,786.923095703125
672,784.5054931640625,783.6996459960938,794.5787353515625,786.5201416015625
673,780.4761962890625,784.5054931640625,795.7875366210938,784.5054931640625
674,782.087890625,785.3113403320312,793.7728881835938,786.5201416015625
675,782.087890625,785.7142944335938,795.7875366210938,786.1171875
676,787.7289428710938,790.1465454101562,797.8021850585938,790.5494384765625
677,793.7728881835938,794.1758422851562,794.981689453125,794.1758422851562
678,788.1318969726562,792.5640869140625,794.1758422851562,791.3552856445312
679,784.5054931640625,788.5347900390625,792.1611938476562,787.7289428710938
680,788.937744140625,786.923095703125,786.5201416015625,788.1318969726562
681,794.5787353515625,787.3259887695312,788.1318969726562,788.937744140625
682,791.3552856445312,786.923095703125,789.3406372070312,780.879150390625
683,790.1465454101562,788.1318969726562,790.1465454101562,782.087890625
684,792.5640869140625,790.5494384765625,791.7582397460938,788.1318969726562
685,790.1465454101562,794.5787353515625,792.5640869140625,790.1465454101562
686,789.7435913085938,796.1904907226562,792.967041015625,790.5494384765625
687,795.3846435546875,796.1904907226562,789.7435913085938,794.1758422851562
688,797.3992919921875,796.5933837890625,789.7435913085938,798.2051391601562
689,791.3552856445312,791.3552856445312,792.967041015625,789.3406372070312
690,789.7435913085938,790.1465454101562,793.3699340820312,784.908447265625
691,796.996337890625,794.1758422851562,796.5933837890625,787.7289428710938
692,799.4139404296875,791.7582397460938,800.2197875976562,788.1318969726562
693,793.3699340820312,788.937744140625,796.1904907226562,788.937744140625
694,788.937744140625,788.5347900390625,795.3846435546875,793.7728881835938
695,788.937744140625,783.6996459960938,796.5933837890625,788.5347900390625
696,787.3259887695312,783.6996459960938,792.967041015625,787.3259887695312
697,786.923095703125,786.923095703125,791.7582397460938,794.5787353515625
698,794.5787353515625,789.3406372070312,795.7875366210938,799.8168334960938
699,795.3846435546875,789.7435913085938,796.996337890625,802.2344360351562
700,792.1611938476562,791.7582397460938,792.5640869140625,800.6226806640625
701,790.952392578125,794.981689453125,793.7728881835938,788.1318969726562
702,794.1758422851562,792.1611938476562,795.7875366210938,788.937744140625
703,801.8314819335938,789.7435913085938,796.996337890625,798.6080322265625
704,797.8021850585938,792.967041015625,797.3992919921875,793.3699340820312
705,792.967041015625,795.7875366210938,796.1904907226562,789.7435913085938
706,790.5494384765625,794.1758422851562,792.967041015625,790.5494384765625
707,792.1611938476562,792.5640869140625,796.5933837890625,794.1758422851562
708,794.1758422851562,795.3846435546875,796.996337890625,794.5787353515625
709,796.996337890625,795.3846435546875,792.967041015625,791.3552856445312
710,793.3699340820312,791.3552856445312,792.1611938476562,790.1465454101562
711,783.6996459960938,788.937744140625,787.7289428710938,782.4908447265625
712,783.2966918945312,788.1318969726562,782.087890625,778.8644409179688
713,789.7435913085938,789.3406372070312,786.1171875,782.087890625
714,790.952392578125,787.7289428710938,790.1465454101562,782.087890625
715,783.6996459960938,784.5054931640625,788.937744140625,774.8351440429688
716,775.6410522460938,789.3406372070312,783.6996459960938,774.029296875
717,774.4322509765625,788.1318969726562,786.1171875,777.2527465820312
718,778.8644409179688,786.5201416015625,786.923095703125,782.4908447265625
719,778.8644409179688,791.3552856445312,780.4761962890625,784.1025390625
720,777.2527465820312,789.3406372070312,777.6557006835938,774.4322509765625
721,779.2673950195312,792.1611938476562,781.6849975585938,773.2234497070312
722,783.2966918945312,796.1904907226562,784.1025390625,784.5054931640625
723,784.908447265625,793.7728881835938,782.087890625,788.937744140625
724,781.6849975585938,792.5640869140625,784.908447265625,786.1171875
725,780.4761962890625,791.7582397460938,787.3259887695312,788.1318969726562
726,779.6703491210938,791.7582397460938,786.923095703125,790.1465454101562
727,784.5054931640625,797.8021850585938,788.1318969726562,790.5494384765625
728,784.5054931640625,794.1758422851562,790.5494384765625,784.1025390625
729,785.7142944335938,786.1171875,788.937744140625,785.3113403320312
730,790.1465454101562,788.5347900390625,790.952392578125,792.5640869140625
731,789.7435913085938,795.7875366210938,791.3552856445312,786.1171875
732,791.7582397460938,799.010986328125,790.5494384765625,783.2966918945312
733,798.2051391601562,802.6373901367188,795.7875366210938,788.937744140625
734,799.4139404296875,801.4285888671875,799.8168334960938,789.7435913085938
735,795.7875366210938,798.6080322265625,794.5787353515625,787.7289428710938
736,795.7875366210938,799.8168334960938,794.1758422851562,794.5787353515625
737,798.2051391601562,796.5933837890625,798.2051391601562,798.2051391601562
738,800.2197875976562,797.3992919921875,801.4285888671875,798.6080322265625
739,802.2344360351562,798.6080322265625,803.8461303710938,803.040283203125
740,799.010986328125,797.3992919921875,805.8607788085938,793.3699340820312
741,789.7435913085938,792.967041015625,802.6373901367188,782.4908447265625
742,792.1611938476562,790.952392578125,800.6226806640625,784.1025390625
743,798.2051391601562,788.1318969726562,802.6373901367188,781.2820434570312
744,790.5494384765625,789.3406372070312,799.4139404296875,779.2673950195312
745,783.2966918945312,791.3552856445312,796.1904907226562,778.4615478515625
746,784.908447265625,790.5494384765625,803.4432373046875,780.879150390625
747,790.952392578125,791.7582397460938,810.6959838867188,784.1025390625
748,794.1758422851562,789.7435913085938,808.6813354492188,784.1025390625
749,795.3846435546875,792.1611938476562,803.4432373046875,784.1025390625
750,793.3699340820312,788.937744140625,801.4285888671875,782.893798828125
751,791.7582397460938,782.893798828125,797.8021850585938,780.4761962890625
752,797.3992919921875,789.3406372070312,796.5933837890625,785.7142944335938
753,799.4139404296875,792.5640869140625,800.6226806640625,794.5787353515625
754,801.4285888671875,793.7728881835938,802.2344360351562,793.3699340820312
755,806.6666870117188,798.2051391601562,801.4285888671875,788.937744140625
756,803.4432373046875,796.996337890625,803.4432373046875,792.1611938476562
757,799.4139404296875,794.1758422851562,807.069580078125,798.2051391601562
758,798.6080322265625,794.5787353515625,802.6373901367188,795.7875366210938
759,798.2051391601562,793.3699340820312,800.2197875976562,793.7728881835938
760,798.2051391601562,795.3846435546875,803.8461303710938,796.5933837890625
761,794.1758422851562,795.3846435546875,800.6226806640625,798.6080322265625
762,788.1318969726562,795.7875366210938,795.7875366210938,796.996337890625
763,785.7142944335938,798.2051391601562,795.3846435546875,793.3699340820312
764,787.3259887695312,794.1758422851562,798.2051391601562,796.996337890625
765,789.3406372070312,796.996337890625,796.5933837890625,799.8168334960938
766,788.937744140625,796.1904907226562,796.1904907226562,794.5787353515625
767,789.7435913085938,793.7728881835938,800.2197875976562,796.1904907226562
768,791.7582397460938,792.1611938476562,800.2197875976562,796.996337890625
769,795.3846435546875,788.937744140625,792.1611938476562,792.5640869140625
770,797.8021850585938,789.7435913085938,788.937744140625,791.3552856445312
771,794.981689453125,783.6996459960938,790.1465454101562,791.3552856445312
772,791.7582397460938,781.2820434570312,787.7289428710938,791.3552856445312
773,790.1465454101562,787.3259887695312,789.3406372070312,787.7289428710938
774,790.5494384765625,786.923095703125,790.952392578125,788.5347900390625
775,795.3846435546875,786.5201416015625,790.952392578125,791.3552856445312
776,791.3552856445312,789.3406372070312,792.967041015625,791.3552856445312
777,784.1025390625,789.3406372070312,790.5494384765625,782.893798828125
778,785.3113403320312,785.7142944335938,786.1171875,774.029296875
779,789.7435913085938,784.1025390625,784.908447265625,778.4615478515625
780,791.3552856445312,788.1318969726562,791.7582397460938,786.923095703125
781,790.952392578125,792.5640869140625,797.8021850585938,788.5347900390625
782,786.923095703125,785.7142944335938,787.3259887695312,781.6849975585938
783,786.1171875,786.923095703125,786.923095703125,779.6703491210938
784,788.5347900390625,790.5494384765625,790.5494384765625,782.087890625
785,791.3552856445312,786.5201416015625,788.5347900390625,783.2966918945312
786,793.3699340820312,793.7728881835938,792.1611938476562,783.6996459960938
787,793.3699340820312,796.996337890625,796.1904907226562,794.1758422851562
788,790.952392578125,794.1758422851562,794.981689453125,797.8021850585938
789,793.3699340820312,796.1904907226562,793.3699340820312,791.3552856445312
790,795.7875366210938,792.967041015625,793.3699340820312,792.967041015625
791,790.952392578125,789.3406372070312,787.7289428710938,788.5347900390625
792,791.7582397460938,792.967041015625,788.937744140625,783.2966918945312
793,794.5787353515625,792.1611938476562,791.7582397460938,784.1025390625
794,792.967041015625,791.3552856445312,791.7582397460938,781.2820434570312
795,794.981689453125,798.2051391601562,796.1904907226562,787.7289428710938
796,788.1318969726562,795.3846435546875,796.5933837890625,784.908447265625
797,787.7289428710938,794.1758422851562,789.7435913085938,780.879150390625
798,792.1611938476562,796.1904907226562,792.1611938476562,782.893798828125
799,791.3552856445312,793.7728881835938,795.3846435546875,786.923095703125
800,790.952392578125,790.952392578125,790.952392578125,786.923095703125
801,790.1465454101562,789.7435913085938,790.1465454101562,786.5201416015625
802,789.7435913085938,792.1611938476562,791.3552856445312,788.937744140625
803,789.7435913085938,790.5494384765625,793.3699340820312,785.7142944335938
804,793.3699340820312,790.952392578125,795.3846435546875,788.5347900390625
805,793.7728881835938,790.5494384765625,794.981689453125,784.908447265625
806,782.893798828125,781.6849975585938,794.5787353515625,781.6849975585938
807,779.6703491210938,782.087890625,794.5787353515625,786.1171875
808,782.4908447265625,788.5347900390625,790.5494384765625,781.6849975585938
809,777.6557006835938,787.7289428710938,785.3113403320312,776.0439453125
810,780.4761962890625,785.7142944335938,788.5347900390625,781.2820434570312
811,782.087890625,789.3406372070312,794.5787353515625,784.1025390625
812,781.2820434570312,793.3699340820312,796.1904907226562,784.5054931640625
813,788.5347900390625,792.5640869140625,794.981689453125,790.5494384765625
814,793.7728881835938,796.1904907226562,794.5787353515625,795.3846435546875
815,792.1611938476562,801.4285888671875,792.967041015625,792.1611938476562
816,792.5640869140625,798.2051391601562,789.3406372070312,788.1318969726562
817,793.7728881835938,794.5787353515625,786.5201416015625,786.1171875
818,790.5494384765625,793.7728881835938,784.5054931640625,785.7142944335938
819,791.7582397460938,792.5640869140625,785.3113403320312,791.3552856445312
820,800.6226806640625,794.981689453125,789.3406372070312,792.1611938476562
821,804.2490844726562,799.010986328125,790.952392578125,788.5347900390625
822,798.6080322265625,799.010986328125,790.952392578125,787.7289428710938
823,788.937744140625,795.3846435546875,793.3699340820312,786.1171875
824,792.967041015625,800.2197875976562,794.5787353515625,787.7289428710938
825,802.6373901367188,804.6520385742188,794.1758422851562,798.2051391601562
826,800.2197875976562,807.87548828125,794.5787353515625,801.025634765625
827,792.5640869140625,804.6520385742188,796.5933837890625,790.952392578125
828,790.952392578125,796.1904907226562,797.8021850585938,787.3259887695312
829,794.1758422851562,796.5933837890625,796.5933837890625,788.5347900390625
830,794.5787353515625,797.8021850585938,798.2051391601562,788.1318969726562
831,798.6080322265625,798.2051391601562,802.6373901367188,794.5787353515625
832,798.2051391601562,796.996337890625,799.4139404296875,791.7582397460938
833,799.4139404296875,796.5933837890625,796.996337890625,787.7289428710938
834,796.1904907226562,800.6226806640625,802.6373901367188,791.7582397460938
835,792.967041015625,799.4139404296875,799.010986328125,790.952392578125
836,792.1611938476562,793.7728881835938,794.5787353515625,790.952392578125
837,790.1465454101562,788.5347900390625,794.981689453125,790.1465454101562
838,792.1611938476562,789.7435913085938,799.4139404296875,789.3406372070312
839,789.3406372070312,791.3552856445312,800.2197875976562,786.5201416015625
840,791.3552856445312,786.923095703125,796.996337890625,789.7435913085938
841,795.3846435546875,788.1318969726562,798.6080322265625,797.8021850585938
842,790.5494384765625,788.1318969726562,797.8021850585938,795.3846435546875
843,790.1465454101562,788.937744140625,797.3992919921875,791.3552856445312
844,796.5933837890625,793.3699340820312,800.6226806640625,794.1758422851562
845,797.8021850585938,791.7582397460938,800.6226806640625,794.981689453125
846,796.996337890625,791.3552856445312,800.6226806640625,795.7875366210938
847,797.3992919921875,792.1611938476562,798.6080322265625,792.1611938476562
848,795.7875366210938,789.7435913085938,797.8021850585938,790.952392578125
849,790.1465454101562,789.7435913085938,798.6080322265625,798.2051391601562
850,789.7435913085938,790.1465454101562,801.8314819335938,799.8168334960938
851,794.1758422851562,784.908447265625,803.4432373046875,795.7875366210938
852,795.3846435546875,783.6996459960938,799.4139404296875,794.5787353515625
853,790.952392578125,786.923095703125,789.7435913085938,792.1611938476562
854,786.923095703125,789.7435913085938,786.1171875,790.1465454101562
855,787.7289428710938,787.7289428710938,788.1318969726562,790.1465454101562
856,790.5494384765625,781.6849975585938,787.3259887695312,787.7289428710938
857,790.1465454101562,783.6996459960938,788.5347900390625,785.7142944335938
858,788.1318969726562,787.3259887695312,788.1318969726562,789.3406372070312
859,787.3259887695312,787.3259887695312,791.3552856445312,788.5347900390625
860,793.7728881835938,788.937744140625,799.8168334960938,788.937744140625
861,794.5787353515625,790.952392578125,797.8021850585938,788.1318969726562
862,796.1904907226562,793.3699340820312,796.5933837890625,787.7289428710938
863,792.1611938476562,793.7728881835938,798.6080322265625,789.7435913085938
864,787.7289428710938,788.937744140625,794.981689453125,790.1465454101562
865,784.908447265625,781.6849975585938,790.952392578125,783.6996459960938
866,783.2966918945312,782.4908447265625,789.3406372070312,778.4615478515625
867,786.923095703125,789.3406372070312,793.3699340820312,786.923095703125
868,785.7142944335938,790.5494384765625,790.952392578125,790.952392578125
869,784.5054931640625,791.7582397460938,788.5347900390625,787.7289428710938
870,783.6996459960938,791.7582397460938,792.5640869140625,780.879150390625
871,788.1318969726562,792.5640869140625,799.010986328125,785.7142944335938
872,791.3552856445312,794.981689453125,803.040283203125,793.7728881835938
873,787.7289428710938,791.3552856445312,799.4139404296875,789.3406372070312
874,784.908447265625,790.1465454101562,797.8021850585938,790.952392578125
875,784.908447265625,782.087890625,795.7875366210938,792.1611938476562
876,786.5201416015625,781.2820434570312,793.7728881835938,784.1025390625
877,786.923095703125,788.5347900390625,794.5787353515625,784.1025390625
878,782.4908447265625,784.908447265625,794.1758422851562,786.5201416015625
879,784.908447265625,785.7142944335938,799.4139404296875,790.1465454101562
880,790.1465454101562,794.1758422851562,800.6226806640625,788.1318969726562
881,792.967041015625,799.010986328125,798.6080322265625,780.0732421875
882,792.5640869140625,794.1758422851562,796.1904907226562,779.6703491210938
883,788.937744140625,792.1611938476562,795.3846435546875,786.1171875
884,780.0732421875,792.5640869140625,793.3699340820312,782.893798828125
885,785.7142944335938,796.5933837890625,792.5640869140625,781.2820434570312
886,792.5640869140625,799.4139404296875,795.7875366210938,785.7142944335938
887,790.1465454101562,793.7728881835938,791.3552856445312,787.3259887695312
888,799.8168334960938,792.967041015625,788.1318969726562,790.1465454101562
889,800.6226806640625,798.6080322265625,789.3406372070312,792.1611938476562
890,794.5787353515625,796.5933837890625,787.3259887695312,784.5054931640625
891,798.6080322265625,791.7582397460938,791.3552856445312,786.1171875
892,799.8168334960938,791.3552856445312,795.7875366210938,792.967041015625
893,797.3992919921875,787.7289428710938,789.3406372070312,787.3259887695312
894,800.2197875976562,786.5201416015625,787.3259887695312,791.3552856445312
895,797.8021850585938,787.7289428710938,795.3846435546875,803.4432373046875
896,791.3552856445312,786.5201416015625,798.2051391601562,793.3699340820312
897,795.3846435546875,784.908447265625,793.7728881835938,784.908447265625
898,797.3992919921875,790.1465454101562,791.3552856445312,786.1171875
899,798.2051391601562,797.3992919921875,789.3406372070312,784.1025390625
900,789.7435913085938,800.6226806640625,788.5347900390625,780.0732421875
901,787.3259887695312,801.4285888671875,789.7435913085938,783.2966918945312
902,796.1904907226562,799.8168334960938,792.5640869140625,788.937744140625
903,793.7728881835938,796.1904907226562,790.952392578125,788.1318969726562
904,781.2820434570312,791.7582397460938,784.908447265625,779.2673950195312
905,779.6703491210938,787.3259887695312,784.1025390625,782.087890625
906,786.1171875,780.4761962890625,785.3113403320312,784.908447265625
907,786.5201416015625,778.05859375,786.5201416015625,782.893798828125
908,787.7289428710938,786.5201416015625,788.5347900390625,780.4761962890625
909,790.5494384765625,795.3846435546875,788.5347900390625,786.923095703125
910,787.3259887695312,794.1758422851562,791.7582397460938,792.1611938476562
911,781.2820434570312,789.7435913085938,792.5640869140625,784.1025390625
912,790.952392578125,790.5494384765625,790.952392578125,785.3113403320312
913,794.1758422851562,792.1611938476562,791.7582397460938,791.7582397460938
914,785.7142944335938,787.3259887695312,793.3699340820312,792.1611938476562
915,792.1611938476562,788.5347900390625,792.967041015625,792.1611938476562
916,794.5787353515625,792.5640869140625,792.967041015625,790.5494384765625
917,795.3846435546875,799.010986328125,795.7875366210938,796.1904907226562
918,796.5933837890625,802.2344360351562,798.6080322265625,799.010986328125
919,793.7728881835938,799.010986328125,795.7875366210938,792.967041015625
920,797.8021850585938,798.2051391601562,792.5640869140625,794.5787353515625
921,799.4139404296875,796.5933837890625,794.981689453125,799.4139404296875
922,799.010986328125,792.5640869140625,794.5787353515625,804.6520385742188
923,796.1904907226562,793.7728881835938,797.3992919921875,799.8168334960938
924,789.7435913085938,795.3846435546875,794.5787353515625,790.952392578125
925,783.6996459960938,790.1465454101562,787.3259887695312,784.5054931640625
926,783.2966918945312,789.3406372070312,786.5201416015625,784.908447265625
927,786.1171875,788.5347900390625,785.3113403320312,781.6849975585938
928,790.1465454101562,784.908447265625,791.7582397460938,778.4615478515625
929,784.908447265625,783.2966918945312,795.7875366210938,777.2527465820312
930,782.893798828125,786.5201416015625,790.952392578125,782.087890625
931,790.5494384765625,788.5347900390625,789.3406372070312,785.3113403320312
932,798.6080322265625,790.952392578125,791.3552856445312,784.5054931640625
933,800.6226806640625,792.1611938476562,794.1758422851562,794.981689453125
934,795.3846435546875,788.1318969726562,800.2197875976562,795.7875366210938
935,792.1611938476562,794.981689453125,800.6226806640625,788.1318969726562
936,788.937744140625,791.3552856445312,799.8168334960938,786.1171875
937,788.937744140625,788.1318969726562,796.1904907226562,784.908447265625
938,796.996337890625,796.996337890625,796.996337890625,788.5347900390625
939,800.2197875976562,796.996337890625,796.996337890625,790.1465454101562
940,795.7875366210938,793.7728881835938,797.3992919921875,790.1465454101562
941,796.5933837890625,792.1611938476562,794.1758422851562,791.7582397460938
942,792.1611938476562,788.937744140625,788.5347900390625,790.1465454101562
943,786.1171875,788.937744140625,790.952392578125,791.3552856445312
944,785.7142944335938,790.5494384765625,791.3552856445312,793.7728881835938
945,778.4615478515625,791.3552856445312,792.967041015625,797.3992919921875
946,774.8351440429688,790.952392578125,792.1611938476562,795.3846435546875
947,780.4761962890625,787.7289428710938,793.3699340820312,795.3846435546875
948,789.3406372070312,791.7582397460938,796.5933837890625,799.010986328125
949,789.3406372070312,793.7728881835938,796.996337890625,793.7728881835938
950,787.7289428710938,796.1904907226562,799.4139404296875,791.7582397460938
951,792.967041015625,796.996337890625,797.8021850585938,790.1465454101562
952,791.3552856445312,795.7875366210938,796.1904907226562,789.3406372070312
953,794.1758422851562,797.8021850585938,796.996337890625,792.1611938476562
954,800.2197875976562,797.8021850585938,797.8021850585938,795.7875366210938
955,794.981689453125,801.025634765625,798.2051391601562,792.1611938476562
956,792.967041015625,803.4432373046875,800.6226806640625,797.3992919921875
957,787.3259887695312,796.996337890625,799.4139404296875,801.8314819335938
958,786.923095703125,795.3846435546875,799.4139404296875,794.981689453125
959,791.7582397460938,792.5640869140625,805.4578857421875,794.5787353515625
960,792.5640869140625,786.5201416015625,807.87548828125,795.7875366210938
961,787.7289428710938,789.3406372070312,803.8461303710938,789.3406372070312
962,779.6703491210938,789.7435913085938,796.5933837890625,780.0732421875
963,780.0732421875,782.893798828125,798.6080322265625,784.908447265625
964,786.1171875,784.908447265625,804.2490844726562,795.7875366210938
965,786.5201416015625,786.923095703125,806.2637329101562,791.7582397460938
966,779.6703491210938,786.5201416015625,802.6373901367188,783.6996459960938
967,778.8644409179688,790.5494384765625,794.981689453125,779.2673950195312
968,782.4908447265625,788.5347900390625,793.3699340820312,781.2820434570312
969,787.7289428710938,792.1611938476562,797.8021850585938,786.5201416015625
970,790.1465454101562,796.1904907226562,798.6080322265625,788.937744140625
971,788.1318969726562,793.3699340820312,794.5787353515625,784.1025390625
972,792.1611938476562,793.7728881835938,795.7875366210938,782.893798828125
973,796.996337890625,794.1758422851562,795.3846435546875,787.7289428710938
974,798.2051391601562,794.1758422851562,792.5640869140625,787.3259887695312
975,796.996337890625,795.3846435546875,790.1465454101562,783.6996459960938
976,794.981689453125,789.7435913085938,790.5494384765625,781.2820434570312
977,792.1611938476562,789.3406372070312,792.1611938476562,779.2673950195312
978,788.937744140625,790.1465454101562,792.967041015625,784.5054931640625
979,790.1465454101562,792.5640869140625,794.1758422851562,790.1465454101562
980,793.3699340820312,795.7875366210938,793.7728881835938,790.5494384765625
981,787.3259887695312,790.952392578125,794.5787353515625,783.6996459960938
982,786.5201416015625,786.923095703125,798.2051391601562,786.1171875
983,791.3552856445312,785.7142944335938,799.010986328125,790.1465454101562
984,794.981689453125,790.5494384765625,796.5933837890625,786.923095703125
985,788.5347900390625,788.5347900390625,792.967041015625,782.087890625
986,780.0732421875,786.923095703125,792.5640869140625,776.4468994140625
987,776.0439453125,788.937744140625,798.2051391601562,778.4615478515625
988,771.6116943359375,786.5201416015625,799.4139404296875,781.2820434570312
989,770.4029541015625,781.6849975585938,797.3992919921875,777.6557006835938
990,773.6264038085938,784.1025390625,796.5933837890625,777.2527465820312
991,774.4322509765625,787.3259887695312,796.1904907226562,786.1171875
992,776.4468994140625,786.923095703125,796.996337890625,788.1318969726562
993,782.087890625,786.1171875,796.996337890625,785.7142944335938
994,791.7582397460938,784.1025390625,796.1904907226562,790.5494384765625
995,795.3846435546875,785.7142944335938,797.3992919921875,792.967041015625
996,790.952392578125,788.5347900390625,795.3846435546875,784.5054931640625
997,793.3699340820312,791.7582397460938,792.967041015625,786.1171875
998,792.967041015625,789.3406372070312,789.7435913085938,786.1171875
999,794.5787353515625,785.7142944335938,789.7435913085938,783.6996459960938
1000,801.025634765625,786.1171875,794.981689453125,790.952392578125
1001,795.3846435546875,784.1025390625,792.5640869140625,788.937744140625
1002,796.5933837890625,785.3113403320312,791.3552856445312,787.3259887695312
1003,800.2197875976562,793.3699340820312,794.981689453125,788.937744140625
1004,801.8314819335938,795.3846435546875,798.2051391601562,797.8021850585938
1005,800.2197875976562,788.937744140625,799.4139404296875,800.6226806640625
1006,794.5787353515625,784.5054931640625,799.010986328125,801.8314819335938
1007,790.1465454101562,788.937744140625,800.2197875976562,807.069580078125
1008,785.7142944335938,787.7289428710938,802.2344360351562,800.2197875976562
1009,777.6557006835938,779.2673950195312,793.3699340820312,793.3699340820312
1010,778.05859375,774.8351440429688,787.7289428710938,796.1904907226562
1011,778.4615478515625,775.6410522460938,793.7728881835938,800.2197875976562
1012,774.4322509765625,782.893798828125,793.7728881835938,802.6373901367188
1013,772.4176025390625,785.7142944335938,788.937744140625,794.5787353515625
1014,780.4761962890625,781.6849975585938,790.5494384765625,794.5787353515625
1015,784.908447265625,784.5054931640625,794.5787353515625,803.4432373046875
1016,778.05859375,788.937744140625,792.1611938476562,799.4139404296875
1017,775.6410522460938,791.3552856445312,790.952392578125,792.5640869140625
1018,781.6849975585938,797.3992919921875,792.1611938476562,793.7728881835938
1019,790.5494384765625,798.2051391601562,796.996337890625,791.3552856445312
1020,790.952392578125,792.1611938476562,799.010986328125,789.7435913085938
1021,787.7289428710938,793.3699340820312,795.3846435546875,788.937744140625
1022,786.923095703125,794.5787353515625,793.3699340820312,787.3259887695312
1023,787.7289428710938,795.3846435546875,791.3552856445312,792.5640869140625
1024,790.952392578125,798.2051391601562,790.1465454101562,796.996337890625
1025,799.4139404296875,796.1904907226562,790.5494384765625,799.010986328125
1026,801.8314819335938,791.3552856445312,788.1318969726562,795.3846435546875
1027,798.6080322265625,794.5787353515625,788.5347900390625,792.5640869140625
1028,795.3846435546875,800.2197875976562,791.7582397460938,794.1758422851562
1029,799.4139404296875,801.8314819335938,795.3846435546875,800.2197875976562
1030,803.8461303710938,801.025634765625,799.010986328125,804.6520385742188
1031,801.8314819335938,797.3992919921875,797.8021850585938,801.025634765625
1032,795.7875366210938,790.1465454101562,797.3992919921875,800.6226806640625
1033,793.7728881835938,788.937744140625,794.1758422851562,803.8461303710938
1034,794.981689453125,795.3846435546875,792.5640869140625,801.4285888671875
1035,792.967041015625,791.3552856445312,792.5640869140625,794.5787353515625
1036,786.5201416015625,787.7289428710938,790.5494384765625,791.3552856445312
1037,782.4908447265625,786.923095703125,791.3552856445312,791.3552856445312
1038,781.2820434570312,786.5201416015625,796.1904907226562,793.3699340820312
1039,776.0439453125,791.7582397460938,796.996337890625,784.1025390625
1040,781.6849975585938,790.952392578125,793.7728881835938,780.4761962890625
1041,791.7582397460938,791.7582397460938,793.7728881835938,789.7435913085938
1042,791.7582397460938,799.8168334960938,794.1758422851562,788.5347900390625
1043,788.1318969726562,802.6373901367188,792.1611938476562,782.4908447265625
1044,795.3846435546875,803.040283203125,793.3699340820312,785.7142944335938
1045,805.4578857421875,804.6520385742188,795.7875366210938,785.3113403320312
1046,806.2637329101562,801.8314819335938,790.5494384765625,783.2966918945312
1047,805.054931640625,799.8168334960938,788.5347900390625,786.1171875
1048,803.8461303710938,801.4285888671875,790.1465454101562,788.937744140625
1049,801.8314819335938,799.4139404296875,788.937744140625,789.7435913085938
1050,806.2637329101562,792.5640869140625,792.1611938476562,790.1465454101562
1051,815.1282348632812,797.8021850585938,799.010986328125,795.7875366210938
1052,807.87548828125,799.010986328125,798.6080322265625,800.2197875976562
1053,798.6080322265625,790.952392578125,794.1758422851562,803.4432373046875
1054,803.040283203125,787.7289428710938,795.7875366210938,803.8461303710938
1055,802.6373901367188,782.893798828125,796.1904907226562,801.8314819335938
1056,802.6373901367188,784.908447265625,796.5933837890625,805.4578857421875
1057,799.8168334960938,786.923095703125,796.996337890625,803.040283203125
1058,794.981689453125,787.7289428710938,796.996337890625,800.6226806640625
1059,793.7728881835938,790.1465454101562,799.4139404296875,802.2344360351562
1060,790.5494384765625,790.5494384765625,794.1758422851562,801.4285888671875
1061,784.5054931640625,788.5347900390625,789.3406372070312,804.2490844726562
1062,780.0732421875,787.7289428710938,795.3846435546875,809.084228515625
1063,775.2380981445312,786.923095703125,796.996337890625,802.6373901367188
1064,776.4468994140625,782.087890625,795.7875366210938,795.7875366210938
1065,784.5054931640625,786.5201416015625,797.3992919921875,798.6080322265625
1066,781.6849975585938,788.937744140625,793.3699340820312,797.3992919921875
1067,780.4761962890625,787.3259887695312,791.7582397460938,783.6996459960938
1068,780.4761962890625,789.7435913085938,792.967041015625,773.2234497070312
1069,783.6996459960938,789.7435913085938,796.5933837890625,779.2673950195312
1070,793.3699340820312,793.3699340820312,795.7875366210938,784.5054931640625
1071,796.1904907226562,800.6226806640625,794.981689453125,789.3406372070312
1072,802.6373901367188,805.8607788085938,793.7728881835938,797.8021850585938
1073,800.6226806640625,803.8461303710938,792.5640869140625,792.1611938476562
1074,793.7728881835938,799.8168334960938,792.5640869140625,782.087890625
1075,797.3992919921875,797.8021850585938,790.1465454101562,787.3259887695312
1076,801.025634765625,795.7875366210938,791.3552856445312,794.5787353515625
1077,800.6226806640625,794.5787353515625,789.3406372070312,790.5494384765625
1078,801.025634765625,796.1904907226562,792.1611938476562,792.967041015625
1079,799.4139404296875,796.1904907226562,791.7582397460938,796.1904907226562
1080,799.010986328125,792.967041015625,790.952392578125,793.3699340820312
1081,802.2344360351562,786.923095703125,795.3846435546875,792.1611938476562
1082,799.4139404296875,783.2966918945312,796.5933837890625,793.7728881835938
1083,794.981689453125,781.6849975585938,803.040283203125,797.8021850585938
1084,791.7582397460938,779.2673950195312,809.084228515625,801.4285888671875
1085,784.908447265625,779.6703491210938,807.069580078125,794.981689453125
1086,784.908447265625,777.6557006835938,809.89013671875,793.3699340820312
1087,784.5054931640625,775.6410522460938,811.5018310546875,794.981689453125
1088,776.4468994140625,779.2673950195312,809.4871826171875,791.3552856445312
1089,776.0439453125,783.2966918945312,811.5018310546875,792.1611938476562
1090,782.4908447265625,783.2966918945312,811.90478515625,801.025634765625
1091,786.1171875,779.6703491210938,811.90478515625,811.90478515625
1092,790.952392578125,783.6996459960938,813.91943359375,810.6959838867188
1093,789.3406372070312,784.5054931640625,809.89013671875,808.2783813476562
1094,791.3552856445312,787.3259887695312,799.8168334960938,808.6813354492188
1095,796.1904907226562,791.7582397460938,801.025634765625,813.113525390625
1096,803.4432373046875,789.7435913085938,801.8314819335938,812.3076782226562
1097,814.3223266601562,789.7435913085938,803.8461303710938,809.89013671875
1098,816.3369750976562,791.3552856445312,803.8461303710938,806.2637329101562
1099,813.91943359375,796.996337890625,802.2344360351562,801.8314819335938
1100,811.90478515625,799.8168334960938,801.025634765625,799.4139404296875
1101,809.084228515625,801.025634765625,793.7728881835938,797.3992919921875
1102,808.2783813476562,809.4871826171875,798.2051391601562,802.2344360351562
1103,807.87548828125,813.5164794921875,799.4139404296875,796.5933837890625
1104,799.010986328125,805.8607788085938,792.967041015625,781.6849975585938
1105,791.3552856445312,803.8461303710938,789.3406372070312,774.029296875
1106,799.010986328125,809.084228515625,786.923095703125,774.029296875
1107,796.5933837890625,803.8461303710938,785.7142944335938,769.5970458984375
1108,788.937744140625,805.8607788085938,780.879150390625,766.3735961914062
1109,787.3259887695312,808.2783813476562,780.0732421875,769.5970458984375
1110,786.923095703125,802.2344360351562,791.7582397460938,770.8058471679688
1111,788.1318969726562,803.4432373046875,793.3699340820312,772.4176025390625
1112,785.3113403320312,802.6373901367188,787.7289428710938,773.6264038085938
1113,780.4761962890625,800.2197875976562,788.937744140625,781.2820434570312
1114,772.4176025390625,798.6080322265625,791.7582397460938,785.7142944335938
1115,768.3883056640625,792.967041015625,790.1465454101562,777.6557006835938
1116,770.4029541015625,789.3406372070312,787.7289428710938,777.6557006835938
1117,775.6410522460938,790.1465454101562,792.1611938476562,787.3259887695312
1118,777.2527465820312,790.1465454101562,793.3699340820312,789.3406372070312
1119,778.4615478515625,782.4908447265625,789.7435913085938,789.7435913085938
1120,785.7142944335938,776.8497924804688,788.1318969726562,791.3552856445312
1121,795.7875366210938,781.6849975585938,787.7289428710938,799.010986328125
1122,800.6226806640625,781.6849975585938,787.3259887695312,799.010986328125
1123,802.2344360351562,786.5201416015625,787.7289428710938,795.3846435546875
1124,799.8168334960938,793.3699340820312,785.7142944335938,792.967041015625
1125,801.4285888671875,791.7582397460938,785.7142944335938,798.2051391601562
1126,809.89013671875,793.3699340820312,787.3259887695312,799.8168334960938
1127,807.4725341796875,792.967041015625,787.3259887695312,788.937744140625
1128,803.8461303710938,794.1758422851562,788.1318969726562,786.923095703125
1129,804.2490844726562,797.8021850585938,786.923095703125,787.3259887695312
1130,803.4432373046875,800.2197875976562,784.1025390625,788.1318969726562
1131,801.8314819335938,801.025634765625,782.087890625,782.087890625
1132,799.010986328125,800.6226806640625,783.2966918945312,773.6264038085938
1133,799.8168334960938,804.6520385742188,783.2966918945312,776.4468994140625
1134,786.5201416015625,800.2197875976562,787.3259887695312,770.4029541015625
1135,776.8497924804688,800.2197875976562,783.6996459960938,762.3442993164062
1136,774.029296875,799.4139404296875,779.2673950195312,763.1502075195312
1137,774.8351440429688,796.1904907226562,781.2820434570312,774.8351440429688
1138,769.5970458984375,794.1758422851562,781.6849975585938,769.5970458984375
1139,763.5531005859375,787.3259887695312,782.087890625,765.970703125
1140,767.1795043945312,787.7289428710938,787.3259887695312,778.4615478515625
1141,766.3735961914062,793.3699340820312,789.3406372070312,782.4908447265625
1142,770.8058471679688,796.5933837890625,791.3552856445312,784.1025390625
1143,778.8644409179688,797.3992919921875,796.5933837890625,789.3406372070312
1144,782.893798828125,797.8021850585938,793.7728881835938,795.3846435546875
1145,784.5054931640625,799.8168334960938,792.1611938476562,797.3992919921875
1146,784.1025390625,796.5933837890625,795.3846435546875,794.1758422851562
1147,791.3552856445312,794.1758422851562,793.3699340820312,791.3552856445312
1148,800.6226806640625,795.7875366210938,793.3699340820312,801.025634765625
1149,803.8461303710938,799.4139404296875,789.3406372070312,803.4432373046875
1150,802.6373901367188,797.8021850585938,783.2966918945312,793.3699340820312
1151,807.069580078125,793.3699340820312,782.087890625,789.7435913085938
1152,812.7106323242188,793.3699340820312,782.4908447265625,790.5494384765625
1153,811.098876953125,790.952392578125,784.5054931640625,792.967041015625
1154,810.2930297851562,788.5347900390625,789.3406372070312,795.7875366210938
1155,812.3076782226562,791.3552856445312,791.3552856445312,795.3846435546875
1156,813.5164794921875,792.967041015625,787.3259887695312,796.5933837890625
1157,813.5164794921875,797.8021850585938,791.3552856445312,800.2197875976562
1158,811.90478515625,794.5787353515625,790.952392578125,797.3992919921875
1159,808.2783813476562,787.7289428710938,788.5347900390625,797.3992919921875
1160,803.040283203125,793.3699340820312,788.937744140625,805.8607788085938
1161,797.8021850585938,796.1904907226562,786.923095703125,800.6226806640625
1162,794.981689453125,793.3699340820312,784.5054931640625,792.1611938476562
1163,795.3846435546875,792.967041015625,782.087890625,792.1611938476562
1164,792.967041015625,794.5787353515625,786.923095703125,785.7142944335938
1165,781.2820434570312,794.5787353515625,788.5347900390625,779.6703491210938
1166,777.2527465820312,793.3699340820312,789.3406372070312,777.6557006835938
1167,779.2673950195312,790.5494384765625,794.5787353515625,773.6264038085938
1168,778.8644409179688,786.923095703125,791.3552856445312,769.1941528320312
1169,775.6410522460938,786.923095703125,788.5347900390625,762.3442993164062
1170,775.6410522460938,790.952392578125,790.1465454101562,759.120849609375
1171,776.8497924804688,788.5347900390625,790.952392578125,767.1795043945312
1172,780.4761962890625,784.1025390625,794.1758422851562,772.0146484375
1173,789.7435913085938,782.087890625,796.5933837890625,763.9560546875
1174,796.5933837890625,786.5201416015625,794.981689453125,769.5970458984375
1175,794.5787353515625,793.3699340820312,790.5494384765625,780.879150390625
1176,791.3552856445312,799.010986328125,791.7582397460938,777.6557006835938
1177,798.2051391601562,803.4432373046875,793.7728881835938,777.6557006835938
1178,807.87548828125,802.2344360351562,793.3699340820312,783.6996459960938
1179,807.069580078125,798.2051391601562,790.1465454101562,782.4908447265625
1180,801.4285888671875,799.8168334960938,783.6996459960938,786.923095703125
1181,801.025634765625,805.4578857421875,780.0732421875,789.3406372070312
1182,803.8461303710938,805.054931640625,780.4761962890625,790.5494384765625
1183,804.6520385742188,806.6666870117188,781.6849975585938,798.2051391601562
1184,802.6373901367188,807.87548828125,785.7142944335938,795.7875366210938
1185,796.5933837890625,803.040283203125,784.5054931640625,788.1318969726562
1186,795.7875366210938,798.6080322265625,779.6703491210938,788.937744140625
1187,794.981689453125,794.5787353515625,784.908447265625,794.1758422851562
1188,792.967041015625,789.3406372070312,787.7289428710938,787.3259887695312
1189,789.7435913085938,786.5201416015625,788.5347900390625,779.2673950195312
1190,788.937744140625,787.3259887695312,792.5640869140625,784.908447265625
1191,790.952392578125,790.952392578125,793.7728881835938,787.3259887695312
1192,790.1465454101562,796.5933837890625,795.3846435546875,780.879150390625
1193,789.7435913085938,798.2051391601562,797.8021850585938,780.0732421875
1194,787.3259887695312,794.5787353515625,801.4285888671875,784.1025390625
1195,782.087890625,794.5787353515625,801.025634765625,779.2673950195312
1196,776.8497924804688,794.1758422851562,801.8314819335938,776.8497924804688
1197,783.2966918945312,790.952392578125,801.8314819335938,780.0732421875
1198,793.7728881835938,788.1318969726562,798.6080322265625,791.7582397460938
1199,792.1611938476562,788.5347900390625,800.6226806640625,796.1904907226562
1200,791.3552856445312,791.7582397460938,798.6080322265625,792.1611938476562
1201,785.7142944335938,789.3406372070312,796.1904907226562,789.3406372070312
1202,785.3113403320312,787.7289428710938,798.2051391601562,792.1611938476562
1203,792.1611938476562,793.7728881835938,795.7875366210938,794.981689453125
1204,796.996337890625,796.5933837890625,791.3552856445312,793.7728881835938
1205,796.996337890625,794.1758422851562,794.1758422851562,794.5787353515625
1206,791.7582397460938,792.1611938476562,793.7728881835938,795.3846435546875
1207,791.7582397460938,794.981689453125,786.5201416015625,795.7875366210938
1208,791.7582397460938,794.5787353515625,786.1171875,788.1318969726562
1209,791.7582397460938,792.5640869140625,788.1318969726562,784.908447265625
1210,788.937744140625,793.3699340820312,788.1318969726562,787.7289428710938
1211,788.5347900390625,798.6080322265625,795.3846435546875,785.3113403320312
1212,788.1318969726562,800.6226806640625,795.7875366210938,775.6410522460938
1213,784.1025390625,796.1904907226562,786.923095703125,772.4176025390625
1214,786.1171875,793.3699340820312,786.1171875,776.8497924804688
1215,788.5347900390625,794.1758422851562,786.5201416015625,777.6557006835938
1216,786.5201416015625,798.2051391601562,789.7435913085938,773.2234497070312
1217,786.1171875,798.2051391601562,790.952392578125,774.029296875
1218,786.923095703125,794.5787353515625,789.3406372070312,777.6557006835938
1219,790.1465454101562,791.7582397460938,794.1758422851562,780.879150390625
1220,792.1611938476562,792.967041015625,794.1758422851562,777.2527465820312
1221,789.7435913085938,792.1611938476562,792.967041015625,780.4761962890625
1222,787.7289428710938,792.967041015625,795.3846435546875,784.5054931640625
1223,788.5347900390625,793.3699340820312,794.981689453125,780.4761962890625
1224,794.1758422851562,792.5640869140625,795.3846435546875,785.7142944335938
1225,796.996337890625,788.937744140625,791.3552856445312,790.952392578125
1226,789.3406372070312,786.1171875,787.7289428710938,786.5201416015625
1227,786.1171875,789.3406372070312,791.3552856445312,788.5347900390625
1228,788.5347900390625,789.3406372070312,789.7435913085938,794.981689453125
1229,790.1465454101562,786.1171875,790.952392578125,796.1904907226562
1230,786.5201416015625,784.908447265625,793.7728881835938,793.7728881835938
1231,782.4908447265625,782.4908447265625,793.7728881835938,790.5494384765625
1232,779.6703491210938,784.1025390625,797.3992919921875,790.1465454101562
1233,780.0732421875,784.908447265625,802.2344360351562,792.5640869140625
1234,778.4615478515625,782.4908447265625,799.4139404296875,793.3699340820312
1235,780.0732421875,785.3113403320312,794.1758422851562,785.7142944335938
1236,782.087890625,785.3113403320312,799.010986328125,782.893798828125
1237,779.6703491210938,789.7435913085938,802.2344360351562,781.6849975585938
1238,780.4761962890625,791.3552856445312,796.996337890625,776.0439453125
1239,785.3113403320312,788.937744140625,797.3992919921875,776.4468994140625
1240,790.952392578125,786.5201416015625,799.4139404296875,776.8497924804688
1241,792.967041015625,789.7435913085938,802.6373901367188,781.2820434570312
1242,791.7582397460938,794.1758422851562,803.4432373046875,782.893798828125
1243,783.2966918945312,790.5494384765625,799.010986328125,773.2234497070312
1244,782.4908447265625,786.923095703125,792.1611938476562,776.4468994140625
1245,786.1171875,786.5201416015625,788.1318969726562,784.1025390625
1246,786.923095703125,788.937744140625,794.1758422851562,782.893798828125
1247,790.1465454101562,789.3406372070312,798.6080322265625,784.908447265625
1248,788.1318969726562,783.6996459960938,800.2197875976562,789.3406372070312
1249,788.937744140625,780.4761962890625,801.025634765625,796.1904907226562
1250,791.3552856445312,780.4761962890625,795.3846435546875,798.2051391601562
1251,786.923095703125,781.2820434570312,792.1611938476562,793.7728881835938
1252,788.937744140625,782.893798828125,792.1611938476562,803.040283203125
1253,790.1465454101562,781.2820434570312,790.5494384765625,803.040283203125
1254,789.3406372070312,780.879150390625,794.981689453125,801.8314819335938
1255,794.5787353515625,782.4908447265625,796.5933837890625,807.069580078125
1256,789.3406372070312,782.087890625,795.7875366210938,805.054931640625
1257,781.6849975585938,784.908447265625,797.8021850585938,794.5787353515625
1258,784.1025390625,786.5201416015625,800.6226806640625,791.3552856445312
1259,790.5494384765625,792.5640869140625,799.8168334960938,792.967041015625
1260,788.5347900390625,795.7875366210938,797.3992919921875,787.7289428710938
1261,781.6849975585938,787.7289428710938,795.3846435546875,781.6849975585938
1262,780.4761962890625,784.908447265625,793.7728881835938,780.4761962890625
1263,776.8497924804688,786.923095703125,788.1318969726562,774.4322509765625
1264,777.2527465820312,789.3406372070312,785.3113403320312,768.7911987304688
1265,780.879150390625,789.7435913085938,793.3699340820312,772.0146484375
1266,782.087890625,791.3552856445312,798.2051391601562,781.6849975585938
1267,779.2673950195312,792.1611938476562,796.1904907226562,788.1318969726562
1268,781.2820434570312,790.1465454101562,792.5640869140625,786.923095703125
1269,786.923095703125,794.1758422851562,792.967041015625,787.7289428710938
1270,786.923095703125,794.5787353515625,790.952392578125,790.5494384765625
1271,783.6996459960938,792.5640869140625,786.5201416015625,791.7582397460938
1272,783.6996459960938,790.1465454101562,788.937744140625,790.1465454101562
1273,791.3552856445312,787.7289428710938,792.5640869140625,785.7142944335938
1274,794.1758422851562,792.5640869140625,793.3699340820312,794.5787353515625
1275,791.3552856445312,790.952392578125,794.5787353515625,801.8314819335938
1276,792.967041015625,789.3406372070312,795.7875366210938,794.1758422851562
1277,789.7435913085938,784.1025390625,796.996337890625,787.7289428710938
1278,785.3113403320312,782.087890625,798.6080322265625,786.923095703125
1279,781.6849975585938,787.7289428710938,801.025634765625,787.3259887695312
1280,788.1318969726562,790.1465454101562,803.8461303710938,791.7582397460938
1281,791.7582397460938,789.3406372070312,803.4432373046875,794.5787353515625
1282,788.1318969726562,788.1318969726562,803.040283203125,791.7582397460938
1283,789.7435913085938,787.7289428710938,802.2344360351562,788.5347900390625
1284,793.3699340820312,787.3259887695312,803.4432373046875,791.7582397460938
1285,796.996337890625,789.7435913085938,805.054931640625,797.8021850585938
1286,793.3699340820312,786.1171875,805.4578857421875,793.3699340820312
1287,785.3113403320312,782.4908447265625,801.4285888671875,782.4908447265625
1288,783.2966918945312,782.4908447265625,796.996337890625,780.4761962890625
1289,781.2820434570312,778.05859375,795.7875366210938,779.2673950195312
1290,779.6703491210938,783.2966918945312,795.7875366210938,787.7289428710938
1291,778.4615478515625,787.3259887695312,796.1904907226562,797.3992919921875
1292,775.6410522460938,786.1171875,792.5640869140625,792.1611938476562
1293,779.2673950195312,786.5201416015625,794.1758422851562,792.5640869140625
1294,781.6849975585938,782.893798828125,795.3846435546875,801.4285888671875
1295,778.4615478515625,782.4908447265625,792.1611938476562,801.4285888671875
1296,780.0732421875,780.879150390625,792.5640869140625,794.981689453125
1297,780.879150390625,780.879150390625,795.7875366210938,799.8168334960938
1298,774.4322509765625,782.893798828125,796.996337890625,799.4139404296875
1299,770.4029541015625,781.6849975585938,794.1758422851562,794.5787353515625
1300,776.0439453125,785.7142944335938,791.3552856445312,789.3406372070312
1301,783.2966918945312,788.1318969726562,794.981689453125,784.5054931640625
1302,786.1171875,786.923095703125,796.996337890625,788.5347900390625
1303,789.7435913085938,795.7875366210938,799.010986328125,794.5787353515625
1304,791.7582397460938,796.5933837890625,799.010986328125,795.7875366210938
1305,792.1611938476562,787.7289428710938,792.967041015625,793.3699340820312
1306,796.1904907226562,785.7142944335938,791.7582397460938,804.2490844726562
1307,796.1904907226562,789.3406372070312,794.5787353515625,806.2637329101562
1308,796.996337890625,796.1904907226562,793.3699340820312,799.4139404296875
1309,801.025634765625,798.2051391601562,795.3846435546875,797.3992919921875
1310,800.6226806640625,795.7875366210938,796.996337890625,794.1758422851562
1311,799.4139404296875,795.3846435546875,794.5787353515625,788.1318969726562
1312,804.2490844726562,796.5933837890625,794.1758422851562,793.7728881835938
1313,803.8461303710938,796.1904907226562,791.7582397460938,798.2051391601562
1314,797.3992919921875,797.8021850585938,790.952392578125,797.3992919921875
1315,799.8168334960938,799.010986328125,792.5640869140625,799.010986328125
1316,799.4139404296875,798.6080322265625,794.5787353515625,799.8168334960938
1317,794.5787353515625,794.1758422851562,789.3406372070312,804.2490844726562
1318,792.5640869140625,788.5347900390625,790.1465454101562,810.6959838867188
1319,784.908447265625,786.5201416015625,793.7728881835938,799.8168334960938
1320,782.4908447265625,788.937744140625,792.1611938476562,788.5347900390625
1321,782.087890625,788.5347900390625,794.1758422851562,786.5201416015625
1322,780.4761962890625,784.5054931640625,791.7582397460938,784.908447265625
1323,779.6703491210938,782.893798828125,786.5201416015625,780.879150390625
1324,775.6410522460938,782.4908447265625,785.3113403320312,776.4468994140625
1325,776.0439453125,778.05859375,787.3259887695312,775.6410522460938
1326,784.908447265625,783.6996459960938,790.5494384765625,781.6849975585938
1327,785.7142944335938,791.7582397460938,799.8168334960938,791.7582397460938
1328,775.6410522460938,788.937744140625,796.996337890625,793.7728881835938
1329,772.0146484375,782.087890625,794.5787353515625,788.1318969726562
1330,778.4615478515625,783.6996459960938,796.1904907226562,782.4908447265625
1331,784.1025390625,786.923095703125,795.3846435546875,788.937744140625
1332,783.2966918945312,784.908447265625,795.3846435546875,791.3552856445312
1333,785.7142944335938,786.1171875,798.2051391601562,784.5054931640625
1334,783.6996459960938,787.7289428710938,803.040283203125,782.893798828125
1335,781.2820434570312,788.937744140625,803.4432373046875,784.5054931640625
1336,781.2820434570312,787.7289428710938,798.6080322265625,784.5054931640625
1337,783.2966918945312,787.7289428710938,792.1611938476562,785.3113403320312
1338,787.3259887695312,788.1318969726562,788.937744140625,788.937744140625
1339,784.908447265625,787.7289428710938,786.923095703125,788.5347900390625
1340,788.1318969726562,788.937744140625,790.952392578125,799.4139404296875
1341,792.967041015625,790.5494384765625,797.8021850585938,807.4725341796875
1342,796.1904907226562,792.967041015625,793.7728881835938,794.1758422851562
1343,799.4139404296875,789.3406372070312,792.1611938476562,793.3699340820312
1344,798.2051391601562,790.1465454101562,795.3846435546875,793.3699340820312
1345,793.3699340820312,791.3552856445312,790.952392578125,786.5201416015625
1346,792.1611938476562,786.1171875,784.5054931640625,786.923095703125
1347,795.3846435546875,788.1318969726562,790.952392578125,794.981689453125
1348,796.996337890625,792.1611938476562,794.1758422851562,794.1758422851562
1349,796.1904907226562,792.5640869140625,791.7582397460938,789.7435913085938
1350,790.5494384765625,787.7289428710938,789.7435913085938,787.3259887695312
1351,786.5201416015625,785.7142944335938,787.7289428710938,783.6996459960938
1352,788.937744140625,788.1318969726562,794.1758422851562,790.1465454101562
1353,788.937744140625,790.5494384765625,794.1758422851562,790.1465454101562
1354,785.7142944335938,788.937744140625,795.7875366210938,783.2966918945312
1355,780.0732421875,790.5494384765625,793.7728881835938,781.2820434570312
1356,782.893798828125,790.1465454101562,791.7582397460938,780.4761962890625
1357,790.952392578125,788.5347900390625,795.3846435546875,784.908447265625
1358,786.923095703125,789.7435913085938,793.3699340820312,787.3259887695312
1359,786.5201416015625,787.3259887695312,793.7728881835938,788.5347900390625
1360,786.5201416015625,792.5640869140625,795.3846435546875,787.7289428710938
1361,784.908447265625,793.7728881835938,790.1465454101562,779.2673950195312
1362,786.923095703125,790.1465454101562,788.5347900390625,774.029296875
1363,793.7728881835938,792.967041015625,789.3406372070312,780.4761962890625
1364,790.5494384765625,792.1611938476562,788.1318969726562,779.2673950195312
1365,786.1171875,792.1611938476562,791.7582397460938,778.4615478515625
1366,785.3113403320312,790.952392578125,790.1465454101562,784.908447265625
1367,785.7142944335938,785.7142944335938,784.5054931640625,781.6849975585938
1368,784.908447265625,785.3113403320312,784.1025390625,782.4908447265625
1369,785.7142944335938,788.937744140625,786.923095703125,789.3406372070312
1370,790.5494384765625,790.1465454101562,791.3552856445312,793.3699340820312
1371,793.7728881835938,788.1318969726562,790.5494384765625,801.025634765625
1372,796.1904907226562,788.937744140625,788.1318969726562,800.6226806640625
1373,794.1758422851562,786.5201416015625,788.1318969726562,789.3406372070312
1374,794.5787353515625,784.908447265625,790.1465454101562,789.3406372070312
1375,792.967041015625,790.1465454101562,788.937744140625,796.5933837890625
1376,792.1611938476562,790.5494384765625,790.5494384765625,794.5787353515625
1377,790.1465454101562,788.5347900390625,788.937744140625,782.4908447265625
1378,793.3699340820312,790.1465454101562,789.3406372070312,781.2820434570312
1379,790.952392578125,790.1465454101562,788.937744140625,782.087890625
1380,788.5347900390625,789.7435913085938,785.7142944335938,778.8644409179688
1381,793.7728881835938,790.952392578125,789.3406372070312,775.6410522460938
1382,798.2051391601562,787.7289428710938,790.1465454101562,781.2820434570312
1383,799.010986328125,782.4908447265625,786.1171875,783.6996459960938
1384,792.967041015625,781.2820434570312,776.8497924804688,777.2527465820312
1385,788.1318969726562,785.3113403320312,776.8497924804688,776.4468994140625
1386,789.3406372070312,787.3259887695312,782.087890625,779.6703491210938
1387,784.908447265625,787.7289428710938,784.5054931640625,781.6849975585938
1388,782.893798828125,786.5201416015625,787.7289428710938,783.6996459960938
1389,787.7289428710938,786.1171875,787.7289428710938,787.3259887695312
1390,786.923095703125,784.1025390625,789.3406372070312,790.952392578125
1391,785.7142944335938,792.5640869140625,794.1758422851562,791.7582397460938
1392,788.5347900390625,792.5640869140625,789.7435913085938,786.1171875
1393,794.1758422851562,786.5201416015625,782.893798828125,783.6996459960938
1394,796.1904907226562,786.5201416015625,784.908447265625,785.7142944335938
1395,794.1758422851562,786.1171875,783.6996459960938,786.5201416015625
1396,790.952392578125,787.3259887695312,784.908447265625,786.1171875
1397,786.5201416015625,789.3406372070312,788.5347900390625,780.879150390625
1398,783.6996459960938,787.7289428710938,787.7289428710938,779.6703491210938
1399,782.893798828125,784.5054931640625,788.937744140625,779.2673950195312
1400,780.879150390625,786.1171875,791.3552856445312,780.4761962890625
1401,782.087890625,789.3406372070312,791.3552856445312,785.3113403320312
1402,782.893798828125,786.5201416015625,790.952392578125,789.3406372070312
1403,784.1025390625,785.7142944335938,791.3552856445312,786.5201416015625
1404,788.5347900390625,789.7435913085938,795.3846435546875,784.1025390625
1405,790.5494384765625,790.952392578125,798.2051391601562,793.3699340820312
1406,788.5347900390625,792.1611938476562,801.025634765625,805.4578857421875
1407,787.3259887695312,791.3552856445312,803.4432373046875,801.025634765625
1408,790.1465454101562,788.937744140625,796.996337890625,793.3699340820312
1409,790.1465454101562,789.7435913085938,794.1758422851562,792.1611938476562
1410,782.4908447265625,786.5201416015625,792.967041015625,789.3406372070312
1411,780.0732421875,785.3113403320312,792.967041015625,782.087890625
1412,786.923095703125,790.952392578125,795.3846435546875,784.1025390625
1413,792.1611938476562,792.1611938476562,795.7875366210938,792.1611938476562
1414,791.7582397460938,792.5640869140625,793.7728881835938,790.952392578125
1415,789.3406372070312,792.5640869140625,792.967041015625,781.6849975585938
1416,789.7435913085938,796.1904907226562,798.6080322265625,788.1318969726562
1417,794.1758422851562,797.3992919921875,796.5933837890625,796.1904907226562
1418,803.4432373046875,790.1465454101562,793.3699340820312,794.1758422851562
1419,813.5164794921875,785.3113403320312,799.4139404296875,799.4139404296875
1420,810.6959838867188,782.893798828125,801.8314819335938,797.3992919921875
1421,796.996337890625,789.3406372070312,799.8168334960938,785.7142944335938
1422,792.967041015625,799.4139404296875,796.5933837890625,777.6557006835938
1423,795.3846435546875,799.010986328125,792.1611938476562,772.8204956054688
1424,794.1758422851562,795.3846435546875,797.3992919921875,770.8058471679688
1425,796.996337890625,796.5933837890625,799.8168334960938,786.5201416015625
1426,790.5494384765625,794.5787353515625,796.1904907226562,786.1171875
1427,790.952392578125,794.5787353515625,797.8021850585938,785.3113403320312
1428,793.3699340820312,791.7582397460938,796.996337890625,785.7142944335938
1429,795.7875366210938,791.3552856445312,800.2197875976562,784.5054931640625
1430,797.8021850585938,795.7875366210938,803.040283203125,786.923095703125
1431,792.967041015625,791.7582397460938,797.3992919921875,782.4908447265625
1432,789.7435913085938,792.967041015625,801.8314819335938,789.7435913085938
1433,778.4615478515625,794.5787353515625,805.4578857421875,788.1318969726562
1434,782.4908447265625,790.952392578125,801.025634765625,783.2966918945312
1435,787.7289428710938,788.937744140625,799.8168334960938,785.3113403320312
1436,786.5201416015625,792.5640869140625,801.4285888671875,787.3259887695312
1437,789.3406372070312,795.3846435546875,798.6080322265625,786.923095703125
1438,792.1611938476562,787.3259887695312,796.996337890625,781.2820434570312
1439,792.1611938476562,793.3699340820312,797.3992919921875,783.6996459960938
1440,788.5347900390625,801.8314819335938,792.1611938476562,782.4908447265625
1441,789.3406372070312,800.6226806640625,793.3699340820312,779.2673950195312
1442,788.1318969726562,797.3992919921875,790.1465454101562,776.4468994140625
1443,788.937744140625,794.5787353515625,787.3259887695312,777.2527465820312
1444,789.7435913085938,796.5933837890625,791.3552856445312,782.4908447265625
1445,791.3552856445312,799.4139404296875,792.967041015625,784.908447265625
1446,785.3113403320312,797.3992919921875,792.1611938476562,782.893798828125
1447,780.0732421875,793.3699340820312,786.5201416015625,780.4761962890625
1448,786.923095703125,792.967041015625,786.5201416015625,784.908447265625
1449,792.1611938476562,796.1904907226562,793.3699340820312,792.1611938476562
1450,791.3552856445312,795.7875366210938,799.8168334960938,790.952392578125
1451,784.1025390625,795.7875366210938,796.996337890625,789.3406372070312
1452,778.8644409179688,792.1611938476562,791.7582397460938,789.7435913085938
1453,782.087890625,788.937744140625,796.1904907226562,794.981689453125
1454,785.3113403320312,791.3552856445312,795.7875366210938,800.2197875976562
1455,786.923095703125,790.5494384765625,797.8021850585938,800.6226806640625
1456,784.908447265625,790.952392578125,799.010986328125,799.8168334960938
1457,783.2966918945312,791.7582397460938,799.4139404296875,798.6080322265625
1458,787.7289428710938,791.7582397460938,802.6373901367188,799.4139404296875
1459,787.3259887695312,790.1465454101562,800.2197875976562,792.967041015625
1460,785.3113403320312,791.3552856445312,799.4139404296875,789.7435913085938
1461,784.1025390625,793.3699340820312,797.3992919921875,788.937744140625
1462,786.1171875,790.1465454101562,797.8021850585938,790.1465454101562
1463,790.952392578125,791.3552856445312,799.010986328125,793.7728881835938
1464,791.3552856445312,794.1758422851562,797.8021850585938,792.5640869140625
1465,792.1611938476562,788.937744140625,799.010986328125,791.3552856445312
1466,792.1611938476562,789.7435913085938,799.4139404296875,795.7875366210938
1467,790.952392578125,795.7875366210938,798.2051391601562,794.1758422851562
1468,792.1611938476562,793.3699340820312,794.5787353515625,787.3259887695312
1469,793.3699340820312,790.5494384765625,790.952392578125,787.7289428710938
1470,797.3992919921875,789.7435913085938,792.967041015625,792.1611938476562
1471,798.6080322265625,793.3699340820312,796.996337890625,795.7875366210938
1472,788.1318969726562,791.3552856445312,800.2197875976562,792.1611938476562
1473,785.3113403320312,790.5494384765625,800.6226806640625,784.5054931640625
1474,790.1465454101562,795.3846435546875,797.3992919921875,785.7142944335938
1475,796.5933837890625,797.8021850585938,801.4285888671875,796.1904907226562
1476,799.4139404296875,799.010986328125,804.6520385742188,797.3992919921875
1477,794.5787353515625,795.3846435546875,799.8168334960938,792.967041015625
1478,790.5494384765625,791.7582397460938,798.6080322265625,791.7582397460938
1479,784.5054931640625,786.5201416015625,798.6080322265625,787.7289428710938
1480,781.2820434570312,783.2966918945312,793.3699340820312,782.087890625
1481,788.5347900390625,783.6996459960938,791.3552856445312,788.5347900390625
1482,789.3406372070312,786.5201416015625,793.7728881835938,786.5201416015625
1483,788.5347900390625,792.967041015625,796.5933837890625,785.7142944335938
1484,790.5494384765625,796.1904907226562,798.2051391601562,788.937744140625
1485,792.5640869140625,793.7728881835938,790.952392578125,794.5787353515625
1486,791.7582397460938,792.1611938476562,787.7289428710938,803.8461303710938
1487,791.3552856445312,798.6080322265625,793.3699340820312,803.040283203125
1488,790.952392578125,798.6080322265625,794.1758422851562,791.7582397460938
1489,787.7289428710938,792.967041015625,791.3552856445312,782.893798828125
1490,790.1465454101562,796.1904907226562,791.7582397460938,786.1171875
1491,790.952392578125,794.981689453125,791.7582397460938,782.087890625
1492,788.937744140625,793.3699340820312,790.952392578125,779.6703491210938
1493,792.5640869140625,794.5787353515625,792.967041015625,785.7142944335938
1494,797.3992919921875,789.7435913085938,790.1465454101562,792.967041015625
1495,793.7728881835938,788.5347900390625,788.1318969726562,791.7582397460938
1496,794.1758422851562,795.3846435546875,788.5347900390625,784.1025390625
1497,797.8021850585938,799.4139404296875,790.5494384765625,787.7289428710938
1498,795.3846435546875,794.981689453125,792.5640869140625,794.5787353515625
1499,794.1758422851562,794.981689453125,792.1611938476562,788.1318969726562
1500,796.5933837890625,791.7582397460938,792.967041015625,784.908447265625
1501,792.967041015625,792.1611938476562,792.967041015625,787.7289428710938
1502,788.5347900390625,794.1758422851562,790.5494384765625,783.6996459960938
1503,788.1318969726562,793.3699340820312,786.5201416015625,779.2673950195312
1504,785.7142944335938,792.1611938476562,786.1171875,784.1025390625
1505,789.7435913085938,794.981689453125,791.3552856445312,786.5201416015625
1506,793.7728881835938,794.5787353515625,791.7582397460938,787.7289428710938
1507,789.7435913085938,788.937744140625,790.5494384765625,792.967041015625
1508,788.937744140625,789.3406372070312,794.981689453125,789.3406372070312
1509,791.3552856445312,785.3113403320312,798.2051391601562,791.3552856445312
1510,788.937744140625,790.1465454101562,798.2051391601562,801.4285888671875
1511,786.5201416015625,790.952392578125,795.3846435546875,796.1904907226562
1512,792.5640869140625,790.1465454101562,795.7875366210938,794.981689453125
1513,789.7435913085938,790.952392578125,799.010986328125,796.1904907226562
1514,782.4908447265625,789.3406372070312,798.2051391601562,791.3552856445312
1515,786.923095703125,790.5494384765625,799.010986328125,791.7582397460938
1516,794.981689453125,789.7435913085938,802.6373901367188,797.8021850585938
1517,796.1904907226562,789.3406372070312,800.6226806640625,802.2344360351562
1518,792.1611938476562,786.5201416015625,799.010986328125,796.5933837890625
1519,792.967041015625,787.7289428710938,796.996337890625,796.5933837890625
1520,790.5494384765625,786.5201416015625,792.5640869140625,795.3846435546875
1521,792.1611938476562,784.5054931640625,793.7728881835938,801.025634765625
1522,791.7582397460938,785.7142944335938,796.1904907226562,800.6226806640625
1523,790.1465454101562,786.5201416015625,796.1904907226562,788.1318969726562
1524,789.7435913085938,787.3259887695312,792.967041015625,786.923095703125
1525,791.7582397460938,790.952392578125,795.7875366210938,790.1465454101562
1526,798.6080322265625,795.3846435546875,799.8168334960938,795.3846435546875
1527,795.7875366210938,792.5640869140625,798.6080322265625,798.6080322265625
1528,783.2966918945312,788.937744140625,800.6226806640625,789.3406372070312
1529,772.0146484375,787.7289428710938,801.8314819335938,776.4468994140625
1530,778.8644409179688,786.5201416015625,802.6373901367188,780.879150390625
1531,790.952392578125,782.4908447265625,803.4432373046875,787.7289428710938
1532,788.1318969726562,781.6849975585938,799.010986328125,790.5494384765625
1533,778.4615478515625,782.893798828125,793.7728881835938,790.952392578125
1534,771.6116943359375,782.087890625,793.3699340820312,782.4908447265625
1535,770.8058471679688,780.879150390625,787.3259887695312,780.4761962890625
1536,774.4322509765625,785.7142944335938,786.923095703125,782.087890625
1537,783.6996459960938,792.967041015625,793.3699340820312,787.3259887695312
1538,785.7142944335938,792.5640869140625,794.1758422851562,786.5201416015625
1539,782.087890625,790.952392578125,791.7582397460938,780.879150390625
1540,788.5347900390625,790.952392578125,790.5494384765625,781.2820434570312
1541,794.981689453125,789.3406372070312,789.3406372070312,782.087890625
1542,798.6080322265625,793.7728881835938,789.7435913085938,783.2966918945312
1543,799.8168334960938,793.7728881835938,791.7582397460938,785.7142944335938
1544,799.010986328125,791.3552856445312,794.5787353515625,793.7728881835938
1545,799.8168334960938,794.1758422851562,794.981689453125,792.967041015625
1546,805.8607788085938,796.5933837890625,796.5933837890625,791.3552856445312
1547,811.5018310546875,800.6226806640625,799.4139404296875,796.1904907226562
1548,805.054931640625,800.6226806640625,796.996337890625,798.6080322265625
1549,794.981689453125,794.5787353515625,794.981689453125,800.6226806640625
1550,795.3846435546875,794.5787353515625,793.3699340820312,799.8168334960938
1551,794.5787353515625,791.3552856445312,791.3552856445312,794.981689453125
1552,790.952392578125,789.7435913085938,789.7435913085938,788.937744140625
1553,790.952392578125,793.3699340820312,789.3406372070312,787.7289428710938
1554,795.3846435546875,794.981689453125,789.7435913085938,789.7435913085938
1555,795.3846435546875,796.1904907226562,790.5494384765625,790.1465454101562
1556,796.1904907226562,798.2051391601562,794.981689453125,794.5787353515625
1557,802.2344360351562,800.2197875976562,795.3846435546875,793.7728881835938
1558,794.5787353515625,798.6080322265625,795.7875366210938,787.3259887695312
1559,783.6996459960938,797.3992919921875,794.5787353515625,789.3406372070312
1560,774.8351440429688,795.7875366210938,788.5347900390625,784.908447265625
1561,772.0146484375,794.1758422851562,787.7289428710938,775.6410522460938
1562,776.4468994140625,794.1758422851562,794.1758422851562,776.0439453125
1563,773.2234497070312,790.1465454101562,795.3846435546875,777.6557006835938
1564,774.4322509765625,787.3259887695312,790.1465454101562,778.05859375
1565,779.6703491210938,788.937744140625,790.5494384765625,775.2380981445312
1566,781.6849975585938,791.7582397460938,792.1611938476562,777.6557006835938
1567,785.7142944335938,795.7875366210938,789.3406372070312,788.937744140625
1568,787.7289428710938,796.996337890625,791.7582397460938,791.3552856445312
1569,789.7435913085938,797.8021850585938,796.1904907226562,790.1465454101562
1570,789.7435913085938,798.2051391601562,793.3699340820312,786.5201416015625
1571,794.981689453125,794.1758422851562,788.5347900390625,784.5054931640625
1572,793.3699340820312,789.3406372070312,785.3113403320312,779.2673950195312
1573,786.1171875,789.3406372070312,790.952392578125,775.6410522460938
1574,790.1465454101562,792.5640869140625,790.952392578125,783.2966918945312
1575,788.937744140625,790.952392578125,788.5347900390625,784.908447265625
1576,780.879150390625,786.923095703125,790.952392578125,778.4615478515625
1577,784.1025390625,784.1025390625,792.1611938476562,778.05859375
1578,785.3113403320312,780.0732421875,791.7582397460938,782.087890625
1579,781.6849975585938,786.5201416015625,789.7435913085938,782.4908447265625
1580,781.2820434570312,791.7582397460938,791.3552856445312,779.2673950195312
1581,776.4468994140625,783.6996459960938,791.3552856445312,780.0732421875
1582,778.8644409179688,783.2966918945312,792.1611938476562,783.6996459960938
1583,788.1318969726562,790.1465454101562,792.1611938476562,782.893798828125
1584,788.1318969726562,787.3259887695312,791.3552856445312,783.6996459960938
