timestamp,RAW_TP9,RAW_AF7,RAW_AF8,RAW_TP10
1,786.1171875,794.1758422851562,803.8461303710938,788.1318969726562
2,787.3259887695312,794.5787353515625,797.8021850585938,786.1171875
3,791.7582397460938,793.3699340820312,794.5787353515625,789.3406372070312
4,795.7875366210938,796.1904907226562,791.3552856445312,790.952392578125
5,789.7435913085938,791.7582397460938,788.1318969726562,782.4908447265625
6,790.952392578125,786.1171875,792.967041015625,775.6410522460938
7,793.3699340820312,786.1171875,797.3992919921875,778.4615478515625
8,791.3552856445312,791.3552856445312,790.5494384765625,784.1025390625
9,786.923095703125,799.8168334960938,794.5787353515625,782.893798828125
10,791.3552856445312,800.2197875976562,802.6373901367188,786.5201416015625
11,794.1758422851562,796.996337890625,797.3992919921875,790.952392578125
12,788.5347900390625,789.7435913085938,794.1758422851562,788.937744140625
13,790.1465454101562,788.937744140625,795.7875366210938,788.937744140625
14,790.5494384765625,786.923095703125,795.7875366210938,790.1465454101562
15,790.5494384765625,783.6996459960938,794.1758422851562,795.3846435546875
16,792.5640869140625,792.967041015625,793.3699340820312,796.5933837890625
17,791.3552856445312,793.7728881835938,796.996337890625,793.3699340820312
18,790.1465454101562,786.1171875,799.010986328125,797.8021850585938
19,795.3846435546875,784.1025390625,795.7875366210938,803.040283203125
20,792.1611938476562,784.5054931640625,796.5933837890625,793.3699340820312
21,791.7582397460938,792.5640869140625,801.8314819335938,783.2966918945312
22,799.4139404296875,792.1611938476562,790.952392578125,788.1318969726562
23,799.4139404296875,784.1025390625,783.6996459960938,788.1318969726562
24,800.2197875976562,786.1171875,796.5933837890625,786.923095703125
25,802.6373901367188,790.952392578125,799.4139404296875,788.937744140625
26,802.2344360351562,790.952392578125,791.7582397460938,792.5640869140625
27,795.3846435546875,787.7289428710938,790.1465454101562,796.5933837890625
28,781.6849975585938,788.1318969726562,788.5347900390625,790.1465454101562
29,781.6849975585938,788.1318969726562,791.3552856445312,783.6996459960938
30,788.1318969726562,781.6849975585938,793.3699340820312,781.2820434570312
31,782.4908447265625,774.8351440429688,792.5640869140625,780.879150390625
32,781.6849975585938,778.05859375,795.3846435546875,790.5494384765625
33,793.7728881835938,788.937744140625,792.967041015625,798.2051391601562
34,793.3699340820312,799.010986328125,788.5347900390625,797.8021850585938
35,783.6996459960938,797.8021850585938,788.5347900390625,794.981689453125
36,782.087890625,789.7435913085938,794.5787353515625,793.7728881835938
37,788.1318969726562,790.5494384765625,796.1904907226562,794.981689453125
38,793.7728881835938,792.967041015625,796.1904907226562,796.996337890625
39,789.7435913085938,790.5494384765625,794.1758422851562,798.2051391601562
40,787.7289428710938,793.3699340820312,794.1758422851562,798.2051391601562
41,786.5201416015625,790.1465454101562,787.7289428710938,795.7875366210938
42,787.3259887695312,786.1171875,787.3259887695312,797.3992919921875
43,791.7582397460938,790.5494384765625,796.5933837890625,796.1904907226562
44,791.3552856445312,793.3699340820312,793.3699340820312,786.5201416015625
45,786.5201416015625,794.5787353515625,792.967041015625,788.5347900390625
46,786.923095703125,793.7728881835938,793.7728881835938,803.4432373046875
47,782.893798828125,789.7435913085938,793.7728881835938,800.2197875976562
48,780.4761962890625,788.937744140625,795.7875366210938,787.7289428710938
49,783.6996459960938,786.923095703125,792.1611938476562,792.967041015625
50,781.6849975585938,787.3259887695312,792.1611938476562,799.010986328125
51,778.8644409179688,791.7582397460938,799.8168334960938,794.981689453125
52,784.5054931640625,793.7728881835938,801.8314819335938,797.3992919921875
53,788.937744140625,794.5787353515625,796.996337890625,799.8168334960938
54,790.952392578125,792.5640869140625,797.8021850585938,801.025634765625
55,787.3259887695312,790.952392578125,802.2344360351562,795.7875366210938
56,788.1318969726562,793.3699340820312,803.4432373046875,793.7728881835938
57,803.040283203125,793.7728881835938,799.4139404296875,801.025634765625
58,804.2490844726562,799.010986328125,798.2051391601562,794.1758422851562
59,792.1611938476562,801.4285888671875,792.1611938476562,786.5201416015625
60,786.1171875,796.1904907226562,790.952392578125,789.7435913085938
61,787.3259887695312,789.3406372070312,795.7875366210938,790.952392578125
62,793.7728881835938,791.7582397460938,798.2051391601562,792.1611938476562
63,795.3846435546875,793.3699340820312,796.1904907226562,786.923095703125
64,796.1904907226562,790.5494384765625,799.010986328125,792.1611938476562
65,798.6080322265625,790.952392578125,803.040283203125,813.5164794921875
66,791.7582397460938,789.3406372070312,799.8168334960938,810.6959838867188
67,785.3113403320312,794.981689453125,799.010986328125,791.7582397460938
68,792.1611938476562,792.967041015625,794.5787353515625,794.1758422851562
69,795.7875366210938,776.0439453125,793.3699340820312,793.3699340820312
70,789.7435913085938,774.8351440429688,793.7728881835938,788.5347900390625
71,783.6996459960938,790.1465454101562,792.967041015625,788.937744140625
72,784.5054931640625,794.5787353515625,793.7728881835938,789.7435913085938
73,786.923095703125,791.7582397460938,792.967041015625,793.3699340820312
74,785.3113403320312,788.5347900390625,788.1318969726562,798.6080322265625
75,788.937744140625,788.937744140625,791.7582397460938,798.2051391601562
76,791.3552856445312,790.5494384765625,794.981689453125,802.2344360351562
77,790.5494384765625,784.908447265625,792.5640869140625,804.2490844726562
78,790.1465454101562,786.923095703125,801.4285888671875,794.5787353515625
79,787.7289428710938,786.5201416015625,805.054931640625,792.967041015625
80,790.952392578125,786.923095703125,796.5933837890625,794.981689453125
81,796.996337890625,795.3846435546875,791.7582397460938,796.5933837890625
82,796.996337890625,796.1904907226562,791.7582397460938,794.5787353515625
83,795.3846435546875,795.3846435546875,792.967041015625,797.3992919921875
84,794.1758422851562,791.3552856445312,792.967041015625,803.8461303710938
85,799.8168334960938,787.7289428710938,793.3699340820312,800.6226806640625
86,799.010986328125,791.7582397460938,794.981689453125,793.3699340820312
87,790.1465454101562,793.7728881835938,793.3699340820312,790.952392578125
88,794.981689453125,794.981689453125,790.1465454101562,798.2051391601562
89,797.3992919921875,793.7728881835938,792.1611938476562,796.5933837890625
90,789.7435913085938,795.7875366210938,791.7582397460938,781.6849975585938
91,788.5347900390625,794.981689453125,791.3552856445312,782.893798828125
92,791.7582397460938,786.5201416015625,794.981689453125,794.1758422851562
93,789.7435913085938,787.3259887695312,794.1758422851562,790.952392578125
94,786.5201416015625,792.967041015625,795.3846435546875,782.893798828125
95,791.3552856445312,800.6226806640625,798.2051391601562,787.3259887695312
96,792.5640869140625,796.5933837890625,796.996337890625,790.5494384765625
97,791.3552856445312,793.7728881835938,792.1611938476562,788.5347900390625
98,797.3992919921875,805.054931640625,793.3699340820312,796.1904907226562
99,803.040283203125,804.2490844726562,797.8021850585938,801.025634765625
100,797.3992919921875,801.025634765625,792.5640869140625,799.4139404296875
101,787.7289428710938,797.8021850585938,791.7582397460938,795.3846435546875
102,787.7289428710938,794.5787353515625,797.3992919921875,796.996337890625
103,786.923095703125,792.1611938476562,797.8021850585938,796.1904907226562
104,786.5201416015625,788.937744140625,796.5933837890625,791.3552856445312
105,793.3699340820312,794.981689453125,793.7728881835938,790.952392578125
106,789.7435913085938,792.5640869140625,795.7875366210938,792.967041015625
107,787.7289428710938,789.7435913085938,794.1758422851562,793.7728881835938
108,784.5054931640625,792.5640869140625,791.7582397460938,787.3259887695312
109,786.923095703125,792.967041015625,796.1904907226562,785.7142944335938
110,786.923095703125,791.7582397460938,795.3846435546875,786.5201416015625
111,790.5494384765625,788.937744140625,794.981689453125,796.1904907226562
112,794.5787353515625,790.1465454101562,797.8021850585938,801.4285888671875
113,787.3259887695312,793.3699340820312,794.1758422851562,785.7142944335938
114,789.3406372070312,796.996337890625,790.952392578125,781.6849975585938
115,794.981689453125,796.1904907226562,794.1758422851562,784.908447265625
116,792.967041015625,797.3992919921875,797.3992919921875,786.923095703125
117,792.5640869140625,794.1758422851562,794.5787353515625,786.5201416015625
118,795.7875366210938,787.7289428710938,788.1318969726562,778.05859375
119,794.1758422851562,790.1465454101562,790.1465454101562,782.893798828125
120,790.952392578125,792.1611938476562,794.1758422851562,784.908447265625
121,787.7289428710938,794.1758422851562,794.5787353515625,780.879150390625
122,791.3552856445312,794.5787353515625,790.5494384765625,788.5347900390625
123,796.5933837890625,792.1611938476562,786.923095703125,800.2197875976562
124,790.5494384765625,793.7728881835938,791.3552856445312,797.3992919921875
125,790.1465454101562,795.3846435546875,793.7728881835938,788.5347900390625
126,794.5787353515625,788.937744140625,794.5787353515625,789.3406372070312
127,791.3552856445312,788.5347900390625,797.8021850585938,794.981689453125
128,793.3699340820312,796.1904907226562,801.4285888671875,800.6226806640625
129,794.1758422851562,796.5933837890625,799.010986328125,795.3846435546875
130,788.1318969726562,793.7728881835938,795.7875366210938,786.5201416015625
131,789.7435913085938,797.8021850585938,801.4285888671875,787.7289428710938
132,788.1318969726562,795.3846435546875,799.010986328125,788.5347900390625
133,782.087890625,788.937744140625,789.7435913085938,786.923095703125
134,784.908447265625,791.3552856445312,787.7289428710938,792.967041015625
135,786.1171875,789.7435913085938,792.5640869140625,794.981689453125
136,784.908447265625,787.3259887695312,796.1904907226562,787.7289428710938
137,788.5347900390625,788.5347900390625,794.1758422851562,788.1318969726562
138,792.1611938476562,788.1318969726562,795.3846435546875,800.6226806640625
139,788.5347900390625,786.5201416015625,796.996337890625,796.1904907226562
140,786.1171875,781.6849975585938,796.996337890625,788.1318969726562
141,787.7289428710938,791.7582397460938,795.7875366210938,790.5494384765625
142,786.5201416015625,802.6373901367188,792.5640869140625,784.908447265625
143,782.4908447265625,801.8314819335938,792.1611938476562,782.4908447265625
144,783.6996459960938,797.3992919921875,788.937744140625,786.5201416015625
145,788.937744140625,792.967041015625,788.937744140625,788.1318969726562
146,785.3113403320312,792.967041015625,788.937744140625,790.5494384765625
147,780.879150390625,801.4285888671875,789.3406372070312,790.1465454101562
148,783.2966918945312,802.6373901367188,792.967041015625,791.7582397460938
149,785.7142944335938,800.2197875976562,792.1611938476562,795.3846435546875
150,786.923095703125,795.7875366210938,784.5054931640625,786.5201416015625
151,787.7289428710938,801.4285888671875,782.087890625,776.8497924804688
152,780.879150390625,802.6373901367188,786.923095703125,778.8644409179688
153,775.2380981445312,794.1758422851562,788.1318969726562,773.2234497070312
154,774.029296875,793.3699340820312,789.7435913085938,774.8351440429688
155,773.2234497070312,787.3259887695312,788.5347900390625,781.6849975585938
156,780.4761962890625,789.3406372070312,794.1758422851562,786.5201416015625
157,785.3113403320312,792.967041015625,795.7875366210938,785.3113403320312
158,779.2673950195312,788.1318969726562,791.7582397460938,777.6557006835938
159,776.0439453125,790.5494384765625,795.3846435546875,782.4908447265625
160,776.4468994140625,794.1758422851562,797.8021850585938,783.2966918945312
161,778.05859375,794.1758422851562,793.3699340820312,786.923095703125
162,776.8497924804688,792.967041015625,794.5787353515625,791.3552856445312
163,781.6849975585938,792.967041015625,799.010986328125,789.3406372070312
164,791.7582397460938,795.3846435546875,797.3992919921875,787.7289428710938
165,788.1318969726562,792.1611938476562,797.8021850585938,786.1171875
166,786.1171875,792.5640869140625,799.8168334960938,787.7289428710938
167,791.3552856445312,792.5640869140625,795.7875366210938,790.5494384765625
168,790.5494384765625,784.908447265625,794.1758422851562,788.937744140625
169,791.3552856445312,783.6996459960938,793.7728881835938,790.1465454101562
170,792.5640869140625,788.1318969726562,790.5494384765625,792.967041015625
171,790.952392578125,786.5201416015625,797.3992919921875,790.5494384765625
172,787.3259887695312,792.1611938476562,803.040283203125,792.967041015625
173,784.1025390625,801.4285888671875,798.6080322265625,795.3846435546875
174,786.5201416015625,798.6080322265625,794.5787353515625,794.5787353515625
175,784.5054931640625,790.952392578125,792.1611938476562,795.7875366210938
176,786.923095703125,792.1611938476562,786.923095703125,793.7728881835938
177,792.5640869140625,791.7582397460938,785.7142944335938,794.1758422851562
178,787.7289428710938,782.4908447265625,792.5640869140625,794.981689453125
179,786.923095703125,783.6996459960938,795.3846435546875,787.3259887695312
180,790.952392578125,790.1465454101562,795.7875366210938,791.7582397460938
181,793.3699340820312,791.7582397460938,800.2197875976562,793.3699340820312
182,793.7728881835938,791.3552856445312,799.8168334960938,782.4908447265625
183,788.937744140625,792.967041015625,797.8021850585938,777.6557006835938
184,782.087890625,792.967041015625,790.952392578125,784.5054931640625
185,780.879150390625,795.3846435546875,790.952392578125,788.1318969726562
186,780.879150390625,790.952392578125,790.952392578125,783.2966918945312
187,784.5054931640625,785.3113403320312,784.5054931640625,788.5347900390625
188,786.1171875,782.893798828125,791.7582397460938,791.7582397460938
189,788.1318969726562,788.1318969726562,796.996337890625,789.3406372070312
190,791.7582397460938,795.3846435546875,798.6080322265625,784.5054931640625
191,797.3992919921875,790.952392578125,799.4139404296875,791.3552856445312
192,803.4432373046875,794.1758422851562,798.6080322265625,803.4432373046875
193,796.1904907226562,793.3699340820312,798.6080322265625,795.3846435546875
194,789.3406372070312,791.3552856445312,802.2344360351562,798.6080322265625
195,791.7582397460938,793.7728881835938,802.6373901367188,806.6666870117188
196,789.7435913085938,794.5787353515625,795.7875366210938,810.2930297851562
197,788.937744140625,799.010986328125,793.7728881835938,811.098876953125
198,790.5494384765625,792.967041015625,798.2051391601562,805.4578857421875
199,794.1758422851562,788.5347900390625,797.3992919921875,805.054931640625
200,798.6080322265625,795.7875366210938,797.3992919921875,803.040283203125
201,798.6080322265625,799.010986328125,804.6520385742188,798.2051391601562
202,800.6226806640625,799.4139404296875,802.2344360351562,794.1758422851562
203,804.6520385742188,798.2051391601562,797.3992919921875,791.3552856445312
204,806.2637329101562,796.5933837890625,799.4139404296875,793.3699340820312
205,807.069580078125,796.996337890625,800.2197875976562,792.1611938476562
206,806.6666870117188,795.7875366210938,796.5933837890625,790.1465454101562
207,802.6373901367188,792.967041015625,790.952392578125,794.1758422851562
208,796.5933837890625,796.996337890625,794.1758422851562,797.8021850585938
209,795.7875366210938,796.996337890625,796.996337890625,790.5494384765625
210,794.5787353515625,788.937744140625,795.3846435546875,790.952392578125
211,786.923095703125,785.3113403320312,798.2051391601562,794.1758422851562
212,785.7142944335938,787.3259887695312,800.6226806640625,790.952392578125
213,790.952392578125,790.5494384765625,796.5933837890625,792.967041015625
214,786.5201416015625,792.1611938476562,789.7435913085938,789.3406372070312
215,789.3406372070312,788.5347900390625,795.7875366210938,789.3406372070312
216,800.2197875976562,790.952392578125,796.1904907226562,794.5787353515625
217,801.8314819335938,798.2051391601562,793.3699340820312,793.3699340820312
218,794.1758422851562,796.1904907226562,794.1758422851562,796.996337890625
219,790.1465454101562,792.1611938476562,792.967041015625,802.2344360351562
220,788.5347900390625,791.7582397460938,798.2051391601562,802.2344360351562
221,791.7582397460938,793.3699340820312,800.2197875976562,799.010986328125
222,796.1904907226562,794.981689453125,798.2051391601562,801.8314819335938
223,792.1611938476562,791.7582397460938,796.5933837890625,807.069580078125
224,795.3846435546875,794.981689453125,794.5787353515625,804.6520385742188
225,802.2344360351562,802.2344360351562,796.5933837890625,798.2051391601562
226,805.4578857421875,797.3992919921875,792.1611938476562,797.8021850585938
227,803.040283203125,790.1465454101562,788.1318969726562,795.7875366210938
228,799.4139404296875,791.3552856445312,789.7435913085938,787.7289428710938
229,798.2051391601562,792.1611938476562,786.1171875,782.4908447265625
230,797.3992919921875,792.5640869140625,789.7435913085938,793.3699340820312
231,795.7875366210938,794.5787353515625,791.3552856445312,799.4139404296875
232,796.996337890625,799.010986328125,795.3846435546875,795.3846435546875
233,799.4139404296875,791.7582397460938,799.4139404296875,801.4285888671875
234,794.1758422851562,788.937744140625,794.1758422851562,803.040283203125
235,792.967041015625,798.2051391601562,793.7728881835938,798.6080322265625
236,799.4139404296875,794.1758422851562,794.5787353515625,792.967041015625
237,795.3846435546875,782.087890625,792.5640869140625,793.3699340820312
238,789.7435913085938,782.893798828125,789.3406372070312,792.967041015625
239,793.7728881835938,788.5347900390625,794.1758422851562,796.1904907226562
240,789.7435913085938,786.5201416015625,794.5787353515625,797.8021850585938
241,780.879150390625,788.5347900390625,789.3406372070312,800.6226806640625
242,782.4908447265625,789.7435913085938,785.3113403320312,800.6226806640625
243,786.1171875,788.937744140625,787.3259887695312,790.5494384765625
244,788.5347900390625,789.7435913085938,792.1611938476562,785.3113403320312
245,790.5494384765625,788.1318969726562,789.7435913085938,790.952392578125
246,796.996337890625,786.1171875,792.1611938476562,794.5787353515625
247,803.040283203125,784.1025390625,799.8168334960938,792.1611938476562
248,805.4578857421875,792.967041015625,794.5787353515625,795.3846435546875
249,806.6666870117188,796.5933837890625,793.3699340820312,792.5640869140625
250,804.2490844726562,790.952392578125,795.3846435546875,787.3259887695312
251,801.8314819335938,790.1465454101562,790.952392578125,782.893798828125
252,799.4139404296875,795.3846435546875,796.5933837890625,785.7142944335938
253,797.3992919921875,799.010986328125,801.8314819335938,793.3699340820312
254,801.025634765625,793.3699340820312,799.010986328125,796.5933837890625
255,801.4285888671875,795.3846435546875,796.996337890625,797.3992919921875
256,798.6080322265625,797.8021850585938,796.996337890625,797.8021850585938
257,793.7728881835938,790.5494384765625,794.981689453125,796.996337890625
258,793.7728881835938,788.5347900390625,791.3552856445312,794.981689453125
259,799.4139404296875,795.7875366210938,796.996337890625,797.3992919921875
260,797.8021850585938,801.025634765625,803.040283203125,794.5787353515625
261,792.5640869140625,798.2051391601562,794.981689453125,787.3259887695312
262,791.7582397460938,797.3992919921875,793.3699340820312,784.908447265625
263,790.952392578125,795.7875366210938,799.4139404296875,788.1318969726562
264,792.967041015625,789.3406372070312,797.3992919921875,795.7875366210938
265,800.6226806640625,786.1171875,786.1171875,800.2197875976562
266,794.981689453125,791.7582397460938,783.2966918945312,793.7728881835938
267,778.05859375,792.1611938476562,791.3552856445312,782.893798828125
268,775.2380981445312,789.3406372070312,791.3552856445312,777.2527465820312
269,789.7435913085938,793.7728881835938,788.5347900390625,788.1318969726562
270,796.5933837890625,799.8168334960938,792.967041015625,791.7582397460938
271,788.5347900390625,801.8314819335938,798.6080322265625,788.937744140625
272,786.5201416015625,794.5787353515625,796.5933837890625,793.7728881835938
273,788.937744140625,787.7289428710938,796.996337890625,799.8168334960938
274,792.1611938476562,792.1611938476562,794.981689453125,799.8168334960938
275,795.3846435546875,794.1758422851562,788.937744140625,791.7582397460938
276,792.967041015625,795.7875366210938,786.5201416015625,788.5347900390625
277,792.967041015625,799.010986328125,786.923095703125,782.087890625
278,793.3699340820312,797.3992919921875,790.1465454101562,781.6849975585938
279,796.1904907226562,799.010986328125,794.1758422851562,785.3113403320312
280,801.025634765625,797.8021850585938,794.981689453125,788.5347900390625
281,800.6226806640625,796.5933837890625,797.3992919921875,794.5787353515625
282,792.967041015625,795.7875366210938,795.7875366210938,790.5494384765625
283,790.1465454101562,793.3699340820312,790.952392578125,787.3259887695312
284,799.010986328125,786.5201416015625,791.7582397460938,791.7582397460938
285,794.5787353515625,780.0732421875,792.5640869140625,796.1904907226562
286,789.7435913085938,785.7142944335938,792.1611938476562,796.5933837890625
287,802.2344360351562,791.3552856445312,797.8021850585938,798.2051391601562
288,805.054931640625,794.981689453125,801.4285888671875,795.3846435546875
289,797.8021850585938,795.7875366210938,797.8021850585938,790.5494384765625
290,797.8021850585938,794.1758422851562,792.967041015625,794.5787353515625
291,793.7728881835938,793.3699340820312,793.7728881835938,797.8021850585938
292,794.981689453125,793.3699340820312,796.5933837890625,797.3992919921875
293,797.8021850585938,798.6080322265625,799.4139404296875,790.5494384765625
294,792.5640869140625,800.6226806640625,794.5787353515625,782.893798828125
295,796.5933837890625,795.7875366210938,789.3406372070312,787.3259887695312
296,794.981689453125,791.7582397460938,792.5640869140625,789.3406372070312
297,791.3552856445312,792.5640869140625,794.1758422851562,792.5640869140625
298,795.3846435546875,789.3406372070312,794.5787353515625,798.6080322265625
299,795.3846435546875,792.1611938476562,795.7875366210938,799.8168334960938
300,793.3699340820312,800.6226806640625,793.3699340820312,800.2197875976562
301,793.7728881835938,805.054931640625,789.7435913085938,797.8021850585938
302,793.7728881835938,804.2490844726562,792.5640869140625,790.1465454101562
303,790.5494384765625,797.3992919921875,796.5933837890625,792.1611938476562
304,787.7289428710938,793.3699340820312,799.010986328125,794.981689453125
305,793.3699340820312,795.3846435546875,803.4432373046875,789.3406372070312
306,795.3846435546875,794.5787353515625,803.4432373046875,792.1611938476562
307,786.923095703125,794.981689453125,799.010986328125,796.5933837890625
308,789.3406372070312,796.5933837890625,797.3992919921875,794.1758422851562
309,796.996337890625,799.8168334960938,797.3992919921875,792.967041015625
310,794.1758422851562,794.5787353515625,796.1904907226562,796.1904907226562
311,791.7582397460938,782.4908447265625,789.3406372070312,796.5933837890625
312,791.7582397460938,788.5347900390625,788.1318969726562,796.5933837890625
313,790.5494384765625,794.981689453125,791.7582397460938,793.3699340820312
314,790.952392578125,794.981689453125,789.3406372070312,795.7875366210938
315,794.1758422851562,793.7728881835938,792.1611938476562,802.6373901367188
316,792.967041015625,796.5933837890625,796.1904907226562,803.4432373046875
317,784.908447265625,791.7582397460938,791.3552856445312,795.3846435546875
318,785.3113403320312,784.5054931640625,789.7435913085938,793.7728881835938
319,788.5347900390625,790.5494384765625,795.3846435546875,794.981689453125
320,785.7142944335938,794.1758422851562,794.5787353515625,792.5640869140625
321,786.1171875,785.3113403320312,785.3113403320312,787.3259887695312
322,785.3113403320312,785.7142944335938,786.5201416015625,781.6849975585938
323,786.5201416015625,794.1758422851562,796.5933837890625,782.087890625
324,789.7435913085938,791.3552856445312,798.6080322265625,784.908447265625
325,787.3259887695312,786.923095703125,793.7728881835938,788.1318969726562
326,786.923095703125,789.7435913085938,789.7435913085938,789.3406372070312
327,786.923095703125,797.8021850585938,792.967041015625,790.952392578125
328,781.6849975585938,796.5933837890625,794.981689453125,785.7142944335938
329,784.1025390625,791.7582397460938,790.952392578125,789.3406372070312
330,793.3699340820312,788.937744140625,791.3552856445312,796.5933837890625
331,799.4139404296875,786.923095703125,795.3846435546875,795.3846435546875
332,802.6373901367188,793.7728881835938,793.3699340820312,794.1758422851562
333,798.6080322265625,796.996337890625,790.1465454101562,799.010986328125
334,788.1318969726562,795.3846435546875,788.1318969726562,795.3846435546875
335,782.4908447265625,794.5787353515625,790.1465454101562,786.1171875
336,792.1611938476562,794.1758422851562,792.967041015625,786.923095703125
337,793.3699340820312,783.2966918945312,791.7582397460938,792.967041015625
338,792.5640869140625,785.3113403320312,788.1318969726562,802.2344360351562
339,796.996337890625,793.3699340820312,786.1171875,796.5933837890625
340,798.6080322265625,794.5787353515625,790.5494384765625,796.996337890625
341,803.8461303710938,794.5787353515625,786.5201416015625,807.87548828125
342,802.2344360351562,794.1758422851562,785.7142944335938,806.2637329101562
343,796.5933837890625,797.3992919921875,793.7728881835938,799.4139404296875
344,796.996337890625,792.5640869140625,791.7582397460938,800.6226806640625
345,796.1904907226562,792.1611938476562,792.967041015625,807.069580078125
346,792.967041015625,791.7582397460938,796.996337890625,801.8314819335938
347,790.1465454101562,787.3259887695312,794.981689453125,796.1904907226562
348,792.967041015625,794.5787353515625,795.7875366210938,794.1758422851562
349,796.996337890625,796.5933837890625,793.7728881835938,796.5933837890625
350,793.7728881835938,790.952392578125,794.5787353515625,802.6373901367188
351,783.2966918945312,785.3113403320312,799.8168334960938,789.7435913085938
352,776.8497924804688,784.908447265625,796.5933837890625,782.4908447265625
353,785.7142944335938,794.5787353515625,797.3992919921875,791.7582397460938
354,787.3259887695312,791.7582397460938,797.8021850585938,790.952392578125
355,782.087890625,787.3259887695312,794.5787353515625,782.087890625
356,788.5347900390625,789.7435913085938,790.952392578125,786.1171875
357,793.3699340820312,787.7289428710938,787.7289428710938,786.923095703125
358,794.1758422851562,793.3699340820312,796.996337890625,784.5054931640625
359,796.1904907226562,797.8021850585938,800.2197875976562,783.6996459960938
360,798.6080322265625,792.1611938476562,793.7728881835938,785.7142944335938
361,803.4432373046875,790.1465454101562,793.7728881835938,787.7289428710938
362,802.2344360351562,787.3259887695312,799.010986328125,792.5640869140625
363,796.1904907226562,788.1318969726562,801.025634765625,791.7582397460938
364,792.967041015625,790.952392578125,792.5640869140625,786.5201416015625
365,796.5933837890625,794.5787353515625,788.937744140625,803.8461303710938
366,795.7875366210938,796.1904907226562,794.5787353515625,806.2637329101562
367,795.3846435546875,794.1758422851562,791.7582397460938,796.1904907226562
368,802.6373901367188,795.7875366210938,791.7582397460938,800.6226806640625
369,803.8461303710938,794.981689453125,793.3699340820312,803.8461303710938
370,798.2051391601562,788.937744140625,791.3552856445312,801.8314819335938
371,795.7875366210938,785.7142944335938,791.7582397460938,803.4432373046875
372,793.3699340820312,786.1171875,787.3259887695312,801.8314819335938
373,788.1318969726562,791.3552856445312,787.7289428710938,791.7582397460938
374,787.3259887695312,794.5787353515625,793.7728881835938,791.3552856445312
375,787.3259887695312,794.5787353515625,798.2051391601562,793.3699340820312
376,788.937744140625,799.010986328125,795.7875366210938,796.1904907226562
377,792.1611938476562,799.8168334960938,793.7728881835938,798.2051391601562
378,793.7728881835938,794.5787353515625,799.010986328125,788.5347900390625
379,788.1318969726562,783.6996459960938,799.4139404296875,785.7142944335938
380,786.5201416015625,780.4761962890625,799.8168334960938,788.937744140625
381,790.952392578125,785.3113403320312,796.1904907226562,790.1465454101562
382,793.3699340820312,787.3259887695312,792.967041015625,793.3699340820312
383,795.7875366210938,782.087890625,795.3846435546875,798.6080322265625
384,792.5640869140625,777.2527465820312,797.8021850585938,794.981689453125
385,789.7435913085938,787.7289428710938,799.4139404296875,792.1611938476562
386,791.7582397460938,788.937744140625,796.996337890625,794.981689453125
387,793.3699340820312,784.908447265625,794.981689453125,798.6080322265625
388,793.7728881835938,792.5640869140625,794.1758422851562,799.8168334960938
389,793.7728881835938,797.3992919921875,794.981689453125,794.5787353515625
390,791.7582397460938,797.8021850585938,801.025634765625,794.5787353515625
391,800.2197875976562,796.5933837890625,803.8461303710938,801.4285888671875
392,801.4285888671875,795.3846435546875,803.040283203125,801.8314819335938
393,794.981689453125,790.5494384765625,803.4432373046875,801.4285888671875
394,799.8168334960938,787.3259887695312,801.8314819335938,797.3992919921875
395,799.8168334960938,789.7435913085938,795.7875366210938,782.893798828125
396,794.5787353515625,785.7142944335938,792.5640869140625,780.879150390625
397,796.996337890625,780.879150390625,794.5787353515625,791.3552856445312
398,792.5640869140625,790.5494384765625,797.3992919921875,784.5054931640625
399,791.3552856445312,798.6080322265625,796.5933837890625,787.3259887695312
400,792.967041015625,798.2051391601562,796.996337890625,796.1904907226562
401,784.908447265625,794.1758422851562,801.025634765625,789.7435913085938
402,787.7289428710938,790.952392578125,796.996337890625,792.5640869140625
403,793.3699340820312,792.1611938476562,789.7435913085938,792.1611938476562
404,792.1611938476562,788.937744140625,790.1465454101562,791.3552856445312
405,796.996337890625,785.3113403320312,789.7435913085938,794.981689453125
406,805.8607788085938,788.1318969726562,788.937744140625,799.4139404296875
407,816.3369750976562,794.5787353515625,794.1758422851562,808.2783813476562
408,809.4871826171875,799.4139404296875,793.3699340820312,797.3992919921875
409,787.7289428710938,796.1904907226562,791.3552856445312,774.4322509765625
410,786.923095703125,797.3992919921875,795.3846435546875,781.2820434570312
411,793.3699340820312,799.010986328125,800.6226806640625,798.2051391601562
412,786.5201416015625,791.7582397460938,800.2197875976562,790.952392578125
413,783.6996459960938,789.7435913085938,796.5933837890625,788.1318969726562
414,783.2966918945312,789.7435913085938,797.3992919921875,794.1758422851562
415,784.1025390625,793.3699340820312,796.5933837890625,795.7875366210938
416,786.1171875,793.7728881835938,790.952392578125,786.923095703125
417,782.4908447265625,788.937744140625,790.952392578125,782.893798828125
418,783.6996459960938,793.7728881835938,796.996337890625,789.7435913085938
419,784.1025390625,800.6226806640625,801.8314819335938,789.7435913085938
420,784.1025390625,796.1904907226562,794.1758422851562,789.7435913085938
421,791.7582397460938,791.3552856445312,789.7435913085938,794.981689453125
422,794.1758422851562,794.5787353515625,790.1465454101562,799.010986328125
423,786.923095703125,793.7728881835938,784.5054931640625,794.981689453125
424,781.6849975585938,796.996337890625,792.5640869140625,790.952392578125
425,786.5201416015625,792.1611938476562,794.981689453125,788.937744140625
426,788.937744140625,783.2966918945312,796.1904907226562,790.952392578125
427,782.893798828125,787.3259887695312,796.5933837890625,794.5787353515625
428,776.0439453125,789.3406372070312,790.1465454101562,792.1611938476562
429,776.0439453125,786.1171875,789.3406372070312,784.908447265625
430,780.0732421875,790.1465454101562,792.967041015625,784.908447265625
431,781.6849975585938,787.3259887695312,795.3846435546875,791.7582397460938
432,782.4908447265625,778.8644409179688,790.5494384765625,797.8021850585938
433,787.3259887695312,784.908447265625,793.3699340820312,803.4432373046875
434,788.937744140625,788.937744140625,792.1611938476562,803.4432373046875
435,785.3113403320312,791.3552856445312,789.7435913085938,799.010986328125
436,782.4908447265625,791.7582397460938,790.1465454101562,782.4908447265625
437,779.2673950195312,788.937744140625,788.1318969726562,776.0439453125
438,778.4615478515625,790.5494384765625,786.923095703125,782.893798828125
439,780.879150390625,790.5494384765625,787.7289428710938,780.4761962890625
440,779.6703491210938,786.923095703125,788.937744140625,780.0732421875
441,779.2673950195312,793.3699340820312,792.5640869140625,787.3259887695312
442,778.05859375,795.3846435546875,795.7875366210938,784.5054931640625
443,780.4761962890625,789.7435913085938,792.1611938476562,784.1025390625
444,783.2966918945312,795.3846435546875,793.7728881835938,791.3552856445312
445,782.4908447265625,794.5787353515625,796.5933837890625,795.3846435546875
446,782.893798828125,789.3406372070312,790.952392578125,787.7289428710938
447,787.7289428710938,795.3846435546875,793.7728881835938,785.3113403320312
448,790.952392578125,792.1611938476562,792.967041015625,788.937744140625
449,792.1611938476562,786.1171875,790.1465454101562,792.5640869140625
450,785.7142944335938,792.1611938476562,799.010986328125,793.3699340820312
451,780.0732421875,791.3552856445312,797.8021850585938,783.2966918945312
452,784.5054931640625,784.908447265625,791.3552856445312,784.1025390625
453,787.3259887695312,787.3259887695312,794.1758422851562,789.3406372070312
454,790.952392578125,786.923095703125,795.7875366210938,789.3406372070312
455,791.7582397460938,787.7289428710938,795.3846435546875,788.1318969726562
456,793.3699340820312,796.1904907226562,790.1465454101562,788.1318969726562
457,798.2051391601562,787.7289428710938,786.1171875,785.7142944335938
458,794.5787353515625,786.5201416015625,789.3406372070312,786.923095703125
459,791.3552856445312,796.996337890625,792.967041015625,786.1171875
460,792.967041015625,793.7728881835938,792.5640869140625,788.937744140625
461,794.5787353515625,789.3406372070312,794.5787353515625,799.010986328125
462,792.967041015625,787.3259887695312,796.1904907226562,794.5787353515625
463,793.3699340820312,792.5640869140625,797.8021850585938,790.1465454101562
464,798.6080322265625,800.6226806640625,798.6080322265625,797.3992919921875
465,801.4285888671875,803.8461303710938,800.6226806640625,793.7728881835938
466,796.5933837890625,797.8021850585938,799.4139404296875,791.3552856445312
467,795.3846435546875,795.7875366210938,798.6080322265625,797.8021850585938
468,795.7875366210938,796.996337890625,798.2051391601562,797.8021850585938
469,795.7875366210938,794.981689453125,799.8168334960938,798.2051391601562
470,792.967041015625,785.3113403320312,798.6080322265625,797.8021850585938
471,792.967041015625,786.5201416015625,794.5787353515625,796.1904907226562
472,802.2344360351562,796.996337890625,794.1758422851562,803.8461303710938
473,801.025634765625,799.010986328125,792.5640869140625,804.2490844726562
474,797.3992919921875,799.4139404296875,795.3846435546875,798.2051391601562
475,800.6226806640625,800.2197875976562,796.5933837890625,796.1904907226562
476,799.010986328125,801.025634765625,797.3992919921875,786.5201416015625
477,793.3699340820312,791.7582397460938,791.3552856445312,778.4615478515625
478,793.7728881835938,793.7728881835938,788.5347900390625,780.0732421875
479,797.8021850585938,802.2344360351562,789.3406372070312,782.4908447265625
480,801.025634765625,797.3992919921875,789.7435913085938,786.5201416015625
481,796.1904907226562,792.967041015625,790.1465454101562,786.5201416015625
482,795.3846435546875,795.7875366210938,790.1465454101562,785.7142944335938
483,799.4139404296875,794.5787353515625,785.7142944335938,788.5347900390625
484,799.010986328125,795.7875366210938,783.6996459960938,796.996337890625
485,797.8021850585938,803.8461303710938,792.5640869140625,801.025634765625
486,796.5933837890625,802.6373901367188,796.5933837890625,797.8021850585938
487,795.7875366210938,799.4139404296875,794.981689453125,798.6080322265625
488,796.996337890625,795.7875366210938,792.1611938476562,793.3699340820312
489,801.4285888671875,796.5933837890625,794.981689453125,791.3552856445312
490,804.2490844726562,801.4285888671875,799.4139404296875,798.2051391601562
491,802.6373901367188,799.010986328125,791.7582397460938,799.4139404296875
492,801.4285888671875,797.8021850585938,791.3552856445312,800.2197875976562
493,803.4432373046875,798.2051391601562,799.010986328125,801.4285888671875
494,804.2490844726562,795.7875366210938,799.8168334960938,795.3846435546875
495,803.8461303710938,788.5347900390625,796.5933837890625,798.6080322265625
496,797.8021850585938,790.952392578125,793.7728881835938,797.8021850585938
497,797.8021850585938,797.3992919921875,792.967041015625,787.7289428710938
498,805.054931640625,794.1758422851562,793.7728881835938,786.923095703125
499,802.2344360351562,794.981689453125,801.025634765625,788.1318969726562
500,792.5640869140625,798.6080322265625,803.040283203125,789.3406372070312
501,788.5347900390625,797.8021850585938,792.1611938476562,791.3552856445312
502,791.7582397460938,794.5787353515625,789.3406372070312,798.2051391601562
503,792.1611938476562,791.7582397460938,795.7875366210938,803.040283203125
504,796.1904907226562,794.5787353515625,797.3992919921875,805.8607788085938
505,801.8314819335938,792.5640869140625,796.5933837890625,807.4725341796875
506,796.996337890625,789.3406372070312,796.5933837890625,801.8314819335938
507,793.3699340820312,792.5640869140625,796.1904907226562,802.6373901367188
508,790.5494384765625,795.7875366210938,795.3846435546875,799.4139404296875
509,791.3552856445312,794.5787353515625,798.2051391601562,794.5787353515625
510,793.3699340820312,793.7728881835938,796.996337890625,794.981689453125
511,790.5494384765625,787.7289428710938,790.1465454101562,790.1465454101562
512,794.1758422851562,786.923095703125,791.3552856445312,792.1611938476562
513,797.3992919921875,788.937744140625,794.981689453125,799.4139404296875
514,793.7728881835938,786.923095703125,790.1465454101562,795.7875366210938
515,786.923095703125,788.937744140625,789.7435913085938,787.3259887695312
516,787.7289428710938,788.5347900390625,791.3552856445312,783.6996459960938
517,791.3552856445312,788.5347900390625,791.7582397460938,781.6849975585938
518,787.3259887695312,788.5347900390625,792.967041015625,788.5347900390625
519,784.5054931640625,787.7289428710938,791.7582397460938,792.1611938476562
520,784.908447265625,788.1318969726562,790.5494384765625,788.5347900390625
521,788.937744140625,788.1318969726562,788.1318969726562,794.981689453125
522,791.7582397460938,784.908447265625,791.7582397460938,792.1611938476562
523,789.3406372070312,783.2966918945312,796.1904907226562,786.923095703125
524,794.1758422851562,790.952392578125,794.1758422851562,790.5494384765625
525,801.025634765625,792.1611938476562,793.7728881835938,796.5933837890625
526,798.6080322265625,789.7435913085938,790.952392578125,800.6226806640625
527,793.3699340820312,789.7435913085938,783.2966918945312,797.3992919921875
528,796.5933837890625,790.1465454101562,782.4908447265625,797.3992919921875
529,801.4285888671875,788.5347900390625,787.3259887695312,800.6226806640625
530,793.7728881835938,794.1758422851562,786.5201416015625,800.6226806640625
531,783.2966918945312,796.1904907226562,788.1318969726562,789.7435913085938
532,785.7142944335938,789.7435913085938,790.5494384765625,780.0732421875
533,790.952392578125,784.1025390625,790.1465454101562,780.0732421875
534,785.7142944335938,783.6996459960938,790.1465454101562,779.2673950195312
535,785.3113403320312,788.937744140625,788.5347900390625,780.879150390625
536,789.3406372070312,787.3259887695312,786.923095703125,784.5054931640625
537,793.7728881835938,787.7289428710938,785.7142944335938,786.923095703125
538,794.5787353515625,788.5347900390625,787.3259887695312,786.1171875
539,792.1611938476562,782.087890625,792.5640869140625,784.908447265625
540,797.3992919921875,787.3259887695312,796.5933837890625,792.5640869140625
541,796.996337890625,794.5787353515625,803.040283203125,799.010986328125
542,792.1611938476562,794.5787353515625,801.025634765625,796.996337890625
543,795.7875366210938,792.967041015625,789.7435913085938,791.3552856445312
544,794.5787353515625,796.996337890625,791.7582397460938,785.3113403320312
545,792.967041015625,796.5933837890625,795.3846435546875,788.937744140625
546,799.010986328125,794.1758422851562,790.5494384765625,796.5933837890625
547,796.1904907226562,800.2197875976562,791.3552856445312,795.3846435546875
548,792.5640869140625,801.4285888671875,796.1904907226562,800.2197875976562
549,801.025634765625,799.010986328125,798.6080322265625,803.040283203125
550,801.4285888671875,793.3699340820312,794.5787353515625,802.6373901367188
551,796.1904907226562,787.3259887695312,791.7582397460938,797.8021850585938
552,793.3699340820312,788.937744140625,795.3846435546875,791.7582397460938
553,788.937744140625,790.1465454101562,796.996337890625,788.5347900390625
554,785.3113403320312,794.981689453125,798.2051391601562,787.3259887695312
555,780.879150390625,796.1904907226562,801.025634765625,789.7435913085938
556,784.5054931640625,796.1904907226562,801.025634765625,799.8168334960938
557,794.981689453125,796.1904907226562,795.3846435546875,809.89013671875
558,791.3552856445312,791.3552856445312,794.1758422851562,798.6080322265625
559,792.5640869140625,793.3699340820312,793.7728881835938,790.5494384765625
560,798.6080322265625,796.5933837890625,790.1465454101562,788.937744140625
561,798.6080322265625,788.5347900390625,792.967041015625,784.5054931640625
562,799.010986328125,786.5201416015625,800.6226806640625,786.5201416015625
563,798.6080322265625,788.1318969726562,796.5933837890625,789.3406372070312
564,796.5933837890625,789.3406372070312,796.1904907226562,788.5347900390625
565,799.010986328125,802.6373901367188,803.040283203125,790.5494384765625
566,799.4139404296875,805.054931640625,799.4139404296875,797.3992919921875
567,792.967041015625,799.4139404296875,794.981689453125,796.1904907226562
568,794.5787353515625,797.8021850585938,794.1758422851562,797.3992919921875
569,794.1758422851562,796.5933837890625,796.996337890625,794.1758422851562
570,794.1758422851562,800.2197875976562,794.5787353515625,788.1318969726562
571,803.4432373046875,799.8168334960938,796.5933837890625,798.2051391601562
572,801.4285888671875,791.7582397460938,801.8314819335938,801.025634765625
573,798.6080322265625,789.3406372070312,800.2197875976562,804.2490844726562
574,800.6226806640625,789.3406372070312,793.3699340820312,807.069580078125
575,800.6226806640625,789.7435913085938,786.5201416015625,800.2197875976562
576,800.6226806640625,790.952392578125,788.5347900390625,803.040283203125
577,795.7875366210938,796.996337890625,792.5640869140625,802.6373901367188
578,790.1465454101562,800.6226806640625,794.5787353515625,792.967041015625
579,795.7875366210938,801.4285888671875,796.1904907226562,788.5347900390625
580,799.8168334960938,800.2197875976562,792.967041015625,789.3406372070312
581,794.981689453125,796.996337890625,789.3406372070312,789.3406372070312
582,792.5640869140625,792.5640869140625,792.1611938476562,788.5347900390625
583,790.952392578125,788.5347900390625,789.7435913085938,784.908447265625
584,785.7142944335938,787.7289428710938,784.908447265625,782.4908447265625
585,786.5201416015625,786.5201416015625,790.952392578125,786.923095703125
586,794.1758422851562,788.1318969726562,797.3992919921875,787.7289428710938
587,798.6080322265625,793.3699340820312,799.8168334960938,786.923095703125
588,793.7728881835938,792.967041015625,798.6080322265625,786.923095703125
589,784.5054931640625,792.1611938476562,793.7728881835938,787.3259887695312
590,783.6996459960938,792.5640869140625,792.1611938476562,788.1318969726562
591,786.923095703125,786.5201416015625,795.7875366210938,791.7582397460938
592,783.2966918945312,781.6849975585938,796.996337890625,793.3699340820312
593,784.5054931640625,788.5347900390625,797.8021850585938,793.3699340820312
594,792.967041015625,791.7582397460938,799.4139404296875,796.996337890625
595,800.2197875976562,793.7728881835938,798.2051391601562,796.5933837890625
596,803.4432373046875,790.1465454101562,795.3846435546875,798.2051391601562
597,809.4871826171875,795.7875366210938,794.5787353515625,794.5787353515625
598,809.4871826171875,801.8314819335938,789.7435913085938,786.923095703125
599,807.87548828125,797.8021850585938,788.1318969726562,791.3552856445312
600,809.89013671875,796.1904907226562,792.5640869140625,790.952392578125
601,809.89013671875,795.7875366210938,793.3699340820312,785.7142944335938
602,808.6813354492188,802.6373901367188,799.8168334960938,796.996337890625
603,796.1904907226562,797.8021850585938,803.040283203125,805.054931640625
604,791.3552856445312,794.981689453125,801.4285888671875,799.010986328125
605,793.3699340820312,799.4139404296875,801.025634765625,793.3699340820312
606,792.5640869140625,796.5933837890625,799.010986328125,786.923095703125
607,790.952392578125,792.1611938476562,802.2344360351562,783.6996459960938
608,787.3259887695312,784.1025390625,805.8607788085938,786.1171875
609,787.7289428710938,782.893798828125,806.6666870117188,788.5347900390625
610,792.5640869140625,781.2820434570312,803.4432373046875,789.7435913085938
611,792.5640869140625,774.8351440429688,800.6226806640625,797.3992919921875
612,790.1465454101562,783.6996459960938,806.2637329101562,806.2637329101562
613,788.5347900390625,789.3406372070312,804.6520385742188,803.8461303710938
614,786.923095703125,784.908447265625,802.2344360351562,802.6373901367188
615,785.3113403320312,782.4908447265625,806.6666870117188,797.3992919921875
616,780.4761962890625,778.05859375,800.2197875976562,789.3406372070312
617,779.2673950195312,775.2380981445312,798.2051391601562,783.6996459960938
618,781.2820434570312,778.05859375,801.8314819335938,782.893798828125
619,782.087890625,782.893798828125,801.025634765625,793.3699340820312
620,779.2673950195312,782.893798828125,801.8314819335938,798.2051391601562
621,783.6996459960938,783.6996459960938,799.8168334960938,794.981689453125
622,794.5787353515625,784.5054931640625,799.4139404296875,800.6226806640625
623,791.3552856445312,788.937744140625,798.2051391601562,801.025634765625
624,786.5201416015625,790.952392578125,799.4139404296875,794.5787353515625
625,791.7582397460938,787.3259887695312,798.6080322265625,800.2197875976562
626,802.2344360351562,792.967041015625,797.3992919921875,803.040283203125
627,809.084228515625,799.4139404296875,800.6226806640625,799.4139404296875
628,806.2637329101562,804.6520385742188,794.981689453125,797.3992919921875
629,805.054931640625,803.8461303710938,788.937744140625,800.6226806640625
630,805.4578857421875,796.5933837890625,793.7728881835938,804.6520385742188
631,798.6080322265625,793.7728881835938,796.1904907226562,794.1758422851562
632,794.5787353515625,792.967041015625,789.3406372070312,784.908447265625
633,797.8021850585938,790.1465454101562,789.7435913085938,788.1318969726562
634,789.7435913085938,788.1318969726562,799.8168334960938,788.937744140625
635,784.1025390625,791.7582397460938,801.4285888671875,784.908447265625
636,785.3113403320312,787.7289428710938,798.6080322265625,778.8644409179688
637,788.1318969726562,784.1025390625,798.6080322265625,782.893798828125
638,793.7728881835938,784.5054931640625,799.010986328125,784.5054931640625
639,794.981689453125,779.6703491210938,800.2197875976562,779.6703491210938
640,794.5787353515625,785.3113403320312,794.5787353515625,783.6996459960938
641,790.952392578125,790.1465454101562,788.937744140625,792.967041015625
642,791.3552856445312,784.908447265625,795.7875366210938,790.1465454101562
643,795.7875366210938,784.1025390625,802.2344360351562,781.6849975585938
644,799.4139404296875,787.3259887695312,796.1904907226562,784.1025390625
645,808.6813354492188,786.5201416015625,791.3552856445312,794.5787353515625
646,811.098876953125,790.1465454101562,796.996337890625,804.6520385742188
647,809.084228515625,792.967041015625,794.981689453125,811.90478515625
648,813.5164794921875,786.5201416015625,793.3699340820312,815.5311279296875
649,812.3076782226562,786.923095703125,797.3992919921875,808.2783813476562
650,809.084228515625,796.5933837890625,795.3846435546875,807.4725341796875
651,805.8607788085938,801.025634765625,794.5787353515625,811.90478515625
652,805.4578857421875,799.8168334960938,794.1758422851562,806.6666870117188
653,807.87548828125,804.2490844726562,790.1465454101562,810.2930297851562
654,806.2637329101562,809.084228515625,788.5347900390625,808.6813354492188
655,803.040283203125,805.4578857421875,788.937744140625,800.6226806640625
656,803.4432373046875,803.040283203125,789.3406372070312,800.2197875976562
657,805.4578857421875,803.4432373046875,794.5787353515625,800.6226806640625
658,801.025634765625,796.996337890625,799.8168334960938,801.8314819335938
659,797.3992919921875,796.1904907226562,801.8314819335938,802.2344360351562
660,790.1465454101562,799.010986328125,801.4285888671875,799.8168334960938
661,786.1171875,797.3992919921875,801.4285888671875,794.5787353515625
662,784.5054931640625,790.952392578125,802.6373901367188,785.3113403320312
663,776.8497924804688,790.1465454101562,800.6226806640625,777.6557006835938
664,774.029296875,794.1758422851562,794.5787353515625,782.893798828125
665,770.0,794.1758422851562,796.5933837890625,783.6996459960938
666,767.9853515625,790.952392578125,803.8461303710938,775.6410522460938
667,774.8351440429688,788.1318969726562,797.3992919921875,780.879150390625
668,780.4761962890625,786.1171875,790.1465454101562,779.6703491210938
669,786.5201416015625,786.5201416015625,797.3992919921875,778.4615478515625
670,787.7289428710938,786.5201416015625,798.2051391601562,782.4908447265625
671,785.3113403320312,789.7435913085938,796.5933837890625,789.3406372070312
672,787.7289428710938,788.1318969726562,794.5787353515625,794.1758422851562
673,787.7289428710938,783.6996459960938,788.5347900390625,790.952392578125
674,783.2966918945312,784.908447265625,786.1171875,792.5640869140625
675,784.5054931640625,786.923095703125,787.3259887695312,793.7728881835938
676,790.952392578125,789.3406372070312,786.1171875,794.1758422851562
677,790.952392578125,787.3259887695312,786.923095703125,791.7582397460938
678,792.5640869140625,789.3406372070312,783.2966918945312,792.5640869140625
679,797.8021850585938,793.3699340820312,785.3113403320312,798.6080322265625
680,799.4139404296875,797.8021850585938,796.1904907226562,800.2197875976562
681,804.2490844726562,797.3992919921875,802.6373901367188,802.6373901367188
682,807.87548828125,796.996337890625,804.6520385742188,805.8607788085938
683,806.2637329101562,797.3992919921875,794.981689453125,805.4578857421875
684,803.8461303710938,796.5933837890625,790.952392578125,802.6373901367188
685,801.025634765625,795.3846435546875,795.3846435546875,803.4432373046875
686,799.4139404296875,788.937744140625,796.996337890625,794.981689453125
687,804.2490844726562,786.5201416015625,795.7875366210938,792.967041015625
688,802.2344360351562,788.937744140625,791.7582397460938,791.7582397460938
689,793.7728881835938,792.1611938476562,794.981689453125,782.087890625
690,795.3846435546875,790.1465454101562,792.967041015625,782.893798828125
691,796.996337890625,790.5494384765625,784.1025390625,788.937744140625
692,799.4139404296875,793.7728881835938,787.7289428710938,791.3552856445312
693,796.5933837890625,791.3552856445312,796.5933837890625,786.1171875
694,789.7435913085938,790.1465454101562,792.967041015625,775.6410522460938
695,778.8644409179688,787.3259887695312,785.7142944335938,763.9560546875
696,779.6703491210938,781.6849975585938,785.3113403320312,765.5677490234375
697,789.3406372070312,786.5201416015625,783.6996459960938,772.4176025390625
698,788.5347900390625,792.1611938476562,781.2820434570312,772.0146484375
699,787.3259887695312,788.5347900390625,782.087890625,772.8204956054688
700,784.908447265625,786.5201416015625,780.0732421875,771.6116943359375
701,789.7435913085938,791.7582397460938,779.6703491210938,773.6264038085938
702,799.010986328125,794.5787353515625,780.4761962890625,786.923095703125
703,793.7728881835938,792.967041015625,780.879150390625,789.3406372070312
704,789.7435913085938,793.3699340820312,784.1025390625,786.1171875
705,792.967041015625,799.010986328125,783.2966918945312,792.5640869140625
706,794.5787353515625,792.5640869140625,783.2966918945312,798.6080322265625
707,792.5640869140625,792.967041015625,785.3113403320312,805.054931640625
708,793.3699340820312,803.040283203125,790.952392578125,800.2197875976562
709,798.2051391601562,799.4139404296875,790.1465454101562,796.1904907226562
710,801.4285888671875,795.3846435546875,786.923095703125,807.069580078125
711,807.4725341796875,798.6080322265625,787.7289428710938,810.2930297851562
712,809.4871826171875,802.6373901367188,791.7582397460938,806.6666870117188
713,809.084228515625,802.2344360351562,790.1465454101562,810.6959838867188
714,812.3076782226562,796.5933837890625,786.5201416015625,811.5018310546875
715,817.5457763671875,792.967041015625,790.952392578125,809.89013671875
716,813.91943359375,798.6080322265625,791.3552856445312,803.8461303710938
717,803.040283203125,801.025634765625,788.937744140625,796.996337890625
718,802.6373901367188,796.996337890625,794.981689453125,797.3992919921875
719,805.054931640625,797.8021850585938,796.1904907226562,790.1465454101562
720,799.4139404296875,797.3992919921875,795.3846435546875,788.5347900390625
721,792.1611938476562,794.981689453125,798.2051391601562,792.1611938476562
722,789.7435913085938,792.1611938476562,797.8021850585938,783.2966918945312
723,794.5787353515625,792.5640869140625,798.6080322265625,779.2673950195312
724,792.967041015625,796.1904907226562,793.7728881835938,784.1025390625
725,789.7435913085938,793.3699340820312,791.3552856445312,788.5347900390625
726,787.7289428710938,789.3406372070312,788.5347900390625,785.3113403320312
727,784.5054931640625,788.937744140625,790.952392578125,775.6410522460938
728,788.5347900390625,788.1318969726562,794.981689453125,774.8351440429688
729,790.5494384765625,792.967041015625,798.2051391601562,784.908447265625
730,788.937744140625,791.7582397460938,795.7875366210938,790.5494384765625
731,784.908447265625,792.967041015625,790.952392578125,785.3113403320312
732,786.1171875,795.7875366210938,791.3552856445312,784.5054931640625
733,796.1904907226562,792.967041015625,787.3259887695312,790.952392578125
734,796.1904907226562,794.5787353515625,791.7582397460938,794.1758422851562
735,793.3699340820312,792.5640869140625,796.996337890625,790.1465454101562
736,799.4139404296875,791.7582397460938,790.1465454101562,790.952392578125
737,797.3992919921875,796.5933837890625,784.5054931640625,790.1465454101562
738,793.3699340820312,794.5787353515625,786.1171875,791.3552856445312
739,796.5933837890625,796.1904907226562,790.1465454101562,790.1465454101562
740,796.1904907226562,802.6373901367188,792.967041015625,787.7289428710938
741,798.6080322265625,806.6666870117188,794.1758422851562,790.952392578125
742,803.4432373046875,803.8461303710938,796.1904907226562,792.1611938476562
743,801.8314819335938,790.952392578125,794.1758422851562,784.908447265625
744,799.8168334960938,796.1904907226562,786.5201416015625,782.4908447265625
745,791.3552856445312,803.040283203125,785.3113403320312,787.7289428710938
746,789.7435913085938,802.2344360351562,790.1465454101562,791.7582397460938
747,787.7289428710938,801.4285888671875,789.7435913085938,793.3699340820312
748,786.5201416015625,801.025634765625,790.1465454101562,785.7142944335938
749,789.7435913085938,799.4139404296875,793.3699340820312,777.6557006835938
750,786.1171875,801.8314819335938,793.7728881835938,774.029296875
751,792.967041015625,798.6080322265625,796.1904907226562,784.908447265625
752,791.7582397460938,789.3406372070312,796.1904907226562,793.3699340820312
753,783.6996459960938,787.7289428710938,784.1025390625,787.7289428710938
754,782.4908447265625,792.967041015625,783.2966918945312,782.087890625
755,783.6996459960938,795.7875366210938,794.1758422851562,781.6849975585938
756,789.3406372070312,787.7289428710938,798.6080322265625,786.1171875
757,787.7289428710938,782.4908447265625,798.2051391601562,788.937744140625
758,784.5054931640625,789.3406372070312,799.010986328125,789.3406372070312
759,788.1318969726562,796.1904907226562,804.2490844726562,787.7289428710938
760,789.3406372070312,798.6080322265625,802.6373901367188,796.5933837890625
761,792.967041015625,797.8021850585938,804.2490844726562,810.6959838867188
762,792.5640869140625,800.6226806640625,808.6813354492188,803.4432373046875
763,789.7435913085938,796.5933837890625,805.4578857421875,796.1904907226562
764,792.1611938476562,795.7875366210938,804.6520385742188,800.6226806640625
765,796.5933837890625,791.7582397460938,803.4432373046875,797.8021850585938
766,796.996337890625,786.5201416015625,798.2051391601562,790.1465454101562
767,791.3552856445312,796.996337890625,790.952392578125,784.908447265625
768,783.2966918945312,799.4139404296875,789.3406372070312,782.4908447265625
769,784.1025390625,792.967041015625,793.7728881835938,786.923095703125
770,783.6996459960938,796.5933837890625,792.5640869140625,787.7289428710938
771,781.2820434570312,797.8021850585938,788.5347900390625,789.3406372070312
772,783.6996459960938,796.996337890625,788.937744140625,786.923095703125
773,783.6996459960938,796.5933837890625,786.923095703125,784.1025390625
774,780.4761962890625,788.937744140625,786.923095703125,788.5347900390625
775,784.908447265625,789.7435913085938,787.7289428710938,791.7582397460938
776,790.5494384765625,787.7289428710938,792.1611938476562,786.5201416015625
777,780.879150390625,784.5054931640625,794.5787353515625,781.6849975585938
778,771.2088012695312,790.5494384765625,791.3552856445312,784.908447265625
779,779.6703491210938,787.7289428710938,791.3552856445312,799.4139404296875
780,787.3259887695312,796.1904907226562,792.5640869140625,804.6520385742188
781,789.7435913085938,796.5933837890625,788.5347900390625,792.967041015625
782,802.2344360351562,792.5640869140625,792.5640869140625,799.010986328125
783,799.4139404296875,799.010986328125,797.3992919921875,798.6080322265625
784,778.8644409179688,796.5933837890625,796.996337890625,780.4761962890625
785,778.4615478515625,796.1904907226562,797.8021850585938,775.2380981445312
786,788.937744140625,796.996337890625,798.2051391601562,786.5201416015625
787,786.5201416015625,791.7582397460938,796.5933837890625,787.7289428710938
788,779.6703491210938,789.3406372070312,795.7875366210938,782.087890625
789,781.6849975585938,792.5640869140625,796.1904907226562,782.4908447265625
790,793.3699340820312,796.996337890625,794.5787353515625,782.893798828125
791,797.8021850585938,798.6080322265625,791.3552856445312,785.7142944335938
792,796.1904907226562,795.7875366210938,790.952392578125,795.7875366210938
793,794.981689453125,794.1758422851562,791.3552856445312,801.025634765625
794,793.3699340820312,789.3406372070312,790.952392578125,803.8461303710938
795,795.7875366210938,790.1465454101562,793.7728881835938,807.069580078125
796,792.5640869140625,795.3846435546875,796.996337890625,794.981689453125
797,795.7875366210938,794.981689453125,797.8021850585938,788.1318969726562
798,799.4139404296875,793.3699340820312,796.1904907226562,794.981689453125
799,791.7582397460938,792.5640869140625,793.7728881835938,794.1758422851562
800,793.3699340820312,799.010986328125,796.1904907226562,788.5347900390625
801,800.2197875976562,805.8607788085938,794.5787353515625,789.7435913085938
802,794.5787353515625,799.8168334960938,794.5787353515625,799.8168334960938
803,791.3552856445312,794.5787353515625,801.8314819335938,799.010986328125
804,796.1904907226562,794.5787353515625,798.6080322265625,793.3699340820312
805,803.4432373046875,791.7582397460938,792.967041015625,792.967041015625
806,801.025634765625,794.5787353515625,792.5640869140625,792.967041015625
807,793.3699340820312,793.7728881835938,796.996337890625,793.3699340820312
808,786.923095703125,792.967041015625,800.2197875976562,792.5640869140625
809,792.967041015625,794.5787353515625,796.5933837890625,789.7435913085938
810,795.3846435546875,789.3406372070312,794.981689453125,787.3259887695312
811,792.5640869140625,793.7728881835938,796.996337890625,796.5933837890625
812,791.3552856445312,796.996337890625,797.3992919921875,796.5933837890625
813,794.1758422851562,792.967041015625,795.3846435546875,787.7289428710938
814,795.3846435546875,792.967041015625,791.7582397460938,784.5054931640625
815,788.937744140625,794.5787353515625,790.5494384765625,773.2234497070312
816,787.7289428710938,791.3552856445312,790.952392578125,770.0
817,795.7875366210938,790.1465454101562,790.952392578125,785.3113403320312
818,799.8168334960938,789.3406372070312,795.3846435546875,799.010986328125
819,792.967041015625,786.1171875,799.8168334960938,792.967041015625
820,789.7435913085938,791.3552856445312,802.6373901367188,785.7142944335938
821,791.3552856445312,801.4285888671875,807.87548828125,794.1758422851562
822,786.923095703125,801.8314819335938,805.054931640625,797.8021850585938
823,782.087890625,794.981689453125,795.3846435546875,799.8168334960938
824,782.893798828125,793.7728881835938,791.7582397460938,802.2344360351562
825,783.6996459960938,794.981689453125,794.5787353515625,806.2637329101562
826,782.087890625,790.952392578125,799.4139404296875,803.8461303710938
827,788.5347900390625,788.1318969726562,803.4432373046875,794.981689453125
828,792.5640869140625,787.3259887695312,798.2051391601562,793.7728881835938
829,784.908447265625,778.8644409179688,795.3846435546875,793.7728881835938
830,788.1318969726562,782.4908447265625,803.4432373046875,794.5787353515625
831,791.3552856445312,787.7289428710938,801.025634765625,797.3992919921875
832,782.893798828125,786.923095703125,796.5933837890625,795.7875366210938
833,785.7142944335938,782.893798828125,790.952392578125,799.8168334960938
834,788.1318969726562,781.2820434570312,790.1465454101562,793.7728881835938
835,786.1171875,788.1318969726562,794.5787353515625,781.2820434570312
836,787.3259887695312,788.937744140625,789.7435913085938,776.8497924804688
837,786.5201416015625,787.3259887695312,789.7435913085938,781.2820434570312
838,785.7142944335938,789.7435913085938,793.3699340820312,786.1171875
839,786.5201416015625,786.923095703125,792.1611938476562,785.7142944335938
840,789.7435913085938,783.6996459960938,791.7582397460938,789.3406372070312
841,791.3552856445312,782.087890625,790.5494384765625,791.3552856445312
842,788.1318969726562,785.7142944335938,789.7435913085938,787.3259887695312
843,786.923095703125,794.5787353515625,792.1611938476562,782.893798828125
844,790.5494384765625,796.996337890625,789.7435913085938,784.5054931640625
845,784.1025390625,788.5347900390625,784.5054931640625,788.1318969726562
846,778.8644409179688,786.923095703125,786.1171875,778.4615478515625
847,785.3113403320312,795.7875366210938,788.937744140625,775.2380981445312
848,788.5347900390625,798.2051391601562,787.3259887695312,781.6849975585938
849,790.1465454101562,796.5933837890625,785.7142944335938,783.2966918945312
850,787.7289428710938,790.952392578125,784.5054931640625,775.2380981445312
851,790.952392578125,792.967041015625,783.6996459960938,775.6410522460938
852,801.4285888671875,792.5640869140625,783.6996459960938,786.1171875
853,799.4139404296875,784.5054931640625,786.1171875,784.908447265625
854,793.3699340820312,789.7435913085938,787.7289428710938,783.6996459960938
855,797.8021850585938,789.7435913085938,786.923095703125,794.1758422851562
856,807.069580078125,780.879150390625,784.5054931640625,802.2344360351562
857,803.040283203125,787.7289428710938,788.1318969726562,792.5640869140625
858,793.7728881835938,802.2344360351562,791.3552856445312,785.3113403320312
859,787.7289428710938,795.3846435546875,792.1611938476562,784.1025390625
860,781.2820434570312,789.7435913085938,791.3552856445312,782.087890625
861,775.6410522460938,795.3846435546875,793.3699340820312,787.7289428710938
862,773.6264038085938,792.5640869140625,797.3992919921875,786.923095703125
863,777.2527465820312,789.7435913085938,799.010986328125,782.4908447265625
864,780.0732421875,786.5201416015625,799.8168334960938,782.893798828125
865,776.8497924804688,788.5347900390625,798.2051391601562,788.5347900390625
866,782.087890625,788.937744140625,797.8021850585938,796.1904907226562
867,788.1318969726562,785.3113403320312,797.3992919921875,796.1904907226562
868,784.908447265625,788.5347900390625,794.5787353515625,800.2197875976562
869,785.3113403320312,786.923095703125,794.5787353515625,803.8461303710938
870,785.3113403320312,784.908447265625,794.1758422851562,804.2490844726562
871,782.4908447265625,785.7142944335938,796.996337890625,797.3992919921875
872,780.879150390625,788.5347900390625,797.3992919921875,789.3406372070312
873,778.05859375,792.967041015625,795.3846435546875,786.1171875
874,778.05859375,792.5640869140625,798.6080322265625,782.4908447265625
875,782.087890625,796.5933837890625,801.4285888671875,784.5054931640625
876,788.1318969726562,800.6226806640625,799.8168334960938,786.1171875
877,793.3699340820312,801.4285888671875,801.4285888671875,792.967041015625
878,792.1611938476562,799.8168334960938,801.8314819335938,794.981689453125
879,792.1611938476562,795.7875366210938,800.2197875976562,794.981689453125
880,791.7582397460938,794.5787353515625,803.4432373046875,792.1611938476562
881,791.3552856445312,800.2197875976562,800.6226806640625,782.4908447265625
882,794.981689453125,798.6080322265625,799.4139404296875,784.5054931640625
883,795.7875366210938,799.4139404296875,800.2197875976562,787.3259887695312
884,797.8021850585938,803.040283203125,799.4139404296875,792.5640869140625
885,794.5787353515625,799.010986328125,799.010986328125,798.2051391601562
886,794.5787353515625,802.2344360351562,798.6080322265625,806.2637329101562
887,796.996337890625,803.8461303710938,794.981689453125,808.2783813476562
888,796.5933837890625,805.054931640625,794.5787353515625,804.6520385742188
889,797.8021850585938,806.2637329101562,799.4139404296875,805.4578857421875
890,794.981689453125,804.6520385742188,798.6080322265625,802.6373901367188
891,799.010986328125,804.2490844726562,792.1611938476562,799.010986328125
892,801.4285888671875,799.8168334960938,795.7875366210938,795.7875366210938
893,794.981689453125,792.1611938476562,800.2197875976562,788.5347900390625
894,790.5494384765625,791.7582397460938,795.7875366210938,794.5787353515625
895,786.1171875,790.1465454101562,796.5933837890625,798.6080322265625
896,788.1318969726562,790.952392578125,798.6080322265625,792.5640869140625
897,793.3699340820312,792.5640869140625,796.5933837890625,797.3992919921875
898,790.5494384765625,793.7728881835938,790.5494384765625,796.996337890625
899,787.7289428710938,799.4139404296875,789.3406372070312,791.7582397460938
900,786.1171875,794.5787353515625,791.7582397460938,786.1171875
901,784.5054931640625,792.1611938476562,789.3406372070312,781.6849975585938
902,788.937744140625,793.3699340820312,783.6996459960938,793.7728881835938
903,790.1465454101562,794.5787353515625,784.5054931640625,796.996337890625
904,786.1171875,790.952392578125,785.3113403320312,782.4908447265625
905,785.3113403320312,786.923095703125,784.5054931640625,777.6557006835938
906,790.1465454101562,791.3552856445312,785.7142944335938,785.3113403320312
907,794.981689453125,794.5787353515625,787.3259887695312,789.7435913085938
908,801.8314819335938,799.8168334960938,791.3552856445312,791.3552856445312
909,802.2344360351562,803.4432373046875,794.5787353515625,792.1611938476562
910,791.3552856445312,802.2344360351562,787.3259887695312,786.1171875
911,787.7289428710938,800.6226806640625,784.5054931640625,780.879150390625
912,791.3552856445312,800.6226806640625,791.7582397460938,786.5201416015625
913,791.3552856445312,797.3992919921875,791.7582397460938,790.952392578125
914,794.981689453125,791.7582397460938,790.5494384765625,799.010986328125
915,792.967041015625,791.3552856445312,794.1758422851562,801.025634765625
916,782.893798828125,790.5494384765625,791.3552856445312,794.1758422851562
917,780.879150390625,785.3113403320312,788.937744140625,801.025634765625
918,780.0732421875,786.1171875,793.3699340820312,808.6813354492188
919,779.6703491210938,793.3699340820312,791.3552856445312,798.6080322265625
920,781.6849975585938,796.5933837890625,789.7435913085938,795.3846435546875
921,788.937744140625,792.1611938476562,794.1758422851562,798.6080322265625
922,792.967041015625,785.7142944335938,791.7582397460938,788.5347900390625
923,786.1171875,790.1465454101562,792.967041015625,783.6996459960938
924,782.087890625,792.5640869140625,796.5933837890625,785.3113403320312
925,782.893798828125,790.1465454101562,794.1758422851562,782.893798828125
926,780.879150390625,785.7142944335938,794.1758422851562,787.7289428710938
927,784.5054931640625,786.923095703125,792.5640869140625,793.7728881835938
928,794.1758422851562,794.5787353515625,796.996337890625,796.5933837890625
929,796.1904907226562,787.7289428710938,789.7435913085938,794.5787353515625
930,786.1171875,780.879150390625,783.2966918945312,788.937744140625
931,779.6703491210938,787.7289428710938,786.923095703125,782.087890625
932,788.937744140625,794.1758422851562,791.3552856445312,787.3259887695312
933,790.5494384765625,796.996337890625,796.1904907226562,797.8021850585938
934,787.7289428710938,791.3552856445312,790.5494384765625,799.8168334960938
935,788.1318969726562,784.5054931640625,793.7728881835938,800.6226806640625
936,786.1171875,788.1318969726562,794.5787353515625,801.025634765625
937,787.7289428710938,796.1904907226562,788.5347900390625,799.4139404296875
938,790.1465454101562,799.8168334960938,794.1758422851562,800.6226806640625
939,792.1611938476562,796.5933837890625,799.4139404296875,799.8168334960938
940,792.5640869140625,793.3699340820312,798.6080322265625,800.6226806640625
941,786.1171875,792.5640869140625,800.2197875976562,808.2783813476562
942,786.923095703125,792.1611938476562,795.7875366210938,800.6226806640625
943,794.1758422851562,792.5640869140625,793.3699340820312,793.3699340820312
944,793.3699340820312,791.7582397460938,795.3846435546875,794.1758422851562
945,781.2820434570312,794.5787353515625,791.7582397460938,788.937744140625
946,778.05859375,792.967041015625,792.967041015625,788.937744140625
947,782.893798828125,790.5494384765625,796.996337890625,790.5494384765625
948,785.7142944335938,790.5494384765625,792.967041015625,794.1758422851562
949,790.5494384765625,792.5640869140625,791.7582397460938,796.5933837890625
950,790.1465454101562,795.7875366210938,794.5787353515625,791.7582397460938
951,792.967041015625,797.3992919921875,792.5640869140625,790.952392578125
952,796.1904907226562,796.1904907226562,788.937744140625,799.8168334960938
953,791.3552856445312,787.3259887695312,790.5494384765625,794.5787353515625
954,788.937744140625,789.3406372070312,792.5640869140625,783.2966918945312
955,788.937744140625,792.967041015625,789.3406372070312,789.3406372070312
956,788.5347900390625,785.7142944335938,784.908447265625,796.996337890625
957,791.3552856445312,790.1465454101562,786.5201416015625,799.8168334960938
958,789.3406372070312,800.2197875976562,790.1465454101562,794.981689453125
959,783.6996459960938,794.5787353515625,793.3699340820312,794.5787353515625
960,784.908447265625,787.3259887695312,790.952392578125,799.010986328125
961,791.3552856445312,781.2820434570312,788.1318969726562,796.1904907226562
962,789.3406372070312,781.6849975585938,792.5640869140625,790.1465454101562
963,780.879150390625,782.893798828125,790.1465454101562,791.3552856445312
964,779.6703491210938,783.6996459960938,788.937744140625,801.4285888671875
965,782.4908447265625,791.7582397460938,794.5787353515625,794.5787353515625
966,785.7142944335938,783.2966918945312,796.1904907226562,790.5494384765625
967,790.1465454101562,782.893798828125,794.1758422851562,795.3846435546875
968,790.5494384765625,793.7728881835938,791.7582397460938,796.1904907226562
969,788.937744140625,792.1611938476562,793.3699340820312,794.5787353515625
970,788.1318969726562,783.6996459960938,795.7875366210938,794.1758422851562
971,794.981689453125,788.1318969726562,799.4139404296875,799.010986328125
972,800.6226806640625,798.2051391601562,797.8021850585938,796.996337890625
973,801.8314819335938,787.7289428710938,795.3846435546875,794.981689453125
974,806.2637329101562,787.7289428710938,794.981689453125,797.8021850585938
975,808.6813354492188,801.025634765625,792.5640869140625,804.6520385742188
976,804.2490844726562,796.5933837890625,795.7875366210938,807.87548828125
977,796.1904907226562,794.5787353515625,800.6226806640625,803.040283203125
978,794.5787353515625,797.3992919921875,803.8461303710938,805.8607788085938
979,797.3992919921875,794.5787353515625,801.8314819335938,805.054931640625
980,796.1904907226562,795.7875366210938,799.4139404296875,797.8021850585938
981,792.5640869140625,794.5787353515625,796.996337890625,797.3992919921875
982,787.7289428710938,790.5494384765625,791.7582397460938,790.952392578125
983,787.7289428710938,796.996337890625,792.967041015625,782.893798828125
984,792.1611938476562,797.8021850585938,792.967041015625,781.6849975585938
985,795.7875366210938,794.981689453125,785.7142944335938,783.6996459960938
986,796.1904907226562,793.7728881835938,787.3259887695312,787.7289428710938
987,788.1318969726562,790.952392578125,790.5494384765625,783.2966918945312
988,791.3552856445312,794.1758422851562,788.937744140625,781.2820434570312
989,797.3992919921875,797.8021850585938,790.5494384765625,787.3259887695312
990,793.3699340820312,803.040283203125,786.5201416015625,790.5494384765625
991,789.7435913085938,809.084228515625,787.3259887695312,787.3259887695312
992,788.937744140625,805.054931640625,795.3846435546875,780.879150390625
993,786.923095703125,797.8021850585938,792.967041015625,787.3259887695312
994,788.5347900390625,793.7728881835938,790.1465454101562,793.7728881835938
995,792.967041015625,792.5640869140625,793.7728881835938,796.996337890625
996,792.967041015625,798.2051391601562,789.7435913085938,789.7435913085938
997,787.3259887695312,803.4432373046875,789.3406372070312,784.1025390625
998,783.2966918945312,796.5933837890625,791.3552856445312,794.981689453125
999,785.3113403320312,792.1611938476562,784.908447265625,799.8168334960938
1000,785.3113403320312,794.5787353515625,792.967041015625,794.1758422851562
1001,781.6849975585938,794.981689453125,797.3992919921875,786.5201416015625
1002,778.05859375,794.981689453125,793.7728881835938,790.1465454101562
1003,778.05859375,794.5787353515625,796.1904907226562,789.7435913085938
1004,778.05859375,795.7875366210938,794.1758422851562,780.4761962890625
1005,782.4908447265625,794.981689453125,792.5640869140625,787.7289428710938
1006,793.3699340820312,800.2197875976562,794.1758422851562,795.3846435546875
1007,792.967041015625,798.2051391601562,794.1758422851562,789.7435913085938
1008,793.3699340820312,796.996337890625,795.3846435546875,786.1171875
1009,800.2197875976562,794.981689453125,796.5933837890625,791.7582397460938
1010,797.8021850585938,783.6996459960938,798.6080322265625,792.967041015625
1011,795.7875366210938,787.3259887695312,800.6226806640625,785.3113403320312
1012,794.5787353515625,790.952392578125,796.5933837890625,779.2673950195312
1013,790.1465454101562,788.1318969726562,795.7875366210938,779.6703491210938
1014,791.7582397460938,794.981689453125,798.2051391601562,788.5347900390625
1015,790.1465454101562,795.3846435546875,795.7875366210938,789.3406372070312
1016,791.7582397460938,788.937744140625,796.5933837890625,785.7142944335938
1017,797.8021850585938,788.937744140625,799.8168334960938,786.5201416015625
1018,792.967041015625,788.1318969726562,792.1611938476562,779.6703491210938
1019,794.1758422851562,789.3406372070312,786.1171875,779.6703491210938
1020,796.1904907226562,793.7728881835938,794.1758422851562,786.5201416015625
1021,790.5494384765625,794.981689453125,800.6226806640625,791.3552856445312
1022,789.7435913085938,789.3406372070312,799.4139404296875,794.981689453125
1023,794.5787353515625,784.1025390625,796.996337890625,798.2051391601562
1024,795.7875366210938,794.5787353515625,800.6226806640625,795.7875366210938
1025,793.7728881835938,800.2197875976562,799.010986328125,794.1758422851562
1026,790.5494384765625,798.6080322265625,795.3846435546875,793.7728881835938
1027,789.3406372070312,796.996337890625,799.8168334960938,794.5787353515625
1028,788.1318969726562,792.5640869140625,802.2344360351562,799.010986328125
1029,786.923095703125,790.1465454101562,797.3992919921875,797.3992919921875
1030,784.1025390625,788.937744140625,791.7582397460938,792.967041015625
1031,786.923095703125,790.952392578125,788.937744140625,795.7875366210938
1032,794.1758422851562,793.3699340820312,788.937744140625,793.3699340820312
1033,797.3992919921875,792.5640869140625,788.937744140625,784.5054931640625
1034,799.010986328125,786.923095703125,794.1758422851562,782.893798828125
1035,799.4139404296875,785.3113403320312,797.8021850585938,776.8497924804688
1036,801.8314819335938,788.937744140625,792.5640869140625,779.6703491210938
1037,797.3992919921875,792.1611938476562,787.3259887695312,792.5640869140625
1038,786.5201416015625,792.967041015625,792.967041015625,789.7435913085938
1039,784.908447265625,792.5640869140625,797.3992919921875,787.3259887695312
1040,793.7728881835938,795.7875366210938,797.3992919921875,796.996337890625
1041,805.054931640625,799.010986328125,792.967041015625,806.2637329101562
1042,801.025634765625,797.3992919921875,787.7289428710938,796.5933837890625
1043,789.3406372070312,795.3846435546875,792.5640869140625,784.908447265625
1044,781.6849975585938,792.967041015625,796.996337890625,785.7142944335938
1045,781.6849975585938,794.5787353515625,795.3846435546875,788.937744140625
1046,786.923095703125,793.3699340820312,791.3552856445312,787.3259887695312
1047,781.6849975585938,786.923095703125,790.5494384765625,780.879150390625
1048,779.6703491210938,787.7289428710938,791.7582397460938,786.923095703125
1049,788.1318969726562,788.937744140625,796.5933837890625,795.7875366210938
1050,792.967041015625,788.1318969726562,801.025634765625,798.2051391601562
1051,793.3699340820312,784.908447265625,798.6080322265625,801.8314819335938
1052,793.3699340820312,780.879150390625,794.1758422851562,799.8168334960938
1053,793.3699340820312,789.7435913085938,792.5640869140625,794.981689453125
1054,785.3113403320312,791.3552856445312,790.1465454101562,790.1465454101562
1055,783.2966918945312,789.3406372070312,792.5640869140625,788.5347900390625
1056,794.981689453125,794.981689453125,794.981689453125,794.5787353515625
1057,794.981689453125,795.7875366210938,792.1611938476562,789.7435913085938
1058,794.5787353515625,794.5787353515625,799.4139404296875,789.3406372070312
1059,798.6080322265625,788.5347900390625,800.2197875976562,797.8021850585938
1060,793.3699340820312,788.937744140625,791.3552856445312,799.8168334960938
1061,786.923095703125,798.2051391601562,790.952392578125,791.7582397460938
1062,787.7289428710938,794.1758422851562,796.5933837890625,792.5640869140625
1063,793.3699340820312,796.1904907226562,802.2344360351562,798.6080322265625
1064,796.996337890625,800.6226806640625,799.8168334960938,797.3992919921875
1065,796.5933837890625,794.981689453125,796.996337890625,797.8021850585938
1066,789.3406372070312,789.3406372070312,801.025634765625,800.6226806640625
1067,781.6849975585938,787.7289428710938,796.996337890625,796.996337890625
1068,782.4908447265625,789.7435913085938,790.5494384765625,788.5347900390625
1069,782.893798828125,790.952392578125,796.996337890625,794.981689453125
1070,781.2820434570312,785.3113403320312,795.7875366210938,798.2051391601562
1071,784.908447265625,782.4908447265625,794.1758422851562,799.010986328125
1072,784.5054931640625,787.7289428710938,796.996337890625,798.2051391601562
1073,781.2820434570312,789.3406372070312,800.6226806640625,792.5640869140625
1074,783.2966918945312,788.1318969726562,802.2344360351562,793.3699340820312
1075,783.2966918945312,787.3259887695312,793.3699340820312,799.4139404296875
1076,779.2673950195312,791.7582397460938,791.3552856445312,799.4139404296875
1077,784.5054931640625,796.5933837890625,792.1611938476562,792.5640869140625
1078,796.5933837890625,797.8021850585938,793.3699340820312,794.981689453125
1079,794.5787353515625,793.7728881835938,798.6080322265625,795.7875366210938
1080,795.7875366210938,799.4139404296875,798.6080322265625,799.010986328125
1081,799.8168334960938,802.6373901367188,798.6080322265625,805.4578857421875
1082,790.1465454101562,793.7728881835938,786.923095703125,803.4432373046875
1083,786.1171875,788.5347900390625,775.6410522460938,796.1904907226562
1084,790.5494384765625,788.5347900390625,784.908447265625,789.3406372070312
1085,796.996337890625,797.8021850585938,789.3406372070312,787.3259887695312
1086,796.996337890625,796.1904907226562,787.7289428710938,791.7582397460938
1087,794.5787353515625,788.5347900390625,786.923095703125,792.1611938476562
1088,792.1611938476562,787.3259887695312,785.7142944335938,788.1318969726562
1089,789.3406372070312,786.1171875,787.3259887695312,790.5494384765625
1090,787.3259887695312,791.7582397460938,790.5494384765625,792.5640869140625
1091,792.1611938476562,797.8021850585938,792.1611938476562,791.7582397460938
1092,796.1904907226562,795.7875366210938,792.967041015625,790.5494384765625
1093,796.1904907226562,792.5640869140625,792.5640869140625,792.1611938476562
1094,798.2051391601562,794.981689453125,789.7435913085938,807.069580078125
1095,796.996337890625,797.8021850585938,793.7728881835938,805.4578857421875
1096,795.3846435546875,802.6373901367188,803.4432373046875,792.5640869140625
1097,795.3846435546875,798.2051391601562,799.8168334960938,791.7582397460938
1098,792.5640869140625,787.3259887695312,792.967041015625,786.923095703125
1099,794.5787353515625,793.7728881835938,796.996337890625,788.5347900390625
1100,790.952392578125,798.2051391601562,800.2197875976562,789.7435913085938
1101,785.7142944335938,793.3699340820312,795.3846435546875,793.3699340820312
1102,788.5347900390625,790.952392578125,792.1611938476562,801.4285888671875
1103,791.3552856445312,790.5494384765625,792.967041015625,800.6226806640625
1104,790.952392578125,784.908447265625,790.952392578125,799.4139404296875
1105,792.1611938476562,781.2820434570312,792.1611938476562,796.1904907226562
1106,797.8021850585938,791.3552856445312,797.8021850585938,794.981689453125
1107,804.6520385742188,793.7728881835938,792.967041015625,790.952392578125
1108,803.8461303710938,789.7435913085938,786.1171875,790.1465454101562
1109,800.6226806640625,796.5933837890625,788.5347900390625,794.5787353515625
1110,797.8021850585938,798.2051391601562,785.3113403320312,790.5494384765625
1111,790.952392578125,798.6080322265625,788.1318969726562,783.6996459960938
1112,793.7728881835938,796.1904907226562,790.5494384765625,783.2966918945312
1113,794.981689453125,789.7435913085938,783.6996459960938,788.5347900390625
1114,792.5640869140625,792.5640869140625,784.1025390625,788.937744140625
1115,792.5640869140625,791.3552856445312,789.7435913085938,780.879150390625
1116,789.3406372070312,791.3552856445312,790.5494384765625,783.2966918945312
1117,788.937744140625,792.5640869140625,789.7435913085938,786.923095703125
1118,792.5640869140625,788.5347900390625,787.7289428710938,787.3259887695312
1119,794.981689453125,788.1318969726562,789.3406372070312,790.952392578125
1120,790.1465454101562,788.937744140625,789.3406372070312,792.5640869140625
1121,784.908447265625,793.3699340820312,789.7435913085938,799.4139404296875
1122,782.893798828125,797.3992919921875,795.7875366210938,797.3992919921875
1123,785.3113403320312,792.1611938476562,795.7875366210938,793.7728881835938
1124,790.5494384765625,792.967041015625,794.5787353515625,799.8168334960938
1125,784.908447265625,798.6080322265625,792.967041015625,795.3846435546875
1126,785.7142944335938,796.5933837890625,788.937744140625,792.5640869140625
1127,788.5347900390625,789.7435913085938,789.3406372070312,789.3406372070312
1128,784.908447265625,790.5494384765625,788.937744140625,784.908447265625
1129,785.7142944335938,792.1611938476562,788.5347900390625,788.1318969726562
1130,789.7435913085938,788.1318969726562,785.7142944335938,786.5201416015625
1131,786.923095703125,794.981689453125,787.3259887695312,782.893798828125
1132,790.1465454101562,796.996337890625,794.1758422851562,789.3406372070312
1133,796.1904907226562,795.3846435546875,796.996337890625,790.5494384765625
1134,790.952392578125,792.1611938476562,799.010986328125,786.923095703125
1135,790.1465454101562,790.5494384765625,797.8021850585938,790.952392578125
1136,790.1465454101562,795.3846435546875,794.1758422851562,792.1611938476562
1137,784.5054931640625,798.2051391601562,790.952392578125,793.7728881835938
1138,788.5347900390625,799.4139404296875,795.7875366210938,794.981689453125
1139,797.3992919921875,800.6226806640625,801.4285888671875,799.4139404296875
1140,797.3992919921875,796.5933837890625,798.2051391601562,798.2051391601562
1141,794.1758422851562,794.5787353515625,796.996337890625,791.7582397460938
1142,792.967041015625,797.3992919921875,798.6080322265625,800.6226806640625
1143,794.981689453125,794.1758422851562,800.6226806640625,800.2197875976562
1144,796.1904907226562,796.1904907226562,798.6080322265625,795.7875366210938
1145,795.7875366210938,803.040283203125,797.3992919921875,801.8314819335938
1146,791.3552856445312,803.040283203125,800.6226806640625,796.5933837890625
1147,783.6996459960938,794.1758422851562,801.025634765625,792.967041015625
1148,782.893798828125,790.1465454101562,796.996337890625,796.996337890625
1149,786.5201416015625,795.3846435546875,795.7875366210938,796.996337890625
1150,786.1171875,798.6080322265625,799.010986328125,798.2051391601562
1151,786.1171875,794.981689453125,795.7875366210938,795.3846435546875
1152,789.3406372070312,791.7582397460938,794.5787353515625,790.5494384765625
1153,787.7289428710938,798.6080322265625,796.1904907226562,794.5787353515625
1154,788.937744140625,801.025634765625,792.967041015625,791.7582397460938
1155,798.2051391601562,796.996337890625,789.3406372070312,794.1758422851562
1156,797.8021850585938,796.996337890625,791.3552856445312,796.5933837890625
1157,792.967041015625,800.2197875976562,796.1904907226562,786.5201416015625
1158,793.7728881835938,801.025634765625,794.981689453125,788.1318969726562
1159,794.5787353515625,797.8021850585938,793.7728881835938,792.5640869140625
1160,790.952392578125,795.3846435546875,792.5640869140625,788.937744140625
1161,786.923095703125,794.1758422851562,790.1465454101562,786.923095703125
1162,786.923095703125,792.967041015625,792.5640869140625,785.7142944335938
1163,785.3113403320312,790.952392578125,797.3992919921875,792.5640869140625
1164,781.2820434570312,789.7435913085938,796.5933837890625,802.6373901367188
1165,779.2673950195312,792.5640869140625,795.3846435546875,799.010986328125
1166,783.6996459960938,797.3992919921875,793.7728881835938,794.981689453125
1167,790.5494384765625,798.2051391601562,793.7728881835938,803.8461303710938
1168,788.937744140625,792.1611938476562,794.5787353515625,801.025634765625
1169,783.2966918945312,792.5640869140625,792.5640869140625,784.908447265625
1170,784.5054931640625,792.5640869140625,796.5933837890625,782.087890625
1171,790.952392578125,792.967041015625,797.3992919921875,783.2966918945312
1172,790.952392578125,794.5787353515625,792.1611938476562,779.6703491210938
1173,784.1025390625,795.7875366210938,794.1758422851562,781.2820434570312
1174,781.6849975585938,796.1904907226562,794.5787353515625,780.879150390625
1175,780.879150390625,797.8021850585938,790.952392578125,782.087890625
1176,780.4761962890625,801.025634765625,788.937744140625,784.908447265625
1177,784.908447265625,794.981689453125,791.3552856445312,785.7142944335938
1178,795.7875366210938,786.5201416015625,798.6080322265625,787.3259887695312
1179,802.6373901367188,790.5494384765625,797.8021850585938,795.7875366210938
1180,803.4432373046875,800.6226806640625,794.1758422851562,799.4139404296875
1181,800.2197875976562,797.8021850585938,792.5640869140625,796.1904907226562
1182,797.3992919921875,784.1025390625,787.7289428710938,797.3992919921875
1183,795.3846435546875,782.4908447265625,790.1465454101562,805.4578857421875
1184,793.7728881835938,792.967041015625,795.3846435546875,805.8607788085938
1185,794.1758422851562,805.4578857421875,794.981689453125,796.5933837890625
1186,795.3846435546875,798.6080322265625,794.981689453125,795.3846435546875
1187,796.5933837890625,790.1465454101562,794.981689453125,802.2344360351562
1188,792.5640869140625,795.7875366210938,794.1758422851562,800.2197875976562
1189,792.5640869140625,796.1904907226562,797.3992919921875,797.3992919921875
1190,793.7728881835938,792.967041015625,796.996337890625,803.8461303710938
1191,784.908447265625,789.7435913085938,794.981689453125,798.6080322265625
1192,771.6116943359375,788.5347900390625,794.981689453125,782.893798828125
1193,779.2673950195312,791.3552856445312,798.2051391601562,782.893798828125
1194,789.3406372070312,787.3259887695312,798.2051391601562,786.923095703125
1195,787.3259887695312,786.5201416015625,799.8168334960938,788.5347900390625
1196,786.923095703125,792.5640869140625,797.3992919921875,786.923095703125
1197,787.3259887695312,785.7142944335938,796.996337890625,788.1318969726562
1198,783.6996459960938,783.6996459960938,793.7728881835938,791.3552856445312
1199,784.1025390625,791.3552856445312,789.3406372070312,787.3259887695312
1200,791.7582397460938,796.996337890625,794.981689453125,788.937744140625
1201,794.981689453125,793.3699340820312,796.996337890625,793.3699340820312
1202,797.3992919921875,789.3406372070312,793.3699340820312,799.4139404296875
1203,795.7875366210938,796.1904907226562,794.981689453125,803.8461303710938
1204,789.7435913085938,794.5787353515625,793.7728881835938,793.7728881835938
1205,786.923095703125,788.5347900390625,791.7582397460938,790.1465454101562
1206,791.7582397460938,782.087890625,795.3846435546875,797.8021850585938
1207,792.967041015625,777.6557006835938,798.6080322265625,788.5347900390625
1208,791.3552856445312,789.7435913085938,800.2197875976562,788.937744140625
1209,796.1904907226562,801.8314819335938,802.2344360351562,801.025634765625
1210,794.981689453125,803.8461303710938,799.010986328125,795.3846435546875
1211,793.3699340820312,800.2197875976562,794.1758422851562,786.5201416015625
1212,795.7875366210938,800.2197875976562,796.1904907226562,787.7289428710938
1213,795.7875366210938,799.8168334960938,794.981689453125,797.8021850585938
1214,789.7435913085938,797.8021850585938,793.7728881835938,797.8021850585938
1215,781.6849975585938,799.010986328125,796.1904907226562,794.1758422851562
1216,783.2966918945312,792.967041015625,791.3552856445312,796.996337890625
1217,787.3259887695312,793.3699340820312,797.8021850585938,793.7728881835938
1218,790.952392578125,802.6373901367188,807.069580078125,796.996337890625
1219,800.2197875976562,794.981689453125,802.2344360351562,806.2637329101562
1220,805.054931640625,788.1318969726562,801.8314819335938,807.87548828125
1221,797.8021850585938,796.5933837890625,804.2490844726562,792.5640869140625
1222,788.5347900390625,798.2051391601562,800.6226806640625,786.5201416015625
1223,793.7728881835938,790.5494384765625,793.3699340820312,794.5787353515625
1224,799.4139404296875,790.952392578125,792.5640869140625,796.996337890625
1225,794.5787353515625,792.1611938476562,796.1904907226562,792.967041015625
1226,795.3846435546875,786.5201416015625,793.3699340820312,790.952392578125
1227,796.996337890625,786.1171875,792.5640869140625,796.5933837890625
1228,799.8168334960938,790.5494384765625,792.5640869140625,799.010986328125
1229,803.8461303710938,790.952392578125,790.5494384765625,806.2637329101562
1230,797.8021850585938,789.7435913085938,794.5787353515625,807.069580078125
1231,800.6226806640625,788.1318969726562,794.1758422851562,799.4139404296875
1232,804.2490844726562,789.7435913085938,791.7582397460938,798.6080322265625
1233,796.996337890625,794.1758422851562,793.3699340820312,799.8168334960938
1234,790.952392578125,796.1904907226562,790.1465454101562,802.2344360351562
1235,793.3699340820312,795.7875366210938,794.1758422851562,800.2197875976562
1236,790.1465454101562,794.5787353515625,790.952392578125,796.5933837890625
1237,785.3113403320312,792.1611938476562,787.3259887695312,797.8021850585938
1238,785.7142944335938,792.967041015625,788.5347900390625,795.3846435546875
1239,782.4908447265625,794.981689453125,786.1171875,790.5494384765625
1240,784.1025390625,788.937744140625,790.952392578125,796.996337890625
1241,784.1025390625,793.3699340820312,795.3846435546875,799.8168334960938
1242,784.1025390625,796.1904907226562,786.5201416015625,793.7728881835938
1243,785.3113403320312,785.7142944335938,782.087890625,793.7728881835938
1244,788.937744140625,794.981689453125,795.7875366210938,800.6226806640625
1245,791.7582397460938,795.3846435546875,800.6226806640625,799.4139404296875
1246,785.3113403320312,788.5347900390625,792.5640869140625,783.6996459960938
1247,785.7142944335938,796.1904907226562,788.5347900390625,782.893798828125
1248,796.5933837890625,799.010986328125,792.1611938476562,792.1611938476562
1249,797.3992919921875,794.981689453125,795.3846435546875,790.5494384765625
1250,796.5933837890625,796.996337890625,789.7435913085938,788.1318969726562
1251,805.054931640625,799.4139404296875,789.7435913085938,790.1465454101562
1252,810.6959838867188,792.1611938476562,793.7728881835938,799.4139404296875
1253,807.069580078125,789.7435913085938,791.7582397460938,802.6373901367188
1254,801.4285888671875,797.3992919921875,797.3992919921875,802.2344360351562
1255,800.6226806640625,803.4432373046875,804.2490844726562,804.6520385742188
1256,798.2051391601562,799.4139404296875,802.2344360351562,800.6226806640625
1257,796.1904907226562,793.7728881835938,799.010986328125,794.5787353515625
1258,800.6226806640625,800.6226806640625,800.6226806640625,799.8168334960938
1259,792.967041015625,800.2197875976562,794.981689453125,798.2051391601562
1260,784.908447265625,795.3846435546875,791.3552856445312,788.937744140625
1261,784.5054931640625,787.3259887695312,793.7728881835938,794.981689453125
1262,785.3113403320312,783.2966918945312,799.010986328125,795.7875366210938
1263,782.4908447265625,785.7142944335938,798.2051391601562,788.937744140625
1264,783.2966918945312,790.952392578125,792.967041015625,786.923095703125
1265,787.7289428710938,801.025634765625,797.8021850585938,785.7142944335938
1266,790.1465454101562,797.8021850585938,796.996337890625,786.5201416015625
1267,794.1758422851562,794.1758422851562,798.6080322265625,787.7289428710938
1268,796.1904907226562,795.7875366210938,799.4139404296875,793.7728881835938
1269,792.1611938476562,792.5640869140625,792.5640869140625,794.5787353515625
1270,788.5347900390625,787.3259887695312,783.6996459960938,788.1318969726562
1271,792.967041015625,790.5494384765625,788.5347900390625,784.5054931640625
1272,795.3846435546875,792.5640869140625,790.1465454101562,781.6849975585938
1273,795.7875366210938,785.7142944335938,787.7289428710938,782.087890625
1274,793.7728881835938,780.4761962890625,792.1611938476562,782.4908447265625
1275,789.3406372070312,790.5494384765625,795.3846435546875,790.5494384765625
1276,789.7435913085938,801.025634765625,795.3846435546875,793.7728881835938
1277,793.7728881835938,796.996337890625,794.5787353515625,788.5347900390625
1278,793.3699340820312,797.3992919921875,799.4139404296875,790.1465454101562
1279,790.5494384765625,794.5787353515625,805.054931640625,795.7875366210938
1280,790.5494384765625,789.7435913085938,802.2344360351562,803.4432373046875
1281,788.5347900390625,792.5640869140625,795.7875366210938,797.8021850585938
1282,788.5347900390625,792.1611938476562,797.3992919921875,792.967041015625
1283,784.5054931640625,785.7142944335938,794.5787353515625,790.5494384765625
1284,784.1025390625,781.2820434570312,790.5494384765625,782.893798828125
1285,791.3552856445312,785.7142944335938,793.7728881835938,781.2820434570312
1286,794.5787353515625,795.3846435546875,792.1611938476562,788.5347900390625
1287,793.3699340820312,797.3992919921875,790.1465454101562,798.6080322265625
1288,784.5054931640625,794.981689453125,791.7582397460938,790.952392578125
1289,783.2966918945312,791.7582397460938,792.1611938476562,786.1171875
1290,787.7289428710938,791.7582397460938,797.3992919921875,788.1318969726562
1291,787.3259887695312,798.2051391601562,799.4139404296875,785.7142944335938
1292,789.7435913085938,795.7875366210938,792.5640869140625,782.893798828125
1293,791.3552856445312,791.7582397460938,785.7142944335938,780.4761962890625
1294,787.7289428710938,794.1758422851562,783.2966918945312,778.8644409179688
1295,784.5054931640625,791.7582397460938,785.3113403320312,779.6703491210938
1296,782.893798828125,788.1318969726562,786.1171875,781.6849975585938
1297,788.1318969726562,787.7289428710938,788.5347900390625,789.3406372070312
1298,794.981689453125,789.3406372070312,792.1611938476562,794.5787353515625
1299,789.7435913085938,790.952392578125,788.937744140625,784.1025390625
1300,780.0732421875,791.3552856445312,782.4908447265625,770.4029541015625
1301,779.6703491210938,792.1611938476562,783.6996459960938,774.4322509765625
1302,782.087890625,788.5347900390625,785.7142944335938,779.2673950195312
1303,780.0732421875,789.3406372070312,786.1171875,776.4468994140625
1304,776.8497924804688,787.3259887695312,789.3406372070312,775.2380981445312
1305,775.6410522460938,786.923095703125,791.7582397460938,772.8204956054688
1306,780.4761962890625,786.923095703125,790.952392578125,776.0439453125
1307,784.5054931640625,787.7289428710938,795.3846435546875,779.2673950195312
1308,790.5494384765625,787.7289428710938,797.8021850585938,790.952392578125
1309,792.5640869140625,782.4908447265625,795.3846435546875,795.7875366210938
1310,782.893798828125,785.7142944335938,793.7728881835938,788.937744140625
1311,786.5201416015625,788.1318969726562,786.1171875,792.967041015625
1312,800.6226806640625,790.5494384765625,784.908447265625,805.8607788085938
1313,797.3992919921875,795.3846435546875,790.1465454101562,812.7106323242188
1314,784.1025390625,791.7582397460938,797.3992919921875,803.040283203125
1315,782.4908447265625,788.5347900390625,801.025634765625,792.967041015625
1316,789.7435913085938,792.5640869140625,793.7728881835938,796.1904907226562
1317,796.996337890625,792.967041015625,796.5933837890625,801.8314819335938
1318,793.7728881835938,789.7435913085938,802.6373901367188,798.6080322265625
1319,790.5494384765625,783.2966918945312,797.8021850585938,793.3699340820312
1320,795.3846435546875,781.6849975585938,792.1611938476562,794.981689453125
1321,794.1758422851562,782.893798828125,792.967041015625,796.1904907226562
1322,790.5494384765625,783.6996459960938,797.3992919921875,793.3699340820312
1323,794.5787353515625,789.3406372070312,796.996337890625,790.952392578125
1324,802.6373901367188,790.1465454101562,794.981689453125,796.996337890625
1325,803.040283203125,784.5054931640625,796.1904907226562,805.8607788085938
1326,794.1758422851562,787.7289428710938,797.3992919921875,792.5640869140625
1327,792.5640869140625,791.3552856445312,798.2051391601562,784.1025390625
1328,789.7435913085938,790.952392578125,793.7728881835938,788.5347900390625
1329,788.937744140625,790.5494384765625,791.3552856445312,781.6849975585938
1330,791.3552856445312,789.7435913085938,794.981689453125,782.4908447265625
1331,785.7142944335938,794.1758422851562,795.3846435546875,788.937744140625
1332,784.1025390625,786.1171875,793.7728881835938,794.981689453125
1333,786.5201416015625,772.4176025390625,793.7728881835938,798.2051391601562
1334,789.7435913085938,781.6849975585938,795.3846435546875,798.2051391601562
1335,795.7875366210938,794.1758422851562,792.5640869140625,799.010986328125
1336,789.3406372070312,786.1171875,792.967041015625,800.6226806640625
1337,785.7142944335938,787.7289428710938,795.7875366210938,797.8021850585938
1338,796.5933837890625,801.8314819335938,796.1904907226562,793.7728881835938
1339,803.8461303710938,803.040283203125,795.7875366210938,792.967041015625
1340,801.025634765625,794.981689453125,798.6080322265625,792.1611938476562
1341,795.3846435546875,794.5787353515625,799.8168334960938,797.8021850585938
1342,796.996337890625,792.967041015625,800.2197875976562,794.981689453125
1343,801.4285888671875,790.1465454101562,803.4432373046875,795.7875366210938
1344,800.2197875976562,791.3552856445312,799.8168334960938,799.4139404296875
1345,799.8168334960938,786.5201416015625,792.5640869140625,791.3552856445312
1346,796.996337890625,784.908447265625,793.7728881835938,784.5054931640625
1347,795.3846435546875,790.1465454101562,794.981689453125,789.7435913085938
1348,797.8021850585938,791.7582397460938,793.7728881835938,797.8021850585938
1349,798.2051391601562,790.5494384765625,798.6080322265625,790.952392578125
1350,796.1904907226562,792.5640869140625,794.5787353515625,788.1318969726562
1351,795.3846435546875,795.3846435546875,790.1465454101562,792.1611938476562
1352,793.7728881835938,794.981689453125,794.1758422851562,790.5494384765625
1353,790.5494384765625,794.1758422851562,793.3699340820312,792.1611938476562
1354,795.3846435546875,800.2197875976562,793.7728881835938,795.3846435546875
1355,799.4139404296875,803.4432373046875,795.7875366210938,799.8168334960938
1356,795.3846435546875,794.1758422851562,795.3846435546875,799.4139404296875
1357,796.5933837890625,792.1611938476562,790.1465454101562,790.952392578125
1358,799.8168334960938,796.1904907226562,790.952392578125,788.1318969726562
1359,801.4285888671875,795.7875366210938,789.3406372070312,794.1758422851562
1360,797.8021850585938,796.996337890625,792.5640869140625,801.025634765625
1361,800.6226806640625,796.1904907226562,796.5933837890625,795.7875366210938
1362,805.8607788085938,790.1465454101562,789.3406372070312,796.996337890625
1363,805.4578857421875,792.5640869140625,793.3699340820312,803.8461303710938
1364,810.6959838867188,802.6373901367188,801.025634765625,805.8607788085938
1365,811.098876953125,802.6373901367188,797.8021850585938,808.2783813476562
1366,809.89013671875,799.8168334960938,794.981689453125,803.8461303710938
1367,805.8607788085938,800.6226806640625,795.7875366210938,797.3992919921875
1368,801.8314819335938,798.6080322265625,795.3846435546875,797.8021850585938
1369,805.8607788085938,797.3992919921875,796.996337890625,795.3846435546875
1370,808.6813354492188,797.3992919921875,793.7728881835938,792.1611938476562
1371,803.040283203125,792.967041015625,794.981689453125,792.1611938476562
1372,796.1904907226562,790.1465454101562,801.025634765625,791.7582397460938
1373,795.7875366210938,791.7582397460938,800.6226806640625,793.3699340820312
1374,796.5933837890625,793.3699340820312,801.4285888671875,796.5933837890625
1375,794.981689453125,792.967041015625,800.2197875976562,795.7875366210938
1376,793.7728881835938,795.7875366210938,794.981689453125,793.7728881835938
1377,799.010986328125,799.8168334960938,793.7728881835938,790.5494384765625
1378,801.8314819335938,796.5933837890625,792.5640869140625,791.3552856445312
1379,801.8314819335938,792.967041015625,793.3699340820312,796.996337890625
1380,802.2344360351562,795.7875366210938,795.7875366210938,794.981689453125
1381,803.8461303710938,798.2051391601562,797.8021850585938,792.1611938476562
1382,800.6226806640625,797.3992919921875,792.1611938476562,790.1465454101562
1383,800.2197875976562,793.7728881835938,784.5054931640625,798.2051391601562
1384,803.4432373046875,792.5640869140625,794.1758422851562,801.8314819335938
1385,802.6373901367188,796.996337890625,802.6373901367188,796.996337890625
1386,801.025634765625,796.996337890625,800.6226806640625,794.981689453125
1387,796.996337890625,788.5347900390625,795.7875366210938,787.3259887695312
1388,795.7875366210938,787.3259887695312,794.5787353515625,785.3113403320312
1389,796.1904907226562,787.7289428710938,797.8021850585938,792.967041015625
1390,803.8461303710938,784.908447265625,797.8021850585938,801.8314819335938
1391,805.8607788085938,789.7435913085938,795.7875366210938,801.025634765625
1392,790.952392578125,794.981689453125,794.1758422851562,786.1171875
1393,779.6703491210938,791.7582397460938,796.1904907226562,775.2380981445312
1394,782.893798828125,791.7582397460938,801.4285888671875,785.7142944335938
1395,788.1318969726562,794.1758422851562,796.1904907226562,792.967041015625
1396,789.7435913085938,792.5640869140625,794.981689453125,790.1465454101562
1397,792.967041015625,789.7435913085938,802.6373901367188,790.5494384765625
1398,789.7435913085938,790.1465454101562,801.8314819335938,785.7142944335938
1399,789.3406372070312,795.3846435546875,793.7728881835938,781.2820434570312
1400,790.5494384765625,793.7728881835938,790.952392578125,782.4908447265625
1401,796.1904907226562,788.937744140625,789.7435913085938,784.5054931640625
1402,802.2344360351562,788.1318969726562,788.937744140625,789.3406372070312
1403,795.3846435546875,797.8021850585938,788.937744140625,782.4908447265625
1404,790.5494384765625,799.4139404296875,788.937744140625,778.05859375
1405,797.8021850585938,794.981689453125,792.1611938476562,784.1025390625
1406,801.4285888671875,798.6080322265625,794.5787353515625,784.908447265625
1407,801.4285888671875,799.8168334960938,792.1611938476562,786.923095703125
1408,798.6080322265625,798.6080322265625,793.7728881835938,790.5494384765625
1409,799.4139404296875,799.010986328125,795.7875366210938,796.1904907226562
1410,805.8607788085938,798.2051391601562,799.010986328125,801.8314819335938
1411,805.8607788085938,789.7435913085938,802.6373901367188,806.6666870117188
1412,797.8021850585938,789.3406372070312,800.6226806640625,809.89013671875
1413,795.7875366210938,794.5787353515625,797.3992919921875,805.4578857421875
1414,798.6080322265625,792.1611938476562,790.952392578125,796.996337890625
1415,801.8314819335938,796.1904907226562,790.952392578125,792.5640869140625
1416,804.2490844726562,793.7728881835938,799.010986328125,791.7582397460938
1417,801.8314819335938,792.5640869140625,798.2051391601562,792.5640869140625
1418,798.2051391601562,795.3846435546875,798.6080322265625,792.1611938476562
1419,796.996337890625,792.5640869140625,803.4432373046875,790.952392578125
1420,799.8168334960938,789.7435913085938,802.2344360351562,793.3699340820312
1421,806.6666870117188,791.3552856445312,799.010986328125,800.6226806640625
1422,805.054931640625,794.981689453125,799.4139404296875,797.3992919921875
1423,804.2490844726562,790.5494384765625,796.1904907226562,797.8021850585938
1424,799.010986328125,790.952392578125,791.3552856445312,796.5933837890625
1425,796.5933837890625,797.3992919921875,792.967041015625,789.7435913085938
1426,805.8607788085938,801.8314819335938,792.967041015625,794.1758422851562
1427,805.8607788085938,801.4285888671875,792.1611938476562,799.4139404296875
1428,802.6373901367188,796.1904907226562,794.1758422851562,799.8168334960938
1429,802.2344360351562,794.981689453125,795.7875366210938,799.010986328125
1430,801.8314819335938,796.1904907226562,795.3846435546875,799.8168334960938
1431,806.2637329101562,799.4139404296875,788.5347900390625,796.996337890625
1432,807.87548828125,799.010986328125,791.3552856445312,797.3992919921875
1433,806.2637329101562,800.2197875976562,799.4139404296875,799.4139404296875
1434,802.6373901367188,794.981689453125,794.1758422851562,792.5640869140625
1435,796.996337890625,788.1318969726562,788.5347900390625,790.5494384765625
1436,793.7728881835938,793.3699340820312,785.3113403320312,789.3406372070312
1437,790.5494384765625,796.996337890625,787.7289428710938,782.087890625
1438,790.5494384765625,794.5787353515625,790.5494384765625,785.3113403320312
1439,789.7435913085938,786.5201416015625,791.7582397460938,785.7142944335938
1440,788.1318969726562,783.6996459960938,793.7728881835938,780.879150390625
1441,791.3552856445312,788.1318969726562,792.5640869140625,786.923095703125
1442,787.7289428710938,785.7142944335938,792.967041015625,782.893798828125
1443,784.908447265625,781.2820434570312,794.981689453125,783.6996459960938
1444,782.893798828125,783.6996459960938,795.3846435546875,792.5640869140625
1445,778.05859375,792.967041015625,795.7875366210938,790.1465454101562
1446,784.908447265625,794.1758422851562,799.010986328125,790.5494384765625
1447,788.1318969726562,784.5054931640625,792.1611938476562,788.1318969726562
1448,786.923095703125,786.5201416015625,786.5201416015625,782.4908447265625
1449,790.1465454101562,792.967041015625,788.5347900390625,783.6996459960938
1450,788.1318969726562,796.1904907226562,785.3113403320312,786.1171875
1451,792.5640869140625,797.3992919921875,786.1171875,792.967041015625
1452,798.6080322265625,798.6080322265625,790.5494384765625,797.3992919921875
1453,793.3699340820312,797.3992919921875,790.952392578125,794.5787353515625
1454,793.3699340820312,792.5640869140625,788.937744140625,783.6996459960938
1455,799.4139404296875,790.952392578125,787.3259887695312,786.923095703125
1456,800.2197875976562,799.010986328125,790.5494384765625,793.7728881835938
1457,798.2051391601562,799.8168334960938,792.1611938476562,779.6703491210938
1458,793.3699340820312,795.3846435546875,788.937744140625,778.4615478515625
1459,791.7582397460938,795.3846435546875,790.952392578125,789.3406372070312
1460,794.5787353515625,793.7728881835938,793.3699340820312,792.1611938476562
1461,793.3699340820312,792.967041015625,793.3699340820312,796.1904907226562
1462,795.3846435546875,799.8168334960938,796.5933837890625,801.4285888671875
1463,795.7875366210938,795.7875366210938,797.8021850585938,795.7875366210938
1464,790.952392578125,790.5494384765625,790.952392578125,785.7142944335938
1465,784.908447265625,790.5494384765625,790.952392578125,781.6849975585938
1466,784.1025390625,790.952392578125,792.5640869140625,783.6996459960938
1467,791.7582397460938,791.3552856445312,792.1611938476562,792.967041015625
1468,790.952392578125,794.5787353515625,794.1758422851562,792.1611938476562
1469,782.4908447265625,792.967041015625,793.3699340820312,786.923095703125
1470,783.6996459960938,789.3406372070312,796.5933837890625,790.952392578125
1471,790.952392578125,794.981689453125,800.6226806640625,793.3699340820312
1472,789.3406372070312,796.996337890625,799.4139404296875,782.4908447265625
1473,786.1171875,790.952392578125,795.3846435546875,776.8497924804688
1474,785.7142944335938,787.3259887695312,794.981689453125,782.4908447265625
1475,784.908447265625,792.1611938476562,795.7875366210938,781.6849975585938
1476,785.3113403320312,788.1318969726562,793.3699340820312,774.4322509765625
1477,786.923095703125,783.6996459960938,792.1611938476562,777.6557006835938
1478,794.1758422851562,790.5494384765625,790.952392578125,794.981689453125
1479,793.3699340820312,793.3699340820312,794.1758422851562,800.2197875976562
1480,786.923095703125,788.5347900390625,796.5933837890625,791.3552856445312
1481,789.7435913085938,784.1025390625,788.937744140625,787.7289428710938
1482,788.5347900390625,785.3113403320312,788.1318969726562,787.7289428710938
1483,786.923095703125,786.923095703125,796.1904907226562,786.5201416015625
1484,788.1318969726562,796.996337890625,796.996337890625,788.1318969726562
1485,785.7142944335938,800.6226806640625,792.967041015625,788.937744140625
1486,784.908447265625,788.937744140625,790.5494384765625,786.1171875
1487,790.952392578125,787.7289428710938,792.5640869140625,788.937744140625
1488,796.996337890625,789.7435913085938,796.996337890625,788.1318969726562
1489,802.2344360351562,794.5787353515625,799.8168334960938,788.937744140625
1490,802.2344360351562,795.7875366210938,796.1904907226562,796.5933837890625
1491,797.8021850585938,792.1611938476562,790.1465454101562,796.5933837890625
1492,803.040283203125,794.1758422851562,790.1465454101562,798.2051391601562
1493,813.91943359375,794.1758422851562,783.6996459960938,805.054931640625
1494,818.3516235351562,792.5640869140625,780.4761962890625,809.89013671875
1495,807.87548828125,791.7582397460938,788.1318969726562,803.040283203125
1496,796.5933837890625,794.1758422851562,793.7728881835938,795.3846435546875
1497,799.4139404296875,792.1611938476562,794.5787353515625,791.7582397460938
1498,801.4285888671875,790.1465454101562,798.6080322265625,797.8021850585938
1499,792.5640869140625,791.3552856445312,796.1904907226562,796.996337890625
1500,792.967041015625,782.893798828125,794.1758422851562,799.4139404296875
1501,801.025634765625,783.2966918945312,794.5787353515625,807.87548828125
1502,803.8461303710938,786.5201416015625,793.7728881835938,803.8461303710938
1503,807.069580078125,786.923095703125,797.8021850585938,797.8021850585938
1504,811.90478515625,799.4139404296875,798.6080322265625,795.3846435546875
1505,809.89013671875,801.025634765625,794.5787353515625,797.8021850585938
1506,803.4432373046875,799.4139404296875,795.7875366210938,791.3552856445312
1507,801.025634765625,799.8168334960938,796.5933837890625,783.6996459960938
1508,804.6520385742188,796.996337890625,792.967041015625,793.7728881835938
1509,809.084228515625,793.3699340820312,794.5787353515625,796.996337890625
1510,805.4578857421875,788.1318969726562,791.3552856445312,793.3699340820312
1511,800.6226806640625,787.3259887695312,789.7435913085938,796.1904907226562
1512,800.2197875976562,787.7289428710938,791.3552856445312,802.6373901367188
1513,805.8607788085938,786.1171875,792.1611938476562,802.6373901367188
1514,804.2490844726562,792.1611938476562,788.937744140625,788.1318969726562
1515,797.3992919921875,798.2051391601562,786.5201416015625,783.2966918945312
1516,800.6226806640625,799.4139404296875,792.967041015625,792.967041015625
1517,806.2637329101562,798.2051391601562,794.981689453125,809.4871826171875
1518,805.8607788085938,790.1465454101562,793.7728881835938,809.084228515625
1519,802.2344360351562,789.3406372070312,792.967041015625,803.4432373046875
1520,801.025634765625,792.967041015625,791.7582397460938,803.040283203125
1521,800.2197875976562,789.7435913085938,794.981689453125,802.2344360351562
1522,801.4285888671875,788.1318969726562,797.3992919921875,803.040283203125
1523,807.4725341796875,796.1904907226562,798.6080322265625,812.3076782226562
1524,810.2930297851562,794.5787353515625,798.6080322265625,818.7545776367188
1525,805.054931640625,789.3406372070312,798.6080322265625,808.2783813476562
1526,799.010986328125,792.967041015625,794.1758422851562,798.6080322265625
1527,798.6080322265625,798.2051391601562,789.3406372070312,798.2051391601562
1528,800.6226806640625,795.7875366210938,794.1758422851562,805.4578857421875
1529,801.025634765625,791.3552856445312,800.6226806640625,805.054931640625
1530,800.2197875976562,792.967041015625,796.1904907226562,796.996337890625
1531,804.2490844726562,791.7582397460938,789.7435913085938,796.1904907226562
1532,804.2490844726562,790.952392578125,792.1611938476562,789.7435913085938
1533,801.8314819335938,789.7435913085938,794.1758422851562,790.1465454101562
1534,799.8168334960938,789.7435913085938,794.1758422851562,796.1904907226562
1535,803.8461303710938,798.6080322265625,795.7875366210938,800.2197875976562
1536,807.87548828125,802.2344360351562,799.8168334960938,799.4139404296875
1537,803.4432373046875,796.1904907226562,801.025634765625,796.996337890625
1538,803.040283203125,800.2197875976562,803.4432373046875,799.4139404296875
1539,804.6520385742188,800.6226806640625,804.6520385742188,805.4578857421875
1540,799.4139404296875,793.3699340820312,802.2344360351562,803.040283203125
1541,799.010986328125,794.981689453125,800.6226806640625,799.4139404296875
1542,799.010986328125,793.7728881835938,803.8461303710938,799.4139404296875
1543,798.2051391601562,786.923095703125,799.4139404296875,792.5640869140625
1544,795.3846435546875,784.908447265625,790.1465454101562,780.879150390625
1545,790.952392578125,786.5201416015625,792.5640869140625,781.2820434570312
1546,792.1611938476562,788.937744140625,800.6226806640625,793.3699340820312
1547,795.3846435546875,795.3846435546875,792.967041015625,799.4139404296875
1548,797.3992919921875,792.5640869140625,788.5347900390625,799.8168334960938
1549,794.1758422851562,785.7142944335938,793.3699340820312,790.952392578125
1550,791.3552856445312,793.7728881835938,794.1758422851562,781.2820434570312
1551,790.952392578125,799.4139404296875,792.1611938476562,789.7435913085938
1552,790.952392578125,794.5787353515625,790.952392578125,795.7875366210938
1553,790.5494384765625,792.5640869140625,797.3992919921875,782.4908447265625
1554,796.996337890625,788.937744140625,796.996337890625,779.2673950195312
1555,797.8021850585938,788.937744140625,794.981689453125,782.893798828125
1556,792.5640869140625,794.981689453125,795.3846435546875,780.0732421875
1557,788.1318969726562,796.996337890625,789.7435913085938,776.4468994140625
1558,785.7142944335938,794.1758422851562,791.3552856445312,776.8497924804688
1559,793.7728881835938,793.3699340820312,791.7582397460938,780.4761962890625
1560,795.7875366210938,792.5640869140625,788.5347900390625,784.5054931640625
1561,796.996337890625,787.7289428710938,789.3406372070312,790.5494384765625
1562,801.025634765625,792.1611938476562,790.952392578125,794.5787353515625
1563,798.2051391601562,796.5933837890625,794.981689453125,792.967041015625
1564,796.5933837890625,794.1758422851562,798.2051391601562,786.923095703125
1565,796.996337890625,790.5494384765625,796.996337890625,785.7142944335938
1566,794.5787353515625,789.3406372070312,791.3552856445312,785.7142944335938
1567,790.1465454101562,790.1465454101562,788.1318969726562,783.2966918945312
1568,790.952392578125,791.3552856445312,788.1318969726562,787.7289428710938
1569,796.996337890625,792.5640869140625,793.7728881835938,794.5787353515625
1570,803.8461303710938,790.1465454101562,800.2197875976562,803.040283203125
1571,799.8168334960938,790.5494384765625,796.996337890625,803.040283203125
1572,794.5787353515625,786.5201416015625,792.967041015625,792.1611938476562
1573,791.7582397460938,780.4761962890625,792.1611938476562,789.7435913085938
1574,790.952392578125,789.3406372070312,792.967041015625,792.967041015625
1575,794.981689453125,796.5933837890625,789.3406372070312,790.5494384765625
1576,796.996337890625,796.1904907226562,788.937744140625,786.5201416015625
1577,799.4139404296875,788.937744140625,794.981689453125,794.981689453125
1578,802.2344360351562,786.5201416015625,797.8021850585938,802.6373901367188
1579,793.3699340820312,788.937744140625,796.5933837890625,790.952392578125
1580,787.3259887695312,794.5787353515625,791.3552856445312,780.0732421875
