timestamp,RAW_TP9,RAW_AF7,RAW_AF8,RAW_TP10
1,790.1465454101562,784.1025390625,799.010986328125,788.1318969726562
2,784.1025390625,780.4761962890625,797.8021850585938,783.6996459960938
3,792.5640869140625,788.1318969726562,795.3846435546875,794.5787353515625
4,792.5640869140625,791.7582397460938,800.2197875976562,798.2051391601562
5,772.8204956054688,784.908447265625,804.2490844726562,775.6410522460938
6,771.6116943359375,786.5201416015625,801.025634765625,773.6264038085938
7,784.5054931640625,789.3406372070312,803.4432373046875,794.1758422851562
8,779.6703491210938,783.2966918945312,806.6666870117188,795.3846435546875
9,779.2673950195312,782.4908447265625,809.084228515625,799.8168334960938
10,787.7289428710938,784.5054931640625,808.2783813476562,804.2490844726562
11,794.981689453125,783.6996459960938,802.6373901367188,798.6080322265625
12,792.1611938476562,786.923095703125,797.3992919921875,801.8314819335938
13,789.3406372070312,782.893798828125,801.4285888671875,799.8168334960938
14,792.5640869140625,780.4761962890625,805.054931640625,796.1904907226562
15,797.3992919921875,785.7142944335938,805.4578857421875,799.010986328125
16,797.3992919921875,788.937744140625,807.069580078125,803.4432373046875
17,790.952392578125,788.1318969726562,807.4725341796875,802.6373901367188
18,790.952392578125,786.1171875,807.069580078125,799.4139404296875
19,791.7582397460938,786.5201416015625,807.069580078125,799.010986328125
20,791.7582397460938,788.1318969726562,806.6666870117188,802.2344360351562
21,794.1758422851562,790.5494384765625,805.8607788085938,802.2344360351562
22,796.1904907226562,792.5640869140625,805.8607788085938,796.996337890625
23,797.8021850585938,792.967041015625,804.6520385742188,797.8021850585938
24,796.1904907226562,792.5640869140625,802.2344360351562,794.1758422851562
25,798.2051391601562,790.1465454101562,801.025634765625,787.3259887695312
26,799.010986328125,784.5054931640625,803.040283203125,789.7435913085938
27,800.6226806640625,786.1171875,805.8607788085938,790.952392578125
28,797.3992919921875,788.1318969726562,801.8314819335938,784.1025390625
29,792.5640869140625,785.7142944335938,799.4139404296875,783.2966918945312
30,792.1611938476562,785.3113403320312,800.6226806640625,788.1318969726562
31,795.3846435546875,783.6996459960938,795.3846435546875,793.7728881835938
32,796.996337890625,783.2966918945312,795.3846435546875,792.1611938476562
33,791.3552856445312,786.923095703125,795.3846435546875,786.1171875
34,783.6996459960938,788.1318969726562,789.7435913085938,783.6996459960938
35,778.8644409179688,788.5347900390625,791.7582397460938,784.908447265625
36,784.908447265625,788.5347900390625,794.5787353515625,783.6996459960938
37,792.1611938476562,786.923095703125,793.3699340820312,784.908447265625
38,794.1758422851562,789.3406372070312,795.7875366210938,794.1758422851562
39,784.908447265625,789.3406372070312,795.7875366210938,797.8021850585938
40,789.3406372070312,793.7728881835938,793.7728881835938,796.5933837890625
41,798.2051391601562,797.3992919921875,796.5933837890625,795.3846435546875
42,795.3846435546875,792.5640869140625,792.967041015625,794.981689453125
43,792.1611938476562,793.3699340820312,792.5640869140625,798.6080322265625
44,789.7435913085938,797.3992919921875,790.5494384765625,794.1758422851562
45,781.6849975585938,792.5640869140625,786.1171875,784.908447265625
46,782.893798828125,790.5494384765625,786.923095703125,791.3552856445312
47,790.952392578125,795.7875366210938,787.7289428710938,794.5787353515625
48,785.3113403320312,799.4139404296875,788.937744140625,788.1318969726562
49,780.879150390625,799.8168334960938,786.5201416015625,786.1171875
50,788.937744140625,799.010986328125,787.7289428710938,788.937744140625
51,794.981689453125,799.8168334960938,788.937744140625,788.5347900390625
52,794.981689453125,796.5933837890625,786.1171875,784.908447265625
53,791.3552856445312,793.7728881835938,783.6996459960938,781.2820434570312
54,789.7435913085938,793.7728881835938,782.087890625,782.4908447265625
55,788.5347900390625,790.952392578125,786.1171875,786.923095703125
56,787.3259887695312,790.1465454101562,789.7435913085938,783.2966918945312
57,788.937744140625,788.937744140625,789.3406372070312,778.05859375
58,789.7435913085938,787.7289428710938,788.5347900390625,782.4908447265625
59,788.1318969726562,784.5054931640625,785.3113403320312,780.4761962890625
60,790.5494384765625,788.5347900390625,782.4908447265625,776.4468994140625
61,796.5933837890625,793.3699340820312,785.7142944335938,784.1025390625
62,797.3992919921875,788.1318969726562,788.5347900390625,782.893798828125
63,793.7728881835938,788.5347900390625,785.7142944335938,779.6703491210938
64,800.2197875976562,793.3699340820312,786.5201416015625,787.7289428710938
65,797.8021850585938,794.5787353515625,790.1465454101562,788.937744140625
66,788.937744140625,794.1758422851562,792.967041015625,786.923095703125
67,790.5494384765625,789.3406372070312,794.1758422851562,779.6703491210938
68,791.7582397460938,787.3259887695312,786.923095703125,768.7911987304688
69,792.1611938476562,791.3552856445312,784.5054931640625,771.2088012695312
70,787.3259887695312,792.1611938476562,786.1171875,782.087890625
71,788.937744140625,791.7582397460938,786.5201416015625,780.879150390625
72,793.3699340820312,790.952392578125,789.3406372070312,782.4908447265625
73,790.5494384765625,788.1318969726562,790.1465454101562,787.3259887695312
74,788.1318969726562,788.937744140625,788.937744140625,788.5347900390625
75,786.1171875,790.952392578125,789.7435913085938,788.937744140625
76,788.937744140625,788.1318969726562,787.3259887695312,780.879150390625
77,788.5347900390625,784.1025390625,782.087890625,778.05859375
78,784.908447265625,785.7142944335938,785.3113403320312,780.879150390625
79,781.6849975585938,784.908447265625,786.923095703125,780.879150390625
80,781.2820434570312,784.908447265625,785.7142944335938,781.2820434570312
81,780.0732421875,784.908447265625,787.3259887695312,784.908447265625
82,783.6996459960938,786.5201416015625,794.981689453125,789.7435913085938
83,790.952392578125,786.1171875,796.5933837890625,786.5201416015625
84,790.1465454101562,782.4908447265625,790.952392578125,781.2820434570312
85,786.5201416015625,786.923095703125,794.1758422851562,775.6410522460938
86,791.7582397460938,789.3406372070312,796.996337890625,781.2820434570312
87,797.3992919921875,787.3259887695312,796.996337890625,786.1171875
88,797.8021850585938,788.1318969726562,795.7875366210938,784.908447265625
89,800.2197875976562,790.5494384765625,792.5640869140625,785.7142944335938
90,801.4285888671875,792.967041015625,792.5640869140625,784.1025390625
91,794.1758422851562,792.5640869140625,792.1611938476562,786.1171875
92,797.3992919921875,793.7728881835938,790.1465454101562,790.5494384765625
93,795.3846435546875,789.3406372070312,787.7289428710938,782.087890625
94,791.3552856445312,789.3406372070312,790.1465454101562,782.4908447265625
95,794.981689453125,794.5787353515625,794.1758422851562,785.3113403320312
96,792.1611938476562,793.7728881835938,789.7435913085938,784.5054931640625
97,790.5494384765625,790.5494384765625,792.967041015625,793.3699340820312
98,789.3406372070312,784.5054931640625,794.981689453125,793.3699340820312
99,787.7289428710938,782.087890625,795.7875366210938,792.967041015625
100,785.7142944335938,783.6996459960938,796.5933837890625,797.8021850585938
101,782.087890625,787.3259887695312,798.2051391601562,797.8021850585938
102,784.908447265625,787.3259887695312,799.4139404296875,790.5494384765625
103,789.3406372070312,789.3406372070312,795.7875366210938,786.1171875
104,791.3552856445312,792.967041015625,794.1758422851562,790.952392578125
105,786.1171875,792.5640869140625,796.996337890625,794.5787353515625
106,782.893798828125,793.3699340820312,798.2051391601562,788.937744140625
107,787.7289428710938,793.3699340820312,798.6080322265625,791.3552856445312
108,796.1904907226562,793.3699340820312,801.4285888671875,796.1904907226562
109,797.3992919921875,792.5640869140625,797.3992919921875,792.1611938476562
110,792.967041015625,795.7875366210938,796.1904907226562,788.1318969726562
111,794.1758422851562,799.4139404296875,796.996337890625,788.5347900390625
112,801.025634765625,802.2344360351562,796.996337890625,794.5787353515625
113,799.8168334960938,803.040283203125,797.8021850585938,789.7435913085938
114,800.2197875976562,800.2197875976562,794.5787353515625,787.3259887695312
115,799.8168334960938,794.1758422851562,794.981689453125,788.5347900390625
116,792.967041015625,790.5494384765625,794.5787353515625,787.7289428710938
117,794.5787353515625,790.1465454101562,794.1758422851562,784.1025390625
118,796.996337890625,788.5347900390625,794.5787353515625,786.1171875
119,794.5787353515625,792.5640869140625,795.3846435546875,786.1171875
120,789.7435913085938,796.5933837890625,792.967041015625,783.2966918945312
121,786.1171875,793.3699340820312,789.3406372070312,782.087890625
122,788.937744140625,793.7728881835938,789.3406372070312,774.8351440429688
123,791.3552856445312,794.1758422851562,791.7582397460938,776.4468994140625
124,789.7435913085938,790.952392578125,792.5640869140625,783.6996459960938
125,786.923095703125,792.967041015625,787.3259887695312,787.3259887695312
126,786.5201416015625,792.967041015625,784.1025390625,780.4761962890625
127,790.952392578125,791.7582397460938,785.7142944335938,783.6996459960938
128,794.981689453125,794.5787353515625,786.1171875,791.7582397460938
129,792.967041015625,792.967041015625,787.3259887695312,784.5054931640625
130,787.7289428710938,792.5640869140625,789.3406372070312,780.879150390625
131,785.7142944335938,793.7728881835938,788.5347900390625,780.0732421875
132,787.7289428710938,792.5640869140625,793.3699340820312,781.2820434570312
133,789.3406372070312,793.3699340820312,794.5787353515625,780.4761962890625
134,788.1318969726562,791.3552856445312,790.952392578125,781.2820434570312
135,784.1025390625,792.5640869140625,788.937744140625,782.4908447265625
136,779.6703491210938,796.996337890625,790.1465454101562,782.087890625
137,787.3259887695312,796.5933837890625,796.1904907226562,786.5201416015625
138,796.1904907226562,795.3846435546875,799.8168334960938,793.7728881835938
139,795.7875366210938,793.7728881835938,798.6080322265625,800.6226806640625
140,791.7582397460938,794.5787353515625,798.2051391601562,793.7728881835938
141,789.3406372070312,796.996337890625,797.8021850585938,788.937744140625
142,787.7289428710938,794.5787353515625,798.6080322265625,787.3259887695312
143,794.5787353515625,797.8021850585938,802.6373901367188,790.5494384765625
144,803.4432373046875,801.025634765625,805.054931640625,799.010986328125
145,798.6080322265625,799.8168334960938,804.6520385742188,794.1758422851562
146,787.7289428710938,794.5787353515625,799.8168334960938,781.2820434570312
147,786.5201416015625,791.7582397460938,796.996337890625,781.6849975585938
148,791.3552856445312,793.3699340820312,798.6080322265625,787.7289428710938
149,795.3846435546875,794.981689453125,799.010986328125,786.1171875
150,796.1904907226562,796.1904907226562,796.996337890625,788.937744140625
151,789.3406372070312,794.981689453125,793.7728881835938,786.923095703125
152,788.1318969726562,795.3846435546875,792.5640869140625,788.1318969726562
153,790.1465454101562,791.7582397460938,790.952392578125,785.7142944335938
154,788.937744140625,788.5347900390625,791.7582397460938,787.7289428710938
155,786.5201416015625,788.937744140625,795.7875366210938,792.967041015625
156,782.893798828125,787.3259887695312,790.1465454101562,783.2966918945312
157,782.893798828125,786.1171875,786.923095703125,775.2380981445312
158,781.2820434570312,786.5201416015625,787.3259887695312,775.6410522460938
159,784.5054931640625,788.1318969726562,787.7289428710938,780.879150390625
160,793.7728881835938,794.981689453125,795.7875366210938,784.908447265625
161,792.967041015625,798.2051391601562,799.010986328125,783.6996459960938
162,791.7582397460938,795.3846435546875,796.996337890625,785.3113403320312
163,791.3552856445312,793.7728881835938,799.8168334960938,784.1025390625
164,789.3406372070312,790.5494384765625,797.8021850585938,780.879150390625
165,790.952392578125,788.5347900390625,797.8021850585938,777.2527465820312
166,789.3406372070312,792.1611938476562,795.3846435546875,778.8644409179688
167,779.2673950195312,792.5640869140625,796.5933837890625,779.6703491210938
168,780.0732421875,787.3259887695312,797.8021850585938,779.6703491210938
169,782.893798828125,785.3113403320312,792.967041015625,779.2673950195312
170,784.1025390625,787.7289428710938,788.937744140625,781.2820434570312
171,784.908447265625,788.1318969726562,792.967041015625,786.923095703125
172,786.923095703125,791.7582397460938,797.3992919921875,786.5201416015625
173,788.5347900390625,792.5640869140625,796.996337890625,785.3113403320312
174,788.5347900390625,789.7435913085938,797.8021850585938,781.2820434570312
175,786.923095703125,788.5347900390625,798.6080322265625,775.2380981445312
176,782.893798828125,787.3259887695312,791.3552856445312,770.0
177,784.5054931640625,790.5494384765625,789.7435913085938,778.05859375
178,783.2966918945312,790.952392578125,792.5640869140625,779.6703491210938
179,786.5201416015625,790.5494384765625,795.7875366210938,776.4468994140625
180,794.5787353515625,794.1758422851562,796.996337890625,784.5054931640625
181,794.981689453125,794.5787353515625,794.981689453125,784.1025390625
182,790.952392578125,794.981689453125,794.5787353515625,778.8644409179688
183,794.5787353515625,792.967041015625,794.5787353515625,780.879150390625
184,794.981689453125,789.7435913085938,796.1904907226562,784.1025390625
185,796.996337890625,793.3699340820312,797.3992919921875,788.5347900390625
186,799.8168334960938,795.3846435546875,797.3992919921875,790.5494384765625
187,790.952392578125,794.5787353515625,793.7728881835938,786.923095703125
188,790.1465454101562,796.1904907226562,795.7875366210938,792.5640869140625
189,794.1758422851562,796.1904907226562,795.7875366210938,799.8168334960938
190,793.3699340820312,795.7875366210938,796.996337890625,799.4139404296875
191,794.5787353515625,797.3992919921875,801.8314819335938,795.7875366210938
192,791.7582397460938,794.5787353515625,798.2051391601562,792.967041015625
193,790.1465454101562,792.1611938476562,797.3992919921875,792.967041015625
194,792.5640869140625,791.7582397460938,796.996337890625,788.5347900390625
195,790.1465454101562,788.1318969726562,793.7728881835938,780.4761962890625
196,790.952392578125,792.5640869140625,794.1758422851562,785.3113403320312
197,786.1171875,792.1611938476562,793.3699340820312,783.2966918945312
198,787.7289428710938,788.1318969726562,793.3699340820312,782.4908447265625
199,784.908447265625,791.7582397460938,791.7582397460938,785.7142944335938
200,788.937744140625,793.3699340820312,791.7582397460938,788.5347900390625
201,788.937744140625,794.981689453125,794.981689453125,791.7582397460938
202,785.7142944335938,795.7875366210938,797.8021850585938,784.908447265625
203,786.923095703125,792.967041015625,797.3992919921875,784.1025390625
204,785.3113403320312,792.5640869140625,798.2051391601562,788.1318969726562
205,788.5347900390625,793.3699340820312,799.8168334960938,787.3259887695312
206,790.5494384765625,787.3259887695312,796.5933837890625,784.1025390625
207,786.1171875,785.3113403320312,794.981689453125,776.4468994140625
208,783.6996459960938,791.3552856445312,795.3846435546875,778.4615478515625
209,786.1171875,793.3699340820312,798.6080322265625,786.923095703125
210,791.3552856445312,787.7289428710938,799.8168334960938,789.7435913085938
211,792.967041015625,790.952392578125,798.2051391601562,792.5640869140625
212,797.3992919921875,798.6080322265625,803.4432373046875,803.4432373046875
213,794.5787353515625,796.5933837890625,802.6373901367188,797.8021850585938
214,782.893798828125,791.7582397460938,796.996337890625,787.3259887695312
215,788.5347900390625,787.7289428710938,796.1904907226562,788.1318969726562
216,786.923095703125,784.5054931640625,787.3259887695312,786.1171875
217,784.908447265625,788.5347900390625,782.893798828125,785.3113403320312
218,788.937744140625,788.937744140625,788.1318969726562,785.3113403320312
219,783.2966918945312,789.3406372070312,787.3259887695312,783.6996459960938
220,782.893798828125,790.952392578125,787.7289428710938,780.0732421875
221,788.5347900390625,790.5494384765625,788.937744140625,786.1171875
222,790.5494384765625,791.7582397460938,786.923095703125,790.5494384765625
223,788.937744140625,792.5640869140625,792.1611938476562,788.937744140625
224,790.1465454101562,793.3699340820312,794.5787353515625,786.5201416015625
225,796.996337890625,793.7728881835938,791.7582397460938,785.3113403320312
226,797.8021850585938,790.1465454101562,787.3259887695312,779.6703491210938
227,793.7728881835938,786.923095703125,784.1025390625,786.923095703125
228,790.5494384765625,790.1465454101562,789.3406372070312,796.996337890625
229,784.5054931640625,793.3699340820312,790.952392578125,787.3259887695312
230,787.3259887695312,794.5787353515625,787.7289428710938,784.5054931640625
231,795.7875366210938,794.5787353515625,792.1611938476562,789.7435913085938
232,794.1758422851562,794.5787353515625,794.5787353515625,790.5494384765625
233,793.3699340820312,795.3846435546875,792.967041015625,784.1025390625
234,804.6520385742188,796.5933837890625,792.1611938476562,784.908447265625
235,801.025634765625,794.5787353515625,791.3552856445312,787.3259887695312
236,792.5640869140625,792.5640869140625,788.5347900390625,783.2966918945312
237,793.3699340820312,790.1465454101562,786.5201416015625,782.087890625
238,789.7435913085938,788.1318969726562,786.923095703125,781.2820434570312
239,786.923095703125,792.5640869140625,789.3406372070312,788.5347900390625
240,792.967041015625,796.1904907226562,795.3846435546875,792.967041015625
241,794.1758422851562,792.1611938476562,796.5933837890625,790.5494384765625
242,787.7289428710938,789.7435913085938,794.5787353515625,792.5640869140625
243,787.3259887695312,792.5640869140625,793.7728881835938,790.5494384765625
244,786.5201416015625,788.1318969726562,792.1611938476562,785.7142944335938
245,789.3406372070312,787.3259887695312,790.952392578125,792.5640869140625
246,794.5787353515625,790.952392578125,792.5640869140625,797.8021850585938
247,792.5640869140625,789.7435913085938,797.3992919921875,793.3699340820312
248,790.952392578125,791.7582397460938,798.2051391601562,792.1611938476562
249,789.3406372070312,791.7582397460938,795.3846435546875,789.3406372070312
250,785.7142944335938,786.923095703125,793.7728881835938,787.3259887695312
251,786.5201416015625,786.5201416015625,790.1465454101562,792.1611938476562
252,790.5494384765625,793.7728881835938,790.1465454101562,787.7289428710938
253,789.3406372070312,794.981689453125,794.981689453125,785.7142944335938
254,785.7142944335938,793.7728881835938,794.1758422851562,781.6849975585938
255,789.7435913085938,795.7875366210938,789.3406372070312,780.0732421875
256,794.1758422851562,793.3699340820312,793.3699340820312,780.4761962890625
257,792.967041015625,792.967041015625,790.952392578125,778.05859375
258,790.5494384765625,792.1611938476562,784.5054931640625,775.2380981445312
259,789.3406372070312,790.5494384765625,786.923095703125,780.0732421875
260,785.3113403320312,790.952392578125,788.1318969726562,779.6703491210938
261,782.4908447265625,788.1318969726562,788.5347900390625,778.4615478515625
262,785.3113403320312,784.908447265625,789.7435913085938,790.952392578125
263,795.3846435546875,783.2966918945312,793.7728881835938,796.1904907226562
264,790.952392578125,790.5494384765625,797.8021850585938,787.7289428710938
265,778.4615478515625,797.3992919921875,790.952392578125,773.2234497070312
266,783.2966918945312,794.981689453125,784.1025390625,770.4029541015625
267,788.937744140625,795.7875366210938,786.1171875,773.6264038085938
268,780.0732421875,798.2051391601562,786.1171875,768.7911987304688
269,772.8204956054688,798.6080322265625,788.1318969726562,767.1795043945312
270,782.893798828125,797.8021850585938,790.5494384765625,778.8644409179688
271,783.6996459960938,793.7728881835938,787.7289428710938,784.5054931640625
272,780.0732421875,789.7435913085938,785.7142944335938,780.4761962890625
273,784.1025390625,787.3259887695312,784.908447265625,783.2966918945312
274,783.6996459960938,788.1318969726562,789.7435913085938,783.6996459960938
275,784.1025390625,791.3552856445312,792.967041015625,784.908447265625
276,788.937744140625,792.967041015625,790.1465454101562,792.5640869140625
277,791.7582397460938,790.1465454101562,791.3552856445312,788.1318969726562
278,787.3259887695312,785.7142944335938,791.7582397460938,781.6849975585938
279,785.3113403320312,786.923095703125,789.3406372070312,780.0732421875
280,781.6849975585938,789.3406372070312,787.7289428710938,776.8497924804688
281,784.1025390625,791.3552856445312,786.1171875,783.2966918945312
282,794.1758422851562,793.3699340820312,786.1171875,788.937744140625
283,792.5640869140625,789.3406372070312,787.7289428710938,786.5201416015625
284,783.2966918945312,784.1025390625,788.937744140625,785.7142944335938
285,783.6996459960938,788.937744140625,788.1318969726562,780.879150390625
286,787.7289428710938,793.7728881835938,786.5201416015625,777.2527465820312
287,790.5494384765625,795.3846435546875,787.7289428710938,778.8644409179688
288,794.5787353515625,797.3992919921875,790.1465454101562,782.893798828125
289,789.3406372070312,793.3699340820312,790.1465454101562,782.087890625
290,786.923095703125,790.952392578125,790.5494384765625,786.923095703125
291,793.3699340820312,794.1758422851562,794.1758422851562,786.923095703125
292,796.996337890625,792.5640869140625,793.3699340820312,788.1318969726562
293,796.996337890625,793.7728881835938,793.3699340820312,792.5640869140625
294,798.6080322265625,794.5787353515625,793.3699340820312,794.981689453125
295,800.2197875976562,797.3992919921875,793.3699340820312,790.1465454101562
296,794.5787353515625,798.6080322265625,798.2051391601562,790.952392578125
297,797.3992919921875,796.996337890625,795.3846435546875,793.7728881835938
298,796.1904907226562,794.981689453125,792.5640869140625,782.4908447265625
299,789.7435913085938,797.3992919921875,794.5787353515625,783.6996459960938
300,792.967041015625,800.2197875976562,797.3992919921875,791.7582397460938
301,797.3992919921875,797.3992919921875,797.3992919921875,796.1904907226562
302,799.8168334960938,795.3846435546875,796.1904907226562,801.025634765625
303,804.2490844726562,801.8314819335938,798.2051391601562,803.4432373046875
304,799.8168334960938,801.025634765625,798.2051391601562,798.6080322265625
305,787.7289428710938,799.4139404296875,796.1904907226562,788.5347900390625
306,790.952392578125,801.4285888671875,791.7582397460938,787.7289428710938
307,794.981689453125,798.6080322265625,794.1758422851562,787.3259887695312
308,788.5347900390625,796.1904907226562,796.5933837890625,785.7142944335938
309,788.1318969726562,799.4139404296875,792.1611938476562,786.5201416015625
310,790.1465454101562,799.8168334960938,795.3846435546875,782.4908447265625
311,790.5494384765625,794.981689453125,797.3992919921875,782.4908447265625
312,790.952392578125,790.5494384765625,792.5640869140625,786.923095703125
313,790.952392578125,792.5640869140625,788.1318969726562,786.5201416015625
314,794.1758422851562,792.967041015625,788.937744140625,784.1025390625
315,795.3846435546875,793.3699340820312,791.7582397460938,785.3113403320312
316,800.2197875976562,795.7875366210938,793.3699340820312,789.3406372070312
317,802.2344360351562,799.010986328125,792.5640869140625,791.7582397460938
318,800.6226806640625,799.010986328125,788.937744140625,787.3259887695312
319,801.025634765625,795.3846435546875,789.7435913085938,788.5347900390625
320,800.2197875976562,792.5640869140625,792.5640869140625,793.7728881835938
321,794.981689453125,794.981689453125,793.3699340820312,790.5494384765625
322,796.996337890625,796.996337890625,792.967041015625,786.5201416015625
323,804.6520385742188,799.010986328125,792.5640869140625,791.3552856445312
324,802.6373901367188,798.2051391601562,790.5494384765625,785.7142944335938
325,802.6373901367188,796.996337890625,792.1611938476562,784.1025390625
326,802.6373901367188,798.6080322265625,792.1611938476562,790.5494384765625
327,796.996337890625,799.4139404296875,790.1465454101562,794.1758422851562
328,799.4139404296875,802.2344360351562,787.3259887695312,795.3846435546875
329,800.6226806640625,803.8461303710938,787.7289428710938,795.7875366210938
330,793.3699340820312,795.7875366210938,789.3406372070312,794.1758422851562
331,784.1025390625,792.5640869140625,789.3406372070312,793.7728881835938
332,783.6996459960938,793.3699340820312,792.1611938476562,788.937744140625
333,788.5347900390625,792.1611938476562,790.1465454101562,782.893798828125
334,790.952392578125,789.7435913085938,789.3406372070312,785.7142944335938
335,787.3259887695312,790.1465454101562,793.3699340820312,791.7582397460938
336,782.4908447265625,790.1465454101562,793.3699340820312,788.1318969726562
337,784.5054931640625,788.1318969726562,788.5347900390625,778.8644409179688
338,792.5640869140625,793.7728881835938,789.3406372070312,784.908447265625
339,793.3699340820312,795.3846435546875,791.3552856445312,790.1465454101562
340,793.7728881835938,793.7728881835938,789.7435913085938,786.923095703125
341,792.967041015625,794.981689453125,790.952392578125,783.6996459960938
342,792.5640869140625,795.7875366210938,790.5494384765625,786.1171875
343,801.025634765625,799.010986328125,792.967041015625,792.1611938476562
344,805.8607788085938,799.010986328125,794.5787353515625,792.1611938476562
345,798.2051391601562,796.1904907226562,790.952392578125,786.5201416015625
346,800.2197875976562,794.5787353515625,790.952392578125,792.1611938476562
347,799.8168334960938,795.3846435546875,797.3992919921875,795.3846435546875
348,794.5787353515625,800.2197875976562,799.4139404296875,791.7582397460938
349,790.952392578125,798.2051391601562,796.5933837890625,793.3699340820312
350,790.5494384765625,799.8168334960938,798.2051391601562,795.7875366210938
351,790.952392578125,802.2344360351562,797.8021850585938,788.5347900390625
352,792.967041015625,796.996337890625,798.2051391601562,791.7582397460938
353,795.3846435546875,794.981689453125,795.7875366210938,797.3992919921875
354,800.6226806640625,795.7875366210938,795.3846435546875,794.1758422851562
355,796.1904907226562,795.7875366210938,796.996337890625,789.3406372070312
356,784.5054931640625,792.1611938476562,792.5640869140625,788.1318969726562
357,787.3259887695312,790.5494384765625,792.1611938476562,790.1465454101562
358,791.7582397460938,788.5347900390625,795.7875366210938,790.1465454101562
359,792.1611938476562,792.5640869140625,796.996337890625,788.937744140625
360,790.5494384765625,794.5787353515625,794.1758422851562,782.087890625
361,788.1318969726562,790.952392578125,792.1611938476562,776.0439453125
362,778.8644409179688,788.937744140625,790.5494384765625,777.6557006835938
363,782.4908447265625,787.3259887695312,792.1611938476562,781.2820434570312
364,791.3552856445312,791.7582397460938,796.1904907226562,777.6557006835938
365,788.937744140625,794.5787353515625,801.025634765625,782.087890625
366,784.5054931640625,791.3552856445312,803.4432373046875,787.3259887695312
367,789.3406372070312,791.7582397460938,799.8168334960938,784.908447265625
368,780.879150390625,786.923095703125,799.010986328125,782.087890625
369,776.4468994140625,784.5054931640625,796.5933837890625,782.893798828125
370,783.6996459960938,792.1611938476562,796.1904907226562,789.7435913085938
371,777.2527465820312,789.7435913085938,797.3992919921875,774.4322509765625
372,776.0439453125,788.937744140625,796.1904907226562,769.1941528320312
373,784.908447265625,792.967041015625,796.996337890625,780.4761962890625
374,791.7582397460938,794.1758422851562,792.1611938476562,782.4908447265625
375,782.893798828125,786.1171875,788.5347900390625,779.2673950195312
376,785.7142944335938,782.4908447265625,788.5347900390625,779.2673950195312
377,792.5640869140625,791.7582397460938,790.952392578125,782.893798828125
378,788.5347900390625,790.952392578125,794.1758422851562,785.7142944335938
379,792.5640869140625,783.6996459960938,789.3406372070312,784.1025390625
380,790.952392578125,783.2966918945312,787.7289428710938,779.2673950195312
381,788.5347900390625,789.3406372070312,792.967041015625,785.3113403320312
382,788.1318969726562,792.5640869140625,799.8168334960938,779.6703491210938
383,785.7142944335938,791.7582397460938,801.025634765625,778.05859375
384,791.7582397460938,794.5787353515625,800.6226806640625,791.7582397460938
385,793.7728881835938,795.3846435546875,805.8607788085938,795.3846435546875
386,798.6080322265625,794.981689453125,808.2783813476562,794.1758422851562
387,794.5787353515625,792.967041015625,801.4285888671875,788.937744140625
388,791.3552856445312,789.3406372070312,796.5933837890625,788.937744140625
389,793.3699340820312,786.5201416015625,796.996337890625,788.937744140625
390,785.7142944335938,785.3113403320312,792.967041015625,783.6996459960938
391,780.879150390625,784.908447265625,792.1611938476562,779.2673950195312
392,781.2820434570312,790.1465454101562,796.1904907226562,788.937744140625
393,784.908447265625,795.7875366210938,795.3846435546875,796.1904907226562
394,786.5201416015625,790.5494384765625,792.967041015625,792.5640869140625
395,780.0732421875,786.5201416015625,792.5640869140625,788.1318969726562
396,776.8497924804688,788.5347900390625,789.7435913085938,784.908447265625
397,778.05859375,790.1465454101562,789.3406372070312,784.5054931640625
398,784.1025390625,784.908447265625,790.1465454101562,780.879150390625
399,786.5201416015625,784.5054931640625,786.1171875,782.893798828125
400,790.5494384765625,791.7582397460938,789.3406372070312,789.3406372070312
401,788.937744140625,791.3552856445312,793.7728881835938,789.3406372070312
402,790.952392578125,790.1465454101562,790.1465454101562,790.952392578125
403,799.8168334960938,788.937744140625,790.1465454101562,796.996337890625
404,799.8168334960938,789.3406372070312,799.4139404296875,805.8607788085938
405,788.1318969726562,792.967041015625,800.6226806640625,793.7728881835938
406,787.7289428710938,792.1611938476562,794.981689453125,784.908447265625
407,798.2051391601562,789.7435913085938,797.3992919921875,794.981689453125
408,801.4285888671875,792.5640869140625,798.2051391601562,804.6520385742188
409,802.6373901367188,788.5347900390625,801.025634765625,805.054931640625
410,805.8607788085938,789.3406372070312,799.8168334960938,801.8314819335938
411,806.2637329101562,795.3846435546875,796.996337890625,801.8314819335938
412,796.5933837890625,789.7435913085938,793.7728881835938,790.952392578125
413,788.5347900390625,784.1025390625,789.7435913085938,783.6996459960938
414,792.1611938476562,785.7142944335938,795.3846435546875,791.3552856445312
415,796.1904907226562,791.3552856445312,798.6080322265625,794.981689453125
416,792.5640869140625,792.967041015625,794.981689453125,789.3406372070312
417,798.2051391601562,795.7875366210938,794.981689453125,785.3113403320312
418,803.8461303710938,798.6080322265625,800.6226806640625,791.3552856445312
419,793.3699340820312,790.1465454101562,800.2197875976562,793.7728881835938
420,790.952392578125,786.5201416015625,802.2344360351562,788.5347900390625
421,790.952392578125,789.3406372070312,803.4432373046875,783.2966918945312
422,783.2966918945312,787.7289428710938,800.2197875976562,780.0732421875
423,787.3259887695312,790.1465454101562,799.8168334960938,784.5054931640625
424,792.1611938476562,794.5787353515625,800.2197875976562,781.6849975585938
425,791.7582397460938,788.1318969726562,798.2051391601562,780.4761962890625
426,798.2051391601562,784.5054931640625,799.010986328125,788.937744140625
427,796.5933837890625,790.952392578125,799.4139404296875,799.8168334960938
428,792.5640869140625,793.3699340820312,794.1758422851562,799.4139404296875
429,790.1465454101562,786.5201416015625,787.7289428710938,790.952392578125
430,796.996337890625,784.1025390625,787.7289428710938,791.7582397460938
431,801.025634765625,787.7289428710938,790.952392578125,798.6080322265625
432,796.1904907226562,791.3552856445312,789.7435913085938,794.981689453125
433,796.1904907226562,790.1465454101562,792.5640869140625,790.5494384765625
434,797.8021850585938,786.923095703125,792.967041015625,793.3699340820312
435,794.5787353515625,785.3113403320312,797.3992919921875,800.6226806640625
436,790.952392578125,784.5054931640625,801.4285888671875,797.3992919921875
437,792.967041015625,782.893798828125,794.981689453125,790.952392578125
438,793.3699340820312,782.087890625,792.5640869140625,790.5494384765625
439,792.5640869140625,781.2820434570312,795.3846435546875,794.5787353515625
440,796.1904907226562,784.1025390625,792.967041015625,792.1611938476562
441,796.5933837890625,785.7142944335938,788.937744140625,786.1171875
442,792.1611938476562,785.3113403320312,788.5347900390625,788.5347900390625
443,795.3846435546875,786.1171875,792.5640869140625,788.5347900390625
444,791.7582397460938,787.3259887695312,793.3699340820312,787.3259887695312
445,792.1611938476562,786.1171875,793.3699340820312,792.967041015625
446,801.025634765625,786.1171875,792.967041015625,794.5787353515625
447,792.1611938476562,784.1025390625,790.952392578125,789.3406372070312
448,783.6996459960938,785.3113403320312,790.1465454101562,788.1318969726562
449,790.1465454101562,791.7582397460938,788.937744140625,790.952392578125
450,794.5787353515625,790.952392578125,796.1904907226562,797.3992919921875
451,791.3552856445312,786.5201416015625,798.2051391601562,795.3846435546875
452,791.3552856445312,782.893798828125,791.7582397460938,779.6703491210938
453,787.7289428710938,782.893798828125,788.5347900390625,777.2527465820312
454,780.4761962890625,786.5201416015625,788.1318969726562,782.087890625
455,784.1025390625,784.5054931640625,785.7142944335938,780.4761962890625
456,786.923095703125,784.5054931640625,787.3259887695312,777.6557006835938
457,786.5201416015625,786.5201416015625,793.7728881835938,776.4468994140625
458,786.5201416015625,784.908447265625,795.7875366210938,776.0439453125
459,788.1318969726562,786.923095703125,796.1904907226562,775.2380981445312
460,792.967041015625,786.923095703125,793.3699340820312,777.2527465820312
461,793.7728881835938,784.908447265625,788.5347900390625,774.8351440429688
462,791.3552856445312,784.5054931640625,786.5201416015625,772.0146484375
463,786.923095703125,784.908447265625,786.5201416015625,772.0146484375
464,785.7142944335938,787.3259887695312,789.3406372070312,771.6116943359375
465,790.1465454101562,785.3113403320312,792.967041015625,782.087890625
466,786.1171875,780.879150390625,792.967041015625,786.5201416015625
467,781.2820434570312,781.6849975585938,789.3406372070312,776.8497924804688
468,780.0732421875,782.4908447265625,788.1318969726562,778.05859375
469,780.4761962890625,783.6996459960938,790.1465454101562,780.0732421875
470,787.7289428710938,789.3406372070312,792.5640869140625,774.4322509765625
471,791.7582397460938,788.5347900390625,790.952392578125,781.6849975585938
472,787.3259887695312,786.5201416015625,784.908447265625,783.6996459960938
473,784.908447265625,790.952392578125,787.7289428710938,783.2966918945312
474,783.6996459960938,796.5933837890625,794.5787353515625,790.1465454101562
475,782.087890625,793.7728881835938,791.7582397460938,788.1318969726562
476,790.1465454101562,789.3406372070312,794.1758422851562,789.3406372070312
477,796.1904907226562,796.1904907226562,796.1904907226562,788.1318969726562
478,788.5347900390625,798.2051391601562,793.7728881835938,783.6996459960938
479,789.3406372070312,794.5787353515625,794.5787353515625,781.6849975585938
480,789.7435913085938,790.952392578125,794.1758422851562,779.6703491210938
481,786.923095703125,787.7289428710938,794.5787353515625,781.6849975585938
482,791.7582397460938,792.1611938476562,794.5787353515625,788.5347900390625
483,799.010986328125,796.5933837890625,796.996337890625,792.967041015625
484,795.3846435546875,793.3699340820312,797.8021850585938,793.7728881835938
485,789.7435913085938,788.937744140625,793.3699340820312,790.5494384765625
486,792.1611938476562,791.7582397460938,790.5494384765625,783.6996459960938
487,792.1611938476562,792.1611938476562,791.7582397460938,781.6849975585938
488,792.967041015625,790.1465454101562,791.7582397460938,785.7142944335938
489,782.087890625,789.3406372070312,789.3406372070312,783.2966918945312
490,779.6703491210938,785.7142944335938,791.7582397460938,775.6410522460938
491,792.1611938476562,784.1025390625,790.5494384765625,779.2673950195312
492,794.5787353515625,784.908447265625,790.952392578125,787.7289428710938
493,792.1611938476562,784.5054931640625,795.3846435546875,791.7582397460938
494,788.1318969726562,785.3113403320312,799.4139404296875,794.981689453125
495,785.3113403320312,785.7142944335938,797.8021850585938,785.3113403320312
496,792.967041015625,785.3113403320312,798.6080322265625,782.087890625
497,785.7142944335938,783.2966918945312,800.2197875976562,785.3113403320312
498,776.8497924804688,782.893798828125,795.7875366210938,778.8644409179688
499,780.879150390625,786.5201416015625,795.7875366210938,784.1025390625
500,780.879150390625,788.1318969726562,797.8021850585938,792.5640869140625
501,779.2673950195312,787.7289428710938,800.6226806640625,783.2966918945312
502,781.2820434570312,788.1318969726562,796.5933837890625,778.05859375
503,786.5201416015625,794.981689453125,792.967041015625,780.4761962890625
504,789.3406372070312,795.7875366210938,793.7728881835938,780.4761962890625
505,788.5347900390625,796.996337890625,791.7582397460938,783.6996459960938
506,791.7582397460938,796.1904907226562,792.5640869140625,784.5054931640625
507,801.8314819335938,792.1611938476562,793.7728881835938,790.952392578125
508,803.8461303710938,790.1465454101562,792.967041015625,793.3699340820312
509,798.6080322265625,794.981689453125,794.5787353515625,790.5494384765625
510,799.8168334960938,795.7875366210938,792.5640869140625,789.7435913085938
511,805.8607788085938,793.3699340820312,788.937744140625,794.1758422851562
512,805.8607788085938,794.1758422851562,789.3406372070312,796.1904907226562
513,801.025634765625,791.7582397460938,786.923095703125,786.1171875
514,801.4285888671875,792.1611938476562,787.3259887695312,786.1171875
515,806.2637329101562,796.5933837890625,790.5494384765625,790.952392578125
516,801.8314819335938,796.1904907226562,790.5494384765625,792.1611938476562
517,796.1904907226562,792.967041015625,788.5347900390625,791.7582397460938
518,799.8168334960938,791.3552856445312,790.5494384765625,796.996337890625
519,805.054931640625,795.7875366210938,794.981689453125,800.6226806640625
520,793.7728881835938,794.981689453125,793.7728881835938,796.1904907226562
521,788.5347900390625,794.1758422851562,792.5640869140625,792.967041015625
522,794.1758422851562,796.5933837890625,794.1758422851562,789.3406372070312
523,794.5787353515625,789.3406372070312,789.3406372070312,790.952392578125
524,790.5494384765625,790.5494384765625,786.1171875,786.5201416015625
525,786.1171875,788.937744140625,786.5201416015625,777.2527465820312
526,788.5347900390625,784.5054931640625,787.7289428710938,781.6849975585938
527,793.3699340820312,790.1465454101562,789.3406372070312,780.879150390625
528,791.3552856445312,792.5640869140625,790.952392578125,774.8351440429688
529,796.1904907226562,795.7875366210938,787.3259887695312,781.6849975585938
530,788.5347900390625,788.937744140625,785.3113403320312,777.6557006835938
531,781.6849975585938,784.5054931640625,786.1171875,777.6557006835938
532,787.3259887695312,786.1171875,787.3259887695312,777.6557006835938
533,789.3406372070312,789.7435913085938,792.5640869140625,778.4615478515625
534,784.1025390625,790.5494384765625,795.3846435546875,782.087890625
535,786.923095703125,790.5494384765625,792.967041015625,782.4908447265625
536,793.7728881835938,793.3699340820312,795.3846435546875,789.3406372070312
537,788.5347900390625,788.5347900390625,791.7582397460938,790.5494384765625
538,794.5787353515625,789.7435913085938,790.1465454101562,792.1611938476562
539,795.3846435546875,793.3699340820312,799.4139404296875,787.7289428710938
540,794.5787353515625,791.7582397460938,799.8168334960938,788.937744140625
541,798.6080322265625,786.923095703125,800.2197875976562,790.952392578125
542,798.6080322265625,787.7289428710938,799.010986328125,784.5054931640625
543,799.4139404296875,788.937744140625,799.4139404296875,787.3259887695312
544,802.6373901367188,788.937744140625,800.6226806640625,792.1611938476562
545,798.2051391601562,790.952392578125,799.010986328125,794.5787353515625
546,792.967041015625,792.5640869140625,799.010986328125,796.996337890625
547,790.5494384765625,793.3699340820312,797.3992919921875,793.7728881835938
548,790.952392578125,790.5494384765625,793.7728881835938,789.7435913085938
549,792.1611938476562,792.5640869140625,794.981689453125,792.967041015625
550,792.1611938476562,794.1758422851562,796.5933837890625,792.967041015625
551,792.1611938476562,792.1611938476562,792.1611938476562,787.7289428710938
552,790.5494384765625,793.3699340820312,788.937744140625,788.937744140625
553,788.1318969726562,793.3699340820312,788.5347900390625,793.7728881835938
554,785.3113403320312,790.952392578125,787.3259887695312,792.5640869140625
555,781.6849975585938,790.952392578125,788.937744140625,791.3552856445312
556,784.5054931640625,789.7435913085938,788.937744140625,792.967041015625
557,788.937744140625,786.923095703125,789.7435913085938,797.3992919921875
558,791.3552856445312,788.5347900390625,784.908447265625,791.7582397460938
559,791.3552856445312,788.5347900390625,784.1025390625,786.1171875
560,796.996337890625,790.1465454101562,789.3406372070312,792.967041015625
561,797.8021850585938,794.5787353515625,794.981689453125,794.981689453125
562,793.3699340820312,790.1465454101562,792.1611938476562,783.6996459960938
563,795.7875366210938,786.5201416015625,790.5494384765625,782.087890625
564,796.5933837890625,792.1611938476562,792.5640869140625,787.7289428710938
565,799.8168334960938,790.1465454101562,792.5640869140625,789.7435913085938
566,798.2051391601562,788.937744140625,794.981689453125,786.5201416015625
567,793.3699340820312,788.5347900390625,794.1758422851562,785.7142944335938
568,793.3699340820312,792.967041015625,795.3846435546875,788.5347900390625
569,786.923095703125,793.3699340820312,794.5787353515625,791.7582397460938
570,785.7142944335938,788.5347900390625,792.967041015625,790.1465454101562
571,792.1611938476562,792.967041015625,790.952392578125,786.1171875
572,797.8021850585938,796.996337890625,791.7582397460938,791.3552856445312
573,797.3992919921875,796.1904907226562,793.7728881835938,793.3699340820312
574,798.2051391601562,796.1904907226562,794.1758422851562,790.1465454101562
575,796.5933837890625,797.8021850585938,791.3552856445312,787.7289428710938
576,794.981689453125,797.3992919921875,790.1465454101562,793.7728881835938
577,796.5933837890625,796.996337890625,791.7582397460938,792.5640869140625
578,801.8314819335938,797.8021850585938,788.937744140625,789.7435913085938
579,801.8314819335938,796.5933837890625,788.5347900390625,792.5640869140625
580,789.7435913085938,796.996337890625,792.1611938476562,794.5787353515625
581,780.4761962890625,796.996337890625,796.1904907226562,791.7582397460938
582,788.5347900390625,796.5933837890625,797.8021850585938,793.3699340820312
583,795.3846435546875,799.4139404296875,792.967041015625,799.010986328125
584,790.5494384765625,795.3846435546875,795.7875366210938,801.4285888671875
585,791.3552856445312,791.7582397460938,798.2051391601562,799.010986328125
586,795.3846435546875,797.8021850585938,797.3992919921875,795.7875366210938
587,795.3846435546875,800.2197875976562,795.7875366210938,794.981689453125
588,794.981689453125,795.3846435546875,792.967041015625,793.7728881835938
589,796.5933837890625,792.967041015625,792.5640869140625,793.7728881835938
590,791.3552856445312,794.1758422851562,791.3552856445312,792.967041015625
591,788.1318969726562,794.1758422851562,790.952392578125,790.952392578125
592,787.3259887695312,790.5494384765625,787.7289428710938,784.908447265625
593,786.5201416015625,788.937744140625,786.1171875,783.6996459960938
594,786.5201416015625,791.3552856445312,790.952392578125,787.7289428710938
595,784.1025390625,793.3699340820312,792.5640869140625,788.937744140625
596,779.6703491210938,791.7582397460938,788.937744140625,780.879150390625
597,784.908447265625,793.7728881835938,786.5201416015625,780.879150390625
598,793.7728881835938,794.981689453125,785.7142944335938,786.1171875
599,794.981689453125,788.1318969726562,789.3406372070312,781.2820434570312
600,794.5787353515625,786.5201416015625,792.1611938476562,784.908447265625
601,788.5347900390625,787.3259887695312,794.1758422851562,794.1758422851562
602,792.1611938476562,789.7435913085938,794.5787353515625,792.5640869140625
603,792.1611938476562,792.5640869140625,797.3992919921875,791.3552856445312
604,784.1025390625,792.967041015625,795.7875366210938,788.5347900390625
605,785.7142944335938,794.5787353515625,794.1758422851562,786.1171875
606,783.2966918945312,794.981689453125,790.1465454101562,794.981689453125
607,784.1025390625,794.5787353515625,786.1171875,803.4432373046875
608,793.3699340820312,796.5933837890625,787.7289428710938,796.5933837890625
609,792.967041015625,798.6080322265625,792.967041015625,794.5787353515625
610,792.5640869140625,797.3992919921875,792.967041015625,792.5640869140625
611,792.1611938476562,796.996337890625,790.952392578125,785.3113403320312
612,789.3406372070312,795.3846435546875,792.967041015625,782.4908447265625
613,798.6080322265625,799.010986328125,799.4139404296875,782.087890625
614,799.4139404296875,801.8314819335938,799.4139404296875,783.6996459960938
615,792.5640869140625,800.2197875976562,794.1758422851562,783.2966918945312
616,791.7582397460938,799.8168334960938,797.3992919921875,778.05859375
617,790.952392578125,796.1904907226562,796.5933837890625,781.6849975585938
618,790.5494384765625,794.1758422851562,792.1611938476562,784.908447265625
619,797.3992919921875,796.996337890625,793.3699340820312,784.908447265625
620,794.981689453125,795.3846435546875,792.967041015625,776.0439453125
621,792.5640869140625,793.7728881835938,791.3552856445312,778.4615478515625
622,798.6080322265625,790.1465454101562,790.1465454101562,790.5494384765625
623,801.025634765625,784.908447265625,796.1904907226562,794.5787353515625
624,803.8461303710938,788.1318969726562,799.8168334960938,799.4139404296875
625,800.6226806640625,791.7582397460938,794.5787353515625,792.5640869140625
626,797.3992919921875,794.981689453125,789.3406372070312,786.1171875
627,795.7875366210938,792.967041015625,792.1611938476562,785.3113403320312
628,796.5933837890625,786.5201416015625,795.3846435546875,789.7435913085938
629,796.5933837890625,789.7435913085938,794.1758422851562,787.3259887695312
630,799.4139404296875,797.8021850585938,794.5787353515625,789.3406372070312
631,804.2490844726562,794.981689453125,798.2051391601562,790.5494384765625
632,796.996337890625,792.967041015625,796.996337890625,788.1318969726562
633,784.908447265625,792.967041015625,796.1904907226562,786.923095703125
634,786.1171875,791.7582397460938,797.8021850585938,786.1171875
635,793.7728881835938,789.7435913085938,794.5787353515625,787.7289428710938
636,793.7728881835938,786.923095703125,788.1318969726562,786.1171875
637,784.1025390625,784.908447265625,787.7289428710938,780.879150390625
638,785.3113403320312,780.4761962890625,791.7582397460938,775.6410522460938
639,792.1611938476562,782.893798828125,795.3846435546875,774.029296875
640,790.1465454101562,788.937744140625,794.5787353515625,781.2820434570312
641,778.4615478515625,786.5201416015625,796.996337890625,780.0732421875
642,775.2380981445312,787.7289428710938,796.996337890625,778.4615478515625
643,778.4615478515625,786.5201416015625,792.1611938476562,779.6703491210938
644,783.2966918945312,784.1025390625,794.1758422851562,780.879150390625
645,787.7289428710938,784.908447265625,790.952392578125,784.908447265625
646,782.893798828125,788.1318969726562,786.923095703125,778.8644409179688
647,777.2527465820312,785.7142944335938,787.3259887695312,777.6557006835938
648,780.4761962890625,784.908447265625,791.3552856445312,791.3552856445312
649,793.7728881835938,792.1611938476562,797.3992919921875,799.010986328125
650,794.5787353515625,789.7435913085938,794.981689453125,790.5494384765625
651,794.981689453125,792.1611938476562,792.5640869140625,792.967041015625
652,801.025634765625,796.1904907226562,798.2051391601562,798.6080322265625
653,801.8314819335938,793.3699340820312,799.8168334960938,800.6226806640625
654,800.6226806640625,790.952392578125,799.8168334960938,802.6373901367188
655,795.3846435546875,791.7582397460938,793.7728881835938,796.996337890625
656,799.010986328125,792.967041015625,790.1465454101562,801.4285888671875
657,801.8314819335938,791.3552856445312,796.1904907226562,800.2197875976562
658,797.3992919921875,792.1611938476562,793.7728881835938,785.7142944335938
659,801.8314819335938,790.952392578125,795.3846435546875,786.923095703125
660,800.2197875976562,789.7435913085938,798.2051391601562,787.7289428710938
661,793.7728881835938,790.952392578125,795.7875366210938,781.6849975585938
662,791.3552856445312,793.7728881835938,796.996337890625,784.1025390625
663,785.7142944335938,792.5640869140625,799.8168334960938,784.908447265625
664,790.1465454101562,794.981689453125,799.8168334960938,790.1465454101562
665,789.3406372070312,796.1904907226562,793.3699340820312,787.7289428710938
666,789.7435913085938,793.3699340820312,794.1758422851562,782.087890625
667,787.3259887695312,792.5640869140625,796.996337890625,783.2966918945312
668,789.7435913085938,790.5494384765625,796.1904907226562,788.1318969726562
669,791.3552856445312,785.7142944335938,795.7875366210938,779.6703491210938
670,792.967041015625,786.923095703125,795.7875366210938,778.05859375
671,794.981689453125,791.3552856445312,796.996337890625,784.908447265625
672,788.937744140625,793.3699340820312,798.2051391601562,784.1025390625
673,790.952392578125,793.7728881835938,799.8168334960938,786.923095703125
674,799.8168334960938,792.5640869140625,802.6373901367188,789.3406372070312
675,800.2197875976562,793.3699340820312,802.6373901367188,790.952392578125
676,794.981689453125,794.5787353515625,803.4432373046875,795.3846435546875
677,792.5640869140625,797.8021850585938,805.054931640625,796.996337890625
678,794.5787353515625,793.3699340820312,800.2197875976562,795.7875366210938
679,792.967041015625,790.952392578125,796.996337890625,795.3846435546875
680,792.5640869140625,793.3699340820312,798.2051391601562,790.1465454101562
681,796.5933837890625,793.7728881835938,800.6226806640625,788.1318969726562
682,792.5640869140625,795.3846435546875,803.8461303710938,792.967041015625
683,789.7435913085938,793.3699340820312,801.025634765625,791.7582397460938
684,787.7289428710938,788.937744140625,794.5787353515625,789.7435913085938
685,788.937744140625,788.5347900390625,794.1758422851562,790.952392578125
686,796.1904907226562,792.967041015625,791.7582397460938,792.967041015625
687,794.981689453125,791.7582397460938,791.7582397460938,789.3406372070312
688,791.3552856445312,789.7435913085938,793.7728881835938,789.3406372070312
689,792.967041015625,795.3846435546875,794.1758422851562,791.3552856445312
690,797.8021850585938,796.5933837890625,792.1611938476562,786.5201416015625
691,800.2197875976562,793.3699340820312,790.952392578125,784.1025390625
692,811.5018310546875,800.2197875976562,796.5933837890625,784.908447265625
693,805.8607788085938,800.2197875976562,796.1904907226562,783.2966918945312
694,788.937744140625,798.2051391601562,786.5201416015625,779.2673950195312
695,788.937744140625,796.1904907226562,783.6996459960938,784.1025390625
696,792.1611938476562,791.7582397460938,789.3406372070312,784.1025390625
697,794.981689453125,791.7582397460938,789.7435913085938,777.6557006835938
698,791.7582397460938,790.952392578125,783.6996459960938,776.4468994140625
699,790.1465454101562,792.5640869140625,784.5054931640625,782.087890625
700,796.5933837890625,796.996337890625,790.1465454101562,792.5640869140625
701,804.2490844726562,796.996337890625,788.5347900390625,786.923095703125
702,802.6373901367188,790.952392578125,788.5347900390625,784.908447265625
703,799.4139404296875,793.7728881835938,795.3846435546875,794.981689453125
704,797.3992919921875,792.967041015625,797.3992919921875,790.5494384765625
705,796.1904907226562,788.5347900390625,796.1904907226562,784.5054931640625
706,794.981689453125,788.1318969726562,794.981689453125,789.3406372070312
707,793.3699340820312,788.5347900390625,792.967041015625,789.7435913085938
708,792.5640869140625,791.7582397460938,792.967041015625,784.908447265625
709,796.1904907226562,792.967041015625,791.7582397460938,783.6996459960938
710,792.1611938476562,788.5347900390625,792.1611938476562,783.2966918945312
711,788.1318969726562,786.5201416015625,788.5347900390625,782.087890625
712,790.1465454101562,784.1025390625,786.5201416015625,782.893798828125
713,778.8644409179688,783.2966918945312,788.1318969726562,785.7142944335938
714,780.4761962890625,785.7142944335938,788.5347900390625,794.1758422851562
715,790.952392578125,787.7289428710938,791.3552856445312,785.3113403320312
716,787.3259887695312,788.5347900390625,796.1904907226562,779.6703491210938
717,792.5640869140625,793.3699340820312,797.8021850585938,791.3552856445312
718,794.5787353515625,795.7875366210938,791.7582397460938,791.7582397460938
719,791.7582397460938,798.6080322265625,798.2051391601562,788.1318969726562
720,790.1465454101562,797.3992919921875,799.4139404296875,784.1025390625
721,777.6557006835938,782.893798828125,793.3699340820312,773.2234497070312
722,772.4176025390625,783.2966918945312,802.6373901367188,771.6116943359375
723,765.1648559570312,788.5347900390625,803.040283203125,762.7472534179688
724,745.4212646484375,784.1025390625,793.3699340820312,742.6007080078125
725,744.2124633789062,785.7142944335938,801.025634765625,743.003662109375
726,750.6593627929688,794.981689453125,816.3369750976562,744.6153564453125
727,734.945068359375,800.2197875976562,826.8131713867188,726.4835205078125
728,707.5457763671875,788.1318969726562,824.3956298828125,692.6373901367188
729,680.952392578125,780.0732421875,828.8278198242188,682.1611938476562
730,659.5970458984375,785.7142944335938,843.3333129882812,672.087890625
731,650.3296508789062,785.3113403320312,851.7948608398438,650.3296508789062
732,636.2271118164062,781.6849975585938,850.5860595703125,636.6300659179688
733,613.6630249023438,791.7582397460938,853.003662109375,620.915771484375
734,592.3076782226562,796.996337890625,859.047607421875,608.02197265625
735,594.7252807617188,789.3406372070312,864.2857055664062,613.2600708007812
736,602.3809814453125,785.7142944335938,859.4505615234375,614.8717651367188
737,604.3956298828125,792.967041015625,852.6007080078125,616.4835205078125
738,602.3809814453125,798.2051391601562,853.8095092773438,614.8717651367188
739,596.3369750976562,801.4285888671875,853.003662109375,614.8717651367188
740,610.03662109375,803.040283203125,854.6153564453125,631.3919677734375
741,632.1978149414062,799.4139404296875,855.018310546875,654.7619018554688
742,645.091552734375,799.8168334960938,853.4066162109375,666.8497924804688
743,657.1795043945312,799.8168334960938,847.7655639648438,672.087890625
744,673.6996459960938,800.6226806640625,841.7216186523438,678.1318969726562
745,682.967041015625,798.6080322265625,845.7509155273438,686.996337890625
746,697.87548828125,799.4139404296875,842.12451171875,699.4871826171875
747,713.5897216796875,803.8461303710938,833.2600708007812,716.8131713867188
748,719.6337280273438,799.8168334960938,824.7985229492188,726.08056640625
749,730.5128173828125,793.3699340820312,822.3809814453125,736.5567626953125
750,743.003662109375,797.8021850585938,821.1721801757812,750.6593627929688
751,757.912109375,804.6520385742188,813.91943359375,763.5531005859375
752,765.1648559570312,801.4285888671875,813.5164794921875,773.2234497070312
753,772.4176025390625,800.2197875976562,809.084228515625,784.908447265625
754,782.893798828125,801.025634765625,797.8021850585938,791.3552856445312
755,789.7435913085938,794.1758422851562,792.5640869140625,793.7728881835938
756,805.8607788085938,788.937744140625,784.5054931640625,799.010986328125
757,805.8607788085938,790.952392578125,777.2527465820312,797.8021850585938
758,798.2051391601562,789.3406372070312,776.4468994140625,797.8021850585938
759,805.4578857421875,790.5494384765625,776.8497924804688,804.2490844726562
760,811.5018310546875,788.1318969726562,772.8204956054688,808.2783813476562
761,815.93408203125,781.6849975585938,769.1941528320312,813.91943359375
762,825.2014770507812,787.3259887695312,768.7911987304688,822.3809814453125
763,827.6190185546875,789.3406372070312,766.3735961914062,826.4102783203125
764,829.6337280273438,783.6996459960938,763.1502075195312,829.2307739257812
765,834.8717651367188,784.908447265625,762.7472534179688,828.4249267578125
766,842.930419921875,789.7435913085938,760.7326049804688,831.6483764648438
767,844.5421142578125,790.5494384765625,756.3003540039062,830.8424682617188
768,848.1685180664062,790.952392578125,757.912109375,835.6776733398438
769,851.3919677734375,791.3552856445312,758.3150024414062,836.4835205078125
770,846.5567626953125,787.3259887695312,755.8974609375,832.8571166992188
771,852.6007080078125,789.7435913085938,758.3150024414062,841.7216186523438
772,857.8388061523438,791.3552856445312,758.7179565429688,849.3773193359375
773,854.2124633789062,788.5347900390625,757.912109375,847.7655639648438
774,853.003662109375,785.7142944335938,758.7179565429688,844.945068359375
775,852.6007080078125,786.1171875,757.106201171875,844.945068359375
776,849.7802124023438,785.7142944335938,758.7179565429688,848.5714111328125
777,853.4066162109375,785.7142944335938,759.9267578125,847.7655639648438
778,851.7948608398438,782.087890625,756.3003540039062,844.1392211914062
779,853.003662109375,783.6996459960938,761.1355590820312,843.7362670898438
780,857.032958984375,786.923095703125,766.3735961914062,840.915771484375
781,846.1538696289062,784.1025390625,764.3589477539062,837.6923217773438
782,840.915771484375,783.2966918945312,763.9560546875,840.915771484375
783,846.5567626953125,783.6996459960938,765.1648559570312,844.945068359375
784,842.12451171875,787.7289428710938,765.5677490234375,840.10986328125
785,836.4835205078125,787.7289428710938,765.5677490234375,839.3040161132812
786,834.4688720703125,786.5201416015625,765.5677490234375,842.5274658203125
787,839.7069702148438,786.1171875,767.1795043945312,845.3479614257812
788,844.1392211914062,787.3259887695312,771.2088012695312,836.886474609375
789,840.10986328125,791.3552856445312,774.4322509765625,834.4688720703125
790,837.2893676757812,792.1611938476562,773.2234497070312,841.7216186523438
791,836.08056640625,794.1758422851562,771.6116943359375,836.08056640625
792,838.901123046875,794.5787353515625,771.6116943359375,828.8278198242188
793,845.3479614257812,796.1904907226562,771.2088012695312,834.4688720703125
794,843.7362670898438,793.3699340820312,772.0146484375,836.4835205078125
795,840.915771484375,796.1904907226562,774.8351440429688,834.8717651367188
796,843.3333129882812,801.025634765625,775.6410522460938,833.2600708007812
797,838.4981689453125,800.6226806640625,776.4468994140625,829.2307739257812
798,833.6630249023438,798.6080322265625,776.0439453125,833.2600708007812
799,834.8717651367188,794.1758422851562,776.0439453125,834.8717651367188
800,832.8571166992188,794.1758422851562,780.0732421875,831.6483764648438
801,828.4249267578125,790.1465454101562,779.2673950195312,829.2307739257812
802,831.2454223632812,790.5494384765625,776.0439453125,826.00732421875
803,832.05126953125,790.5494384765625,775.6410522460938,827.6190185546875
804,829.2307739257812,787.7289428710938,773.6264038085938,824.7985229492188
805,830.4395751953125,788.937744140625,774.4322509765625,815.1282348632812
806,829.2307739257812,788.1318969726562,778.05859375,811.5018310546875
807,823.99267578125,787.7289428710938,779.6703491210938,812.3076782226562
808,825.2014770507812,790.5494384765625,783.2966918945312,815.1282348632812
809,828.4249267578125,790.1465454101562,784.908447265625,813.5164794921875
810,823.5897216796875,788.5347900390625,786.923095703125,815.1282348632812
811,812.7106323242188,789.3406372070312,785.3113403320312,809.084228515625
812,807.87548828125,788.1318969726562,781.6849975585938,801.4285888671875
813,817.1428833007812,784.1025390625,781.2820434570312,801.4285888671875
814,818.7545776367188,786.923095703125,781.6849975585938,803.4432373046875
815,813.91943359375,793.7728881835938,784.1025390625,806.6666870117188
816,815.1282348632812,795.3846435546875,786.5201416015625,805.4578857421875
817,813.5164794921875,792.5640869140625,787.7289428710938,806.2637329101562
818,813.91943359375,789.7435913085938,781.2820434570312,807.4725341796875
819,816.3369750976562,788.937744140625,779.6703491210938,805.8607788085938
820,815.5311279296875,793.3699340820312,784.5054931640625,807.069580078125
821,811.098876953125,795.7875366210938,781.6849975585938,806.6666870117188
822,811.90478515625,798.2051391601562,783.2966918945312,803.8461303710938
823,815.5311279296875,799.4139404296875,783.2966918945312,798.6080322265625
824,813.113525390625,794.981689453125,780.879150390625,799.010986328125
825,810.2930297851562,792.1611938476562,782.087890625,801.4285888671875
826,809.084228515625,790.952392578125,786.1171875,802.6373901367188
827,809.4871826171875,790.952392578125,788.1318969726562,804.2490844726562
828,813.113525390625,793.7728881835938,788.937744140625,807.069580078125
829,816.3369750976562,796.1904907226562,787.7289428710938,809.89013671875
830,815.5311279296875,797.3992919921875,787.7289428710938,808.6813354492188
831,809.084228515625,795.7875366210938,789.3406372070312,799.010986328125
832,809.084228515625,796.1904907226562,787.7289428710938,791.7582397460938
833,814.7252807617188,793.3699340820312,785.7142944335938,795.3846435546875
834,820.7692260742188,795.7875366210938,784.1025390625,802.2344360351562
835,819.5604248046875,799.8168334960938,786.5201416015625,805.4578857421875
836,813.91943359375,794.981689453125,790.5494384765625,798.6080322265625
837,815.1282348632812,797.3992919921875,792.967041015625,800.2197875976562
838,816.3369750976562,796.1904907226562,793.7728881835938,802.6373901367188
839,815.93408203125,796.1904907226562,794.1758422851562,802.6373901367188
840,818.3516235351562,800.2197875976562,798.6080322265625,803.8461303710938
841,817.5457763671875,798.6080322265625,798.2051391601562,800.6226806640625
842,806.6666870117188,796.5933837890625,793.7728881835938,799.4139404296875
843,801.025634765625,796.1904907226562,791.3552856445312,799.4139404296875
844,805.8607788085938,793.3699340820312,794.981689453125,803.040283203125
845,803.4432373046875,790.1465454101562,795.3846435546875,801.8314819335938
846,794.981689453125,788.5347900390625,797.3992919921875,798.2051391601562
847,794.5787353515625,790.1465454101562,797.8021850585938,791.7582397460938
848,794.1758422851562,786.5201416015625,792.1611938476562,790.5494384765625
849,793.3699340820312,788.5347900390625,794.1758422851562,801.8314819335938
850,793.7728881835938,791.7582397460938,794.981689453125,799.8168334960938
851,793.7728881835938,789.3406372070312,792.5640869140625,791.3552856445312
852,793.3699340820312,790.5494384765625,790.5494384765625,790.5494384765625
853,797.8021850585938,793.3699340820312,791.7582397460938,792.1611938476562
854,805.054931640625,796.996337890625,794.1758422851562,795.3846435546875
855,801.8314819335938,796.5933837890625,790.952392578125,795.3846435546875
856,796.1904907226562,789.7435913085938,786.1171875,782.087890625
857,794.981689453125,788.1318969726562,787.3259887695312,777.6557006835938
858,793.3699340820312,790.1465454101562,792.5640869140625,781.6849975585938
859,802.2344360351562,792.1611938476562,796.1904907226562,782.4908447265625
860,806.2637329101562,793.3699340820312,796.1904907226562,789.3406372070312
861,799.4139404296875,790.952392578125,792.5640869140625,788.1318969726562
862,796.996337890625,793.3699340820312,790.952392578125,782.4908447265625
863,796.5933837890625,794.1758422851562,791.3552856445312,786.923095703125
864,796.1904907226562,790.5494384765625,792.5640869140625,788.1318969726562
865,798.2051391601562,790.5494384765625,796.996337890625,789.3406372070312
866,788.5347900390625,791.7582397460938,796.1904907226562,783.2966918945312
867,788.1318969726562,790.1465454101562,795.3846435546875,785.3113403320312
868,793.7728881835938,789.3406372070312,797.8021850585938,795.7875366210938
869,793.3699340820312,792.5640869140625,797.3992919921875,794.1758422851562
870,791.7582397460938,791.3552856445312,797.3992919921875,795.7875366210938
871,788.937744140625,791.3552856445312,796.1904907226562,795.3846435546875
872,789.7435913085938,794.5787353515625,796.5933837890625,795.7875366210938
873,788.937744140625,794.5787353515625,794.981689453125,788.937744140625
874,784.908447265625,793.3699340820312,789.3406372070312,784.5054931640625
875,786.923095703125,790.952392578125,791.7582397460938,791.3552856445312
876,790.1465454101562,787.7289428710938,794.5787353515625,787.3259887695312
877,786.923095703125,786.1171875,791.7582397460938,784.5054931640625
878,787.3259887695312,783.2966918945312,788.1318969726562,790.1465454101562
879,787.3259887695312,785.7142944335938,785.7142944335938,792.1611938476562
880,790.5494384765625,789.7435913085938,787.3259887695312,791.3552856445312
881,788.937744140625,788.1318969726562,788.1318969726562,785.7142944335938
882,779.6703491210938,787.7289428710938,786.1171875,779.6703491210938
883,780.0732421875,786.923095703125,786.923095703125,785.7142944335938
884,784.5054931640625,788.937744140625,788.1318969726562,782.087890625
885,792.5640869140625,792.5640869140625,787.7289428710938,776.4468994140625
886,797.3992919921875,791.3552856445312,784.5054931640625,780.0732421875
887,792.1611938476562,790.952392578125,785.3113403320312,780.0732421875
888,786.923095703125,794.981689453125,786.5201416015625,779.6703491210938
889,794.5787353515625,797.8021850585938,785.3113403320312,789.3406372070312
890,794.5787353515625,794.981689453125,786.5201416015625,794.1758422851562
891,791.3552856445312,796.5933837890625,788.1318969726562,792.5640869140625
892,790.5494384765625,800.2197875976562,787.3259887695312,787.3259887695312
893,791.3552856445312,796.1904907226562,788.1318969726562,784.5054931640625
894,794.5787353515625,791.3552856445312,790.5494384765625,786.1171875
895,790.5494384765625,795.7875366210938,791.3552856445312,793.7728881835938
896,786.1171875,800.2197875976562,790.952392578125,786.923095703125
897,786.1171875,795.3846435546875,789.7435913085938,778.8644409179688
898,786.5201416015625,792.967041015625,792.5640869140625,784.5054931640625
899,782.4908447265625,789.7435913085938,792.967041015625,782.893798828125
900,784.5054931640625,788.937744140625,792.1611938476562,784.5054931640625
901,784.908447265625,795.3846435546875,790.952392578125,788.937744140625
902,785.7142944335938,793.3699340820312,786.5201416015625,792.1611938476562
903,789.3406372070312,790.952392578125,788.937744140625,791.3552856445312
904,791.3552856445312,795.3846435546875,791.7582397460938,784.908447265625
905,797.8021850585938,793.3699340820312,790.1465454101562,790.1465454101562
906,799.8168334960938,790.1465454101562,789.3406372070312,794.5787353515625
907,796.996337890625,790.952392578125,787.7289428710938,794.5787353515625
908,796.996337890625,788.937744140625,793.7728881835938,790.5494384765625
909,807.87548828125,790.5494384765625,790.5494384765625,796.1904907226562
910,815.1282348632812,792.1611938476562,786.923095703125,804.2490844726562
911,797.3992919921875,787.7289428710938,787.7289428710938,786.1171875
912,780.4761962890625,787.3259887695312,785.3113403320312,778.4615478515625
913,788.937744140625,784.908447265625,789.7435913085938,788.5347900390625
914,796.5933837890625,785.3113403320312,794.1758422851562,793.3699340820312
915,799.8168334960938,790.952392578125,797.3992919921875,800.2197875976562
916,801.4285888671875,795.7875366210938,796.5933837890625,799.8168334960938
917,798.2051391601562,800.6226806640625,792.967041015625,798.6080322265625
918,794.5787353515625,803.4432373046875,790.5494384765625,797.3992919921875
919,792.967041015625,801.025634765625,791.7582397460938,788.1318969726562
920,794.5787353515625,796.996337890625,794.1758422851562,782.087890625
921,795.7875366210938,797.8021850585938,791.3552856445312,790.5494384765625
922,786.1171875,797.3992919921875,788.1318969726562,792.1611938476562
923,786.923095703125,793.7728881835938,787.7289428710938,786.5201416015625
924,788.937744140625,794.5787353515625,789.3406372070312,786.5201416015625
925,786.923095703125,794.5787353515625,789.7435913085938,789.7435913085938
926,787.7289428710938,790.1465454101562,792.967041015625,788.937744140625
927,782.893798828125,784.5054931640625,790.5494384765625,781.2820434570312
928,777.6557006835938,783.6996459960938,789.7435913085938,779.6703491210938
929,782.893798828125,785.7142944335938,795.3846435546875,784.1025390625
930,788.937744140625,787.7289428710938,795.3846435546875,785.7142944335938
931,792.967041015625,787.3259887695312,792.1611938476562,783.2966918945312
932,794.5787353515625,785.7142944335938,792.5640869140625,782.893798828125
933,791.7582397460938,785.7142944335938,794.1758422851562,790.952392578125
934,794.1758422851562,790.952392578125,794.5787353515625,791.3552856445312
935,804.2490844726562,801.4285888671875,796.5933837890625,789.3406372070312
936,807.069580078125,801.8314819335938,799.4139404296875,794.981689453125
937,797.8021850585938,794.981689453125,798.2051391601562,790.1465454101562
938,795.3846435546875,792.5640869140625,799.4139404296875,784.5054931640625
939,796.5933837890625,792.5640869140625,796.5933837890625,784.1025390625
940,794.5787353515625,793.7728881835938,791.7582397460938,785.3113403320312
941,799.010986328125,790.952392578125,794.5787353515625,788.937744140625
942,806.2637329101562,791.7582397460938,797.3992919921875,793.7728881835938
943,797.3992919921875,796.5933837890625,798.2051391601562,793.7728881835938
944,794.5787353515625,796.5933837890625,796.996337890625,794.981689453125
945,799.8168334960938,797.3992919921875,799.010986328125,801.8314819335938
946,796.996337890625,795.7875366210938,796.5933837890625,788.1318969726562
947,800.6226806640625,794.981689453125,790.1465454101562,786.1171875
948,800.2197875976562,803.040283203125,792.967041015625,794.981689453125
949,792.5640869140625,801.025634765625,796.996337890625,791.3552856445312
950,792.5640869140625,800.6226806640625,795.7875366210938,790.952392578125
951,794.1758422851562,798.6080322265625,792.967041015625,789.3406372070312
952,791.7582397460938,796.5933837890625,790.5494384765625,783.2966918945312
953,790.1465454101562,793.7728881835938,790.1465454101562,781.6849975585938
954,784.5054931640625,786.923095703125,789.7435913085938,776.4468994140625
955,786.5201416015625,788.1318969726562,790.1465454101562,776.8497924804688
956,794.1758422851562,795.3846435546875,795.3846435546875,790.952392578125
957,797.3992919921875,802.6373901367188,799.010986328125,792.967041015625
958,795.7875366210938,797.8021850585938,795.3846435546875,786.923095703125
959,790.1465454101562,793.7728881835938,792.1611938476562,788.5347900390625
960,793.3699340820312,797.3992919921875,790.952392578125,796.1904907226562
961,793.3699340820312,795.3846435546875,791.7582397460938,792.5640869140625
962,794.1758422851562,791.3552856445312,791.3552856445312,789.7435913085938
963,791.3552856445312,791.7582397460938,789.3406372070312,784.1025390625
964,784.908447265625,793.7728881835938,789.7435913085938,781.6849975585938
965,787.3259887695312,796.5933837890625,790.5494384765625,783.6996459960938
966,792.1611938476562,795.7875366210938,792.1611938476562,777.2527465820312
967,795.3846435546875,791.7582397460938,797.3992919921875,785.7142944335938
968,793.7728881835938,794.981689453125,796.996337890625,790.952392578125
969,788.1318969726562,796.5933837890625,791.7582397460938,778.8644409179688
970,786.1171875,794.5787353515625,796.1904907226562,778.8644409179688
971,786.1171875,795.7875366210938,797.3992919921875,788.1318969726562
972,790.5494384765625,795.7875366210938,793.7728881835938,791.7582397460938
973,794.981689453125,794.981689453125,789.7435913085938,785.7142944335938
974,794.1758422851562,793.3699340820312,791.7582397460938,783.2966918945312
975,794.981689453125,793.3699340820312,795.7875366210938,783.6996459960938
976,793.3699340820312,794.5787353515625,794.1758422851562,784.5054931640625
977,792.1611938476562,788.5347900390625,795.3846435546875,783.2966918945312
978,792.5640869140625,784.908447265625,796.996337890625,784.908447265625
979,788.937744140625,790.1465454101562,796.5933837890625,791.3552856445312
980,784.908447265625,794.5787353515625,793.7728881835938,786.5201416015625
981,787.3259887695312,789.7435913085938,793.3699340820312,780.0732421875
982,789.3406372070312,784.5054931640625,791.7582397460938,783.2966918945312
983,783.2966918945312,788.937744140625,792.1611938476562,785.7142944335938
984,786.923095703125,796.1904907226562,795.7875366210938,786.923095703125
985,789.7435913085938,796.5933837890625,799.010986328125,786.923095703125
986,784.908447265625,795.3846435546875,796.5933837890625,787.7289428710938
987,790.5494384765625,795.7875366210938,796.5933837890625,786.5201416015625
988,796.1904907226562,796.5933837890625,799.4139404296875,789.3406372070312
989,795.3846435546875,793.7728881835938,799.010986328125,792.1611938476562
990,794.981689453125,792.1611938476562,801.8314819335938,792.967041015625
991,788.1318969726562,790.5494384765625,800.6226806640625,790.5494384765625
992,788.937744140625,788.5347900390625,799.4139404296875,785.7142944335938
993,799.8168334960938,788.1318969726562,797.8021850585938,790.952392578125
994,795.3846435546875,789.7435913085938,799.010986328125,785.7142944335938
995,788.5347900390625,792.967041015625,798.2051391601562,780.4761962890625
996,790.1465454101562,791.7582397460938,796.1904907226562,784.908447265625
997,794.981689453125,791.3552856445312,796.1904907226562,788.1318969726562
998,792.1611938476562,788.1318969726562,793.7728881835938,788.5347900390625
999,790.1465454101562,783.6996459960938,792.967041015625,785.7142944335938
1000,789.3406372070312,784.5054931640625,794.1758422851562,782.087890625
1001,786.5201416015625,786.923095703125,792.1611938476562,778.8644409179688
1002,790.952392578125,785.7142944335938,795.3846435546875,788.1318969726562
1003,788.937744140625,785.7142944335938,795.3846435546875,794.1758422851562
1004,786.5201416015625,789.3406372070312,794.981689453125,789.7435913085938
1005,785.7142944335938,786.5201416015625,796.996337890625,788.5347900390625
1006,788.1318969726562,787.7289428710938,793.3699340820312,785.3113403320312
1007,790.952392578125,793.3699340820312,797.8021850585938,780.879150390625
1008,794.981689453125,794.5787353515625,799.010986328125,788.1318969726562
1009,794.981689453125,791.7582397460938,793.3699340820312,784.5054931640625
1010,793.7728881835938,794.5787353515625,792.5640869140625,779.6703491210938
1011,795.7875366210938,795.7875366210938,797.3992919921875,786.5201416015625
1012,801.8314819335938,795.3846435546875,800.2197875976562,789.3406372070312
1013,801.025634765625,792.967041015625,793.7728881835938,782.087890625
1014,796.996337890625,789.7435913085938,790.5494384765625,780.0732421875
1015,799.4139404296875,792.5640869140625,794.5787353515625,789.3406372070312
1016,799.010986328125,797.8021850585938,798.2051391601562,792.967041015625
1017,795.3846435546875,797.8021850585938,798.2051391601562,791.7582397460938
1018,798.6080322265625,796.1904907226562,799.010986328125,792.967041015625
1019,796.5933837890625,794.5787353515625,799.4139404296875,788.5347900390625
1020,788.5347900390625,791.7582397460938,797.3992919921875,784.1025390625
1021,787.3259887695312,792.1611938476562,795.7875366210938,786.5201416015625
1022,791.3552856445312,794.5787353515625,793.3699340820312,786.1171875
1023,790.952392578125,798.2051391601562,793.7728881835938,781.6849975585938
1024,796.996337890625,799.4139404296875,794.981689453125,780.879150390625
1025,796.5933837890625,799.4139404296875,795.3846435546875,784.908447265625
1026,796.5933837890625,803.040283203125,802.2344360351562,792.967041015625
1027,798.6080322265625,807.87548828125,803.4432373046875,790.952392578125
1028,799.4139404296875,804.2490844726562,802.6373901367188,786.5201416015625
1029,803.040283203125,799.4139404296875,805.8607788085938,796.1904907226562
1030,801.025634765625,801.4285888671875,803.4432373046875,796.1904907226562
1031,799.8168334960938,800.6226806640625,801.4285888671875,789.7435913085938
1032,801.025634765625,799.8168334960938,802.2344360351562,786.5201416015625
1033,802.6373901367188,803.4432373046875,798.6080322265625,793.3699340820312
1034,803.4432373046875,802.2344360351562,800.2197875976562,794.1758422851562
1035,806.2637329101562,803.8461303710938,802.6373901367188,791.3552856445312
1036,807.87548828125,811.5018310546875,804.2490844726562,797.8021850585938
1037,805.4578857421875,812.3076782226562,805.054931640625,796.5933837890625
1038,805.8607788085938,809.89013671875,802.2344360351562,790.1465454101562
1039,806.2637329101562,806.6666870117188,797.8021850585938,789.7435913085938
1040,803.4432373046875,801.025634765625,796.5933837890625,799.4139404296875
1041,801.025634765625,800.2197875976562,801.025634765625,797.8021850585938
1042,798.6080322265625,797.8021850585938,799.8168334960938,787.3259887695312
1043,802.2344360351562,795.3846435546875,796.1904907226562,785.3113403320312
1044,809.4871826171875,795.7875366210938,798.2051391601562,794.981689453125
1045,799.8168334960938,793.7728881835938,797.3992919921875,793.7728881835938
1046,794.981689453125,794.1758422851562,797.3992919921875,790.5494384765625
1047,797.3992919921875,794.5787353515625,801.4285888671875,798.2051391601562
1048,789.7435913085938,789.3406372070312,802.2344360351562,801.4285888671875
1049,790.1465454101562,787.7289428710938,797.3992919921875,799.4139404296875
1050,790.1465454101562,790.1465454101562,797.3992919921875,798.6080322265625
1051,786.923095703125,790.1465454101562,803.4432373046875,802.2344360351562
1052,790.1465454101562,792.967041015625,804.6520385742188,805.8607788085938
1053,797.8021850585938,795.3846435546875,801.4285888671875,808.2783813476562
1054,799.4139404296875,791.7582397460938,799.4139404296875,804.2490844726562
1055,796.996337890625,793.3699340820312,800.2197875976562,804.2490844726562
1056,796.1904907226562,792.967041015625,803.040283203125,804.2490844726562
1057,791.3552856445312,791.3552856445312,803.8461303710938,798.6080322265625
1058,792.1611938476562,796.5933837890625,803.040283203125,794.981689453125
1059,792.967041015625,794.1758422851562,798.6080322265625,792.5640869140625
1060,793.7728881835938,792.1611938476562,801.025634765625,789.3406372070312
1061,793.3699340820312,792.5640869140625,799.4139404296875,786.923095703125
1062,794.5787353515625,794.1758422851562,796.1904907226562,786.5201416015625
1063,794.5787353515625,801.025634765625,800.6226806640625,792.5640869140625
1064,796.996337890625,798.2051391601562,804.6520385742188,792.967041015625
1065,797.3992919921875,794.981689453125,803.8461303710938,787.7289428710938
1066,793.3699340820312,793.7728881835938,805.054931640625,782.4908447265625
1067,794.5787353515625,792.5640869140625,803.4432373046875,787.7289428710938
1068,802.2344360351562,791.3552856445312,801.025634765625,800.6226806640625
1069,804.6520385742188,793.7728881835938,805.4578857421875,798.6080322265625
1070,799.4139404296875,796.1904907226562,801.025634765625,791.7582397460938
1071,788.5347900390625,798.6080322265625,797.8021850585938,783.6996459960938
1072,784.5054931640625,801.4285888671875,796.5933837890625,782.4908447265625
1073,785.7142944335938,796.996337890625,792.1611938476562,784.5054931640625
1074,786.1171875,797.3992919921875,790.1465454101562,784.5054931640625
1075,785.3113403320312,795.7875366210938,788.937744140625,784.908447265625
1076,787.7289428710938,792.5640869140625,792.5640869140625,782.4908447265625
1077,794.1758422851562,793.3699340820312,796.1904907226562,781.6849975585938
1078,793.7728881835938,791.3552856445312,795.7875366210938,780.879150390625
1079,788.1318969726562,792.1611938476562,795.3846435546875,786.5201416015625
1080,784.5054931640625,796.1904907226562,801.4285888671875,792.1611938476562
1081,788.5347900390625,794.5787353515625,800.2197875976562,798.2051391601562
1082,788.5347900390625,790.952392578125,792.1611938476562,796.996337890625
1083,776.0439453125,787.3259887695312,793.3699340820312,789.7435913085938
1084,779.6703491210938,788.1318969726562,796.1904907226562,789.3406372070312
1085,789.3406372070312,788.937744140625,791.3552856445312,784.908447265625
1086,790.1465454101562,784.1025390625,784.908447265625,780.0732421875
1087,787.3259887695312,788.1318969726562,787.3259887695312,780.0732421875
1088,788.1318969726562,790.5494384765625,787.7289428710938,778.4615478515625
1089,796.1904907226562,790.952392578125,786.1171875,778.05859375
1090,800.6226806640625,793.7728881835938,790.952392578125,784.1025390625
1091,799.4139404296875,797.3992919921875,795.7875366210938,782.4908447265625
1092,791.7582397460938,799.4139404296875,794.5787353515625,777.2527465820312
1093,794.5787353515625,799.010986328125,795.7875366210938,784.908447265625
1094,797.3992919921875,796.5933837890625,796.5933837890625,786.5201416015625
1095,794.981689453125,794.1758422851562,791.3552856445312,780.879150390625
1096,795.3846435546875,794.5787353515625,789.7435913085938,782.087890625
1097,797.8021850585938,798.6080322265625,792.5640869140625,787.7289428710938
1098,794.5787353515625,797.3992919921875,791.3552856445312,790.5494384765625
1099,792.5640869140625,795.3846435546875,790.952392578125,789.3406372070312
1100,795.7875366210938,795.3846435546875,795.3846435546875,789.7435913085938
1101,798.6080322265625,794.1758422851562,795.3846435546875,788.1318969726562
1102,795.3846435546875,795.7875366210938,793.7728881835938,783.2966918945312
1103,791.7582397460938,799.8168334960938,792.967041015625,780.879150390625
1104,791.7582397460938,796.996337890625,791.7582397460938,780.0732421875
1105,792.1611938476562,792.967041015625,788.1318969726562,781.2820434570312
1106,791.7582397460938,793.3699340820312,788.1318969726562,783.2966918945312
1107,792.1611938476562,792.5640869140625,790.1465454101562,782.087890625
1108,794.1758422851562,791.3552856445312,791.3552856445312,782.087890625
1109,796.5933837890625,792.967041015625,793.3699340820312,785.3113403320312
1110,793.7728881835938,793.7728881835938,790.952392578125,787.3259887695312
1111,790.5494384765625,790.5494384765625,790.1465454101562,785.7142944335938
1112,786.1171875,788.937744140625,793.7728881835938,782.893798828125
1113,783.6996459960938,785.3113403320312,793.7728881835938,784.1025390625
1114,785.3113403320312,785.3113403320312,791.3552856445312,786.923095703125
1115,788.1318969726562,786.923095703125,788.937744140625,783.6996459960938
1116,788.1318969726562,790.952392578125,786.5201416015625,782.087890625
1117,785.3113403320312,794.1758422851562,788.937744140625,789.7435913085938
1118,783.6996459960938,791.3552856445312,788.5347900390625,782.893798828125
1119,778.4615478515625,785.7142944335938,786.923095703125,767.5823974609375
1120,778.4615478515625,784.5054931640625,787.7289428710938,771.2088012695312
1121,789.7435913085938,785.3113403320312,786.1171875,778.4615478515625
1122,790.952392578125,790.1465454101562,786.1171875,782.087890625
1123,779.6703491210938,794.5787353515625,791.3552856445312,783.2966918945312
1124,783.6996459960938,790.952392578125,792.5640869140625,785.7142944335938
1125,791.3552856445312,790.5494384765625,788.1318969726562,793.3699340820312
1126,795.3846435546875,791.7582397460938,792.967041015625,795.3846435546875
1127,793.7728881835938,790.1465454101562,793.3699340820312,784.1025390625
1128,790.952392578125,789.7435913085938,789.3406372070312,780.879150390625
1129,787.7289428710938,789.7435913085938,788.1318969726562,780.0732421875
1130,784.908447265625,791.3552856445312,787.7289428710938,774.029296875
1131,785.3113403320312,791.7582397460938,786.923095703125,778.4615478515625
1132,787.3259887695312,790.952392578125,789.7435913085938,784.5054931640625
1133,786.1171875,796.996337890625,789.3406372070312,787.7289428710938
1134,786.923095703125,797.8021850585938,787.3259887695312,792.967041015625
1135,793.7728881835938,798.6080322265625,788.5347900390625,791.7582397460938
1136,799.4139404296875,798.6080322265625,784.908447265625,788.5347900390625
1137,792.1611938476562,795.3846435546875,782.087890625,788.5347900390625
1138,789.3406372070312,795.7875366210938,782.087890625,789.7435913085938
1139,787.3259887695312,794.981689453125,784.1025390625,790.5494384765625
1140,791.7582397460938,796.5933837890625,785.7142944335938,789.3406372070312
1141,801.025634765625,798.6080322265625,787.7289428710938,791.3552856445312
1142,794.1758422851562,793.7728881835938,789.3406372070312,790.5494384765625
1143,790.1465454101562,791.3552856445312,786.5201416015625,788.1318969726562
1144,794.5787353515625,795.3846435546875,788.937744140625,794.1758422851562
1145,792.5640869140625,792.5640869140625,794.981689453125,797.3992919921875
1146,796.996337890625,791.3552856445312,793.7728881835938,796.1904907226562
1147,803.040283203125,796.1904907226562,794.1758422851562,796.5933837890625
1148,797.3992919921875,792.967041015625,798.2051391601562,795.3846435546875
1149,796.1904907226562,793.7728881835938,798.6080322265625,792.5640869140625
1150,802.2344360351562,795.7875366210938,794.5787353515625,793.3699340820312
1151,799.4139404296875,794.5787353515625,793.7728881835938,792.1611938476562
1152,795.3846435546875,794.1758422851562,793.3699340820312,791.3552856445312
1153,793.7728881835938,794.981689453125,791.3552856445312,796.5933837890625
1154,796.1904907226562,794.1758422851562,791.3552856445312,799.010986328125
1155,798.6080322265625,789.7435913085938,793.7728881835938,797.3992919921875
1156,797.3992919921875,788.1318969726562,795.7875366210938,796.1904907226562
1157,800.2197875976562,794.981689453125,793.7728881835938,796.5933837890625
1158,794.1758422851562,795.3846435546875,788.5347900390625,790.952392578125
1159,786.923095703125,787.7289428710938,787.3259887695312,788.937744140625
1160,791.3552856445312,785.7142944335938,793.3699340820312,795.3846435546875
1161,791.3552856445312,786.5201416015625,789.7435913085938,786.5201416015625
1162,792.967041015625,783.6996459960938,787.7289428710938,782.087890625
1163,792.1611938476562,787.7289428710938,792.5640869140625,786.5201416015625
1164,788.1318969726562,790.1465454101562,791.7582397460938,782.4908447265625
1165,797.3992919921875,786.923095703125,791.7582397460938,786.5201416015625
1166,800.6226806640625,786.5201416015625,794.5787353515625,796.1904907226562
1167,797.3992919921875,788.5347900390625,794.981689453125,798.2051391601562
1168,794.5787353515625,792.1611938476562,798.2051391601562,797.3992919921875
1169,792.1611938476562,794.5787353515625,794.5787353515625,793.3699340820312
1170,797.3992919921875,795.7875366210938,791.7582397460938,792.1611938476562
1171,800.2197875976562,794.5787353515625,793.3699340820312,796.5933837890625
1172,794.1758422851562,790.1465454101562,791.7582397460938,790.952392578125
1173,796.996337890625,792.967041015625,793.3699340820312,795.7875366210938
1174,801.8314819335938,794.981689453125,793.7728881835938,798.6080322265625
1175,798.6080322265625,796.1904907226562,792.5640869140625,789.7435913085938
1176,793.3699340820312,788.5347900390625,791.7582397460938,785.7142944335938
1177,791.7582397460938,784.5054931640625,794.1758422851562,792.5640869140625
1178,790.5494384765625,787.3259887695312,793.3699340820312,790.1465454101562
1179,788.937744140625,789.3406372070312,794.1758422851562,783.6996459960938
1180,790.952392578125,789.7435913085938,796.5933837890625,785.3113403320312
1181,794.5787353515625,784.908447265625,796.1904907226562,787.7289428710938
1182,790.952392578125,785.7142944335938,794.5787353515625,786.923095703125
1183,789.3406372070312,789.7435913085938,798.2051391601562,789.7435913085938
1184,792.1611938476562,794.981689453125,801.8314819335938,792.967041015625
1185,792.967041015625,792.5640869140625,802.2344360351562,797.3992919921875
1186,795.3846435546875,787.7289428710938,801.025634765625,803.4432373046875
1187,796.996337890625,788.937744140625,799.8168334960938,799.4139404296875
1188,797.3992919921875,791.3552856445312,795.7875366210938,796.1904907226562
1189,791.7582397460938,790.1465454101562,792.5640869140625,792.5640869140625
1190,793.7728881835938,790.1465454101562,799.010986328125,790.952392578125
1191,792.967041015625,789.7435913085938,796.5933837890625,792.1611938476562
1192,788.1318969726562,784.1025390625,792.967041015625,788.5347900390625
1193,786.1171875,783.2966918945312,795.7875366210938,788.1318969726562
1194,781.6849975585938,782.087890625,795.7875366210938,793.7728881835938
1195,780.4761962890625,785.7142944335938,792.1611938476562,787.3259887695312
1196,784.5054931640625,791.7582397460938,791.7582397460938,783.2966918945312
1197,788.937744140625,794.1758422851562,789.3406372070312,784.908447265625
1198,790.1465454101562,794.981689453125,792.5640869140625,784.5054931640625
1199,795.7875366210938,796.996337890625,796.996337890625,787.3259887695312
1200,799.8168334960938,796.996337890625,797.8021850585938,790.5494384765625
1201,799.8168334960938,797.3992919921875,799.010986328125,801.025634765625
1202,789.7435913085938,799.010986328125,794.5787353515625,795.3846435546875
1203,777.6557006835938,800.6226806640625,792.1611938476562,776.0439453125
1204,788.1318969726562,800.2197875976562,798.2051391601562,781.2820434570312
1205,790.5494384765625,799.010986328125,799.8168334960938,789.7435913085938
1206,786.1171875,797.8021850585938,796.1904907226562,782.4908447265625
1207,791.7582397460938,799.010986328125,794.5787353515625,783.2966918945312
1208,799.4139404296875,799.8168334960938,796.1904907226562,790.5494384765625
1209,796.996337890625,795.3846435546875,799.010986328125,791.3552856445312
1210,792.1611938476562,793.3699340820312,796.996337890625,788.5347900390625
1211,792.5640869140625,791.7582397460938,796.1904907226562,783.6996459960938
1212,794.981689453125,787.7289428710938,798.2051391601562,782.893798828125
1213,795.7875366210938,788.937744140625,798.6080322265625,792.967041015625
1214,794.5787353515625,795.3846435546875,799.4139404296875,786.5201416015625
1215,786.1171875,798.2051391601562,798.6080322265625,778.8644409179688
1216,778.4615478515625,795.3846435546875,799.010986328125,790.1465454101562
1217,784.1025390625,794.981689453125,800.6226806640625,796.1904907226562
1218,790.952392578125,790.952392578125,798.2051391601562,786.923095703125
1219,782.893798828125,788.5347900390625,792.967041015625,774.8351440429688
1220,780.0732421875,786.5201416015625,788.5347900390625,779.2673950195312
1221,784.908447265625,782.087890625,790.952392578125,783.2966918945312
1222,786.1171875,786.923095703125,795.3846435546875,780.0732421875
1223,785.7142944335938,790.952392578125,794.981689453125,780.0732421875
1224,788.1318969726562,791.3552856445312,790.952392578125,779.6703491210938
1225,786.923095703125,786.923095703125,789.3406372070312,778.05859375
1226,794.1758422851562,788.5347900390625,792.967041015625,784.1025390625
1227,796.5933837890625,789.3406372070312,793.7728881835938,790.1465454101562
1228,798.2051391601562,788.1318969726562,791.3552856445312,792.1611938476562
1229,801.8314819335938,792.967041015625,793.3699340820312,790.1465454101562
1230,793.3699340820312,787.7289428710938,793.7728881835938,787.7289428710938
1231,793.3699340820312,787.3259887695312,795.7875366210938,788.1318969726562
1232,794.5787353515625,794.5787353515625,790.5494384765625,787.3259887695312
1233,797.8021850585938,796.996337890625,791.3552856445312,792.5640869140625
1234,801.4285888671875,796.1904907226562,794.981689453125,784.908447265625
1235,799.4139404296875,792.967041015625,794.5787353515625,782.4908447265625
1236,794.981689453125,794.5787353515625,794.1758422851562,789.7435913085938
1237,791.7582397460938,792.967041015625,785.7142944335938,785.3113403320312
1238,793.7728881835938,789.3406372070312,784.1025390625,787.7289428710938
1239,792.967041015625,787.7289428710938,788.937744140625,786.5201416015625
1240,784.5054931640625,785.7142944335938,789.3406372070312,778.4615478515625
1241,780.0732421875,790.952392578125,791.7582397460938,779.2673950195312
1242,780.0732421875,792.967041015625,794.5787353515625,783.2966918945312
1243,787.3259887695312,786.923095703125,791.7582397460938,785.7142944335938
1244,791.7582397460938,783.2966918945312,790.5494384765625,786.1171875
1245,784.1025390625,786.1171875,791.3552856445312,786.1171875
1246,778.8644409179688,789.7435913085938,794.1758422851562,785.7142944335938
1247,782.087890625,789.7435913085938,799.010986328125,782.893798828125
1248,783.2966918945312,787.7289428710938,799.010986328125,784.5054931640625
1249,790.5494384765625,792.1611938476562,798.6080322265625,782.893798828125
1250,794.1758422851562,794.981689453125,798.2051391601562,780.4761962890625
1251,791.7582397460938,789.7435913085938,799.4139404296875,785.3113403320312
1252,792.967041015625,787.7289428710938,800.6226806640625,790.1465454101562
1253,786.1171875,784.908447265625,793.7728881835938,788.1318969726562
1254,786.5201416015625,788.1318969726562,790.952392578125,788.5347900390625
1255,791.7582397460938,796.5933837890625,793.7728881835938,796.1904907226562
1256,787.3259887695312,794.981689453125,795.3846435546875,805.054931640625
1257,785.7142944335938,793.7728881835938,794.981689453125,798.6080322265625
1258,790.5494384765625,791.3552856445312,791.3552856445312,794.981689453125
1259,792.5640869140625,791.3552856445312,793.7728881835938,798.2051391601562
1260,789.7435913085938,792.1611938476562,798.2051391601562,794.5787353515625
1261,795.3846435546875,791.3552856445312,796.1904907226562,794.1758422851562
1262,794.981689453125,792.967041015625,795.3846435546875,796.1904907226562
1263,789.7435913085938,791.7582397460938,793.7728881835938,799.010986328125
1264,792.967041015625,788.937744140625,796.1904907226562,793.7728881835938
1265,792.967041015625,790.5494384765625,797.3992919921875,792.1611938476562
1266,784.1025390625,786.1171875,793.3699340820312,781.6849975585938
1267,782.087890625,780.4761962890625,790.1465454101562,775.2380981445312
1268,781.6849975585938,788.1318969726562,794.5787353515625,776.4468994140625
1269,785.7142944335938,794.1758422851562,796.996337890625,775.6410522460938
1270,786.923095703125,791.3552856445312,795.7875366210938,780.0732421875
1271,778.4615478515625,791.7582397460938,791.7582397460938,773.6264038085938
1272,780.879150390625,796.5933837890625,788.5347900390625,772.0146484375
1273,790.952392578125,799.8168334960938,793.3699340820312,784.1025390625
1274,795.7875366210938,796.5933837890625,790.952392578125,784.1025390625
1275,792.1611938476562,789.3406372070312,786.1171875,777.6557006835938
1276,786.5201416015625,790.1465454101562,786.923095703125,780.0732421875
1277,790.1465454101562,789.7435913085938,790.5494384765625,784.5054931640625
1278,792.967041015625,788.937744140625,791.7582397460938,791.7582397460938
1279,792.967041015625,792.967041015625,788.937744140625,799.010986328125
1280,793.3699340820312,790.1465454101562,792.1611938476562,788.5347900390625
1281,790.952392578125,787.7289428710938,792.5640869140625,778.4615478515625
1282,790.1465454101562,788.5347900390625,793.3699340820312,779.6703491210938
1283,788.937744140625,787.3259887695312,794.981689453125,779.6703491210938
1284,789.3406372070312,785.3113403320312,794.981689453125,780.879150390625
1285,791.3552856445312,790.1465454101562,792.967041015625,788.1318969726562
1286,792.1611938476562,790.952392578125,792.967041015625,794.5787353515625
1287,791.3552856445312,788.1318969726562,791.3552856445312,788.937744140625
1288,795.3846435546875,788.5347900390625,788.937744140625,785.7142944335938
1289,795.7875366210938,793.3699340820312,795.7875366210938,793.7728881835938
1290,794.1758422851562,793.7728881835938,794.981689453125,796.5933837890625
1291,792.1611938476562,787.3259887695312,788.937744140625,789.3406372070312
1292,786.5201416015625,786.5201416015625,788.5347900390625,785.7142944335938
1293,784.908447265625,788.5347900390625,791.3552856445312,787.7289428710938
1294,787.7289428710938,795.3846435546875,797.3992919921875,789.3406372070312
1295,795.7875366210938,801.8314819335938,802.2344360351562,790.952392578125
1296,793.3699340820312,797.3992919921875,799.8168334960938,791.3552856445312
1297,787.7289428710938,790.5494384765625,798.2051391601562,790.5494384765625
1298,793.7728881835938,794.981689453125,798.6080322265625,789.7435913085938
1299,797.3992919921875,797.3992919921875,797.3992919921875,793.3699340820312
1300,796.996337890625,792.967041015625,796.5933837890625,792.5640869140625
1301,797.3992919921875,793.3699340820312,797.8021850585938,786.5201416015625
1302,801.4285888671875,795.3846435546875,800.2197875976562,794.1758422851562
1303,806.2637329101562,794.981689453125,796.5933837890625,799.4139404296875
1304,813.5164794921875,797.8021850585938,796.5933837890625,802.6373901367188
1305,816.3369750976562,797.8021850585938,798.2051391601562,804.6520385742188
1306,808.6813354492188,792.5640869140625,790.952392578125,794.5787353515625
1307,803.8461303710938,792.5640869140625,789.3406372070312,789.3406372070312
1308,801.4285888671875,792.1611938476562,792.1611938476562,789.3406372070312
1309,799.8168334960938,791.3552856445312,790.5494384765625,793.3699340820312
1310,796.1904907226562,789.7435913085938,788.937744140625,789.7435913085938
1311,794.1758422851562,786.923095703125,787.7289428710938,789.3406372070312
1312,792.967041015625,784.5054931640625,786.5201416015625,791.3552856445312
1313,795.7875366210938,786.1171875,786.5201416015625,788.937744140625
1314,792.5640869140625,791.7582397460938,790.5494384765625,789.7435913085938
1315,792.967041015625,799.4139404296875,797.3992919921875,794.1758422851562
1316,796.1904907226562,796.5933837890625,796.996337890625,797.3992919921875
1317,790.952392578125,791.7582397460938,794.5787353515625,799.8168334960938
1318,788.1318969726562,792.967041015625,793.7728881835938,794.1758422851562
1319,790.5494384765625,790.1465454101562,795.7875366210938,784.5054931640625
1320,791.7582397460938,788.937744140625,794.5787353515625,788.937744140625
1321,788.937744140625,789.3406372070312,793.3699340820312,789.7435913085938
1322,787.3259887695312,792.1611938476562,790.1465454101562,778.8644409179688
1323,787.3259887695312,793.7728881835938,789.3406372070312,780.0732421875
1324,791.7582397460938,790.5494384765625,796.1904907226562,788.937744140625
1325,790.952392578125,788.1318969726562,798.2051391601562,790.952392578125
1326,782.893798828125,788.5347900390625,792.967041015625,786.5201416015625
1327,777.6557006835938,785.7142944335938,790.952392578125,781.6849975585938
1328,779.2673950195312,783.2966918945312,793.3699340820312,785.3113403320312
1329,779.6703491210938,785.3113403320312,792.5640869140625,792.1611938476562
1330,783.6996459960938,786.5201416015625,792.967041015625,786.1171875
1331,787.3259887695312,788.5347900390625,794.981689453125,780.879150390625
1332,782.4908447265625,790.5494384765625,796.996337890625,781.6849975585938
1333,780.0732421875,788.1318969726562,797.8021850585938,780.879150390625
1334,787.3259887695312,788.5347900390625,797.3992919921875,783.6996459960938
1335,794.5787353515625,790.5494384765625,795.7875366210938,788.5347900390625
1336,791.3552856445312,786.923095703125,796.996337890625,783.2966918945312
1337,784.5054931640625,788.937744140625,796.996337890625,780.4761962890625
1338,785.7142944335938,790.952392578125,794.1758422851562,784.1025390625
1339,789.3406372070312,786.1171875,792.1611938476562,780.0732421875
1340,788.1318969726562,787.7289428710938,790.952392578125,781.6849975585938
1341,791.3552856445312,790.952392578125,792.967041015625,784.908447265625
1342,796.1904907226562,792.5640869140625,795.3846435546875,784.908447265625
1343,790.1465454101562,786.5201416015625,794.981689453125,785.7142944335938
1344,785.3113403320312,780.4761962890625,787.7289428710938,780.879150390625
1345,787.3259887695312,784.1025390625,788.5347900390625,777.2527465820312
1346,784.908447265625,790.1465454101562,794.1758422851562,779.6703491210938
1347,782.893798828125,792.1611938476562,795.7875366210938,784.5054931640625
1348,783.2966918945312,793.3699340820312,795.7875366210938,787.3259887695312
1349,784.1025390625,794.981689453125,793.7728881835938,790.5494384765625
1350,791.3552856445312,795.3846435546875,793.3699340820312,790.1465454101562
1351,792.967041015625,796.5933837890625,791.3552856445312,796.1904907226562
1352,794.1758422851562,795.3846435546875,793.3699340820312,795.7875366210938
1353,790.1465454101562,792.1611938476562,794.1758422851562,775.6410522460938
1354,786.1171875,792.5640869140625,789.3406372070312,773.6264038085938
1355,786.923095703125,790.5494384765625,786.923095703125,784.5054931640625
1356,785.7142944335938,786.923095703125,790.1465454101562,781.2820434570312
1357,788.937744140625,785.7142944335938,790.952392578125,775.6410522460938
1358,786.923095703125,783.6996459960938,792.967041015625,774.029296875
1359,783.6996459960938,785.3113403320312,794.981689453125,775.6410522460938
1360,789.3406372070312,787.7289428710938,794.5787353515625,784.1025390625
1361,789.3406372070312,783.6996459960938,793.7728881835938,781.2820434570312
1362,786.5201416015625,786.1171875,795.7875366210938,773.2234497070312
1363,782.087890625,786.923095703125,795.7875366210938,774.8351440429688
1364,779.6703491210938,783.2966918945312,790.1465454101562,772.8204956054688
1365,784.908447265625,782.893798828125,792.967041015625,775.6410522460938
1366,788.1318969726562,788.1318969726562,792.5640869140625,781.2820434570312
1367,786.1171875,788.1318969726562,791.7582397460938,777.2527465820312
1368,779.2673950195312,784.908447265625,790.952392578125,774.4322509765625
1369,779.6703491210938,788.5347900390625,793.3699340820312,780.0732421875
1370,787.3259887695312,790.5494384765625,796.1904907226562,786.5201416015625
1371,789.7435913085938,787.3259887695312,796.1904907226562,789.7435913085938
1372,787.3259887695312,790.1465454101562,793.3699340820312,782.893798828125
1373,786.5201416015625,788.937744140625,788.1318969726562,781.2820434570312
1374,792.5640869140625,785.3113403320312,786.5201416015625,790.952392578125
1375,794.1758422851562,793.3699340820312,791.7582397460938,797.8021850585938
1376,794.1758422851562,799.4139404296875,790.5494384765625,797.3992919921875
1377,792.967041015625,798.2051391601562,786.923095703125,786.923095703125
1378,786.1171875,798.2051391601562,787.7289428710938,784.1025390625
1379,784.908447265625,796.1904907226562,787.7289428710938,791.3552856445312
1380,784.908447265625,795.7875366210938,788.937744140625,791.3552856445312
1381,782.087890625,793.7728881835938,789.3406372070312,785.7142944335938
1382,784.908447265625,790.5494384765625,792.967041015625,791.7582397460938
1383,784.1025390625,790.5494384765625,794.1758422851562,792.1611938476562
1384,778.4615478515625,788.5347900390625,792.5640869140625,785.3113403320312
1385,775.6410522460938,786.1171875,792.5640869140625,784.5054931640625
1386,780.879150390625,785.3113403320312,793.3699340820312,796.1904907226562
1387,780.879150390625,783.2966918945312,793.3699340820312,798.2051391601562
1388,779.6703491210938,786.5201416015625,794.1758422851562,785.7142944335938
1389,782.893798828125,787.7289428710938,793.7728881835938,786.923095703125
1390,788.5347900390625,791.3552856445312,795.3846435546875,794.1758422851562
1391,793.3699340820312,793.3699340820312,796.996337890625,795.7875366210938
1392,794.5787353515625,790.1465454101562,795.3846435546875,791.3552856445312
1393,795.3846435546875,790.1465454101562,798.2051391601562,790.1465454101562
1394,794.5787353515625,790.1465454101562,802.2344360351562,790.952392578125
1395,791.7582397460938,785.7142944335938,803.4432373046875,790.952392578125
1396,789.7435913085938,786.1171875,798.6080322265625,788.937744140625
1397,791.7582397460938,788.937744140625,797.8021850585938,785.7142944335938
1398,793.7728881835938,791.3552856445312,803.4432373046875,789.3406372070312
1399,794.981689453125,792.967041015625,801.4285888671875,792.5640869140625
1400,788.5347900390625,791.7582397460938,797.3992919921875,786.5201416015625
1401,784.5054931640625,790.1465454101562,792.5640869140625,786.5201416015625
1402,788.937744140625,792.967041015625,792.5640869140625,788.5347900390625
1403,786.923095703125,797.8021850585938,792.5640869140625,778.05859375
1404,786.923095703125,798.2051391601562,795.3846435546875,782.087890625
1405,790.1465454101562,797.3992919921875,799.010986328125,792.5640869140625
1406,792.1611938476562,792.5640869140625,798.6080322265625,791.7582397460938
1407,796.996337890625,795.7875366210938,798.2051391601562,794.5787353515625
1408,799.010986328125,795.7875366210938,798.2051391601562,796.5933837890625
1409,791.3552856445312,792.5640869140625,799.8168334960938,796.996337890625
1410,784.1025390625,795.3846435546875,800.2197875976562,794.1758422851562
1411,790.5494384765625,792.1611938476562,800.2197875976562,788.5347900390625
1412,800.2197875976562,793.3699340820312,800.6226806640625,794.5787353515625
1413,797.3992919921875,796.5933837890625,795.3846435546875,798.6080322265625
1414,792.5640869140625,793.7728881835938,793.3699340820312,789.3406372070312
1415,792.967041015625,794.5787353515625,794.981689453125,788.1318969726562
1416,793.7728881835938,792.5640869140625,792.5640869140625,790.5494384765625
1417,794.981689453125,790.952392578125,793.7728881835938,788.1318969726562
1418,797.8021850585938,796.996337890625,796.5933837890625,788.1318969726562
1419,794.981689453125,798.6080322265625,797.8021850585938,786.1171875
1420,792.967041015625,796.996337890625,795.3846435546875,789.7435913085938
1421,791.3552856445312,799.8168334960938,795.3846435546875,786.5201416015625
1422,795.7875366210938,800.6226806640625,794.1758422851562,784.908447265625
1423,797.3992919921875,792.5640869140625,793.7728881835938,788.1318969726562
1424,794.5787353515625,784.5054931640625,793.7728881835938,781.6849975585938
1425,787.7289428710938,788.937744140625,792.1611938476562,776.8497924804688
1426,785.7142944335938,791.3552856445312,792.1611938476562,775.2380981445312
1427,788.5347900390625,790.1465454101562,790.1465454101562,773.6264038085938
1428,789.7435913085938,790.1465454101562,793.3699340820312,782.4908447265625
1429,791.7582397460938,786.5201416015625,795.3846435546875,786.1171875
1430,788.5347900390625,786.1171875,795.3846435546875,790.1465454101562
1431,784.5054931640625,788.937744140625,795.7875366210938,793.3699340820312
1432,788.937744140625,791.7582397460938,794.981689453125,789.3406372070312
1433,788.1318969726562,792.1611938476562,794.981689453125,786.923095703125
1434,792.1611938476562,795.7875366210938,796.996337890625,786.1171875
1435,793.7728881835938,798.2051391601562,797.8021850585938,788.5347900390625
1436,794.981689453125,793.7728881835938,792.1611938476562,786.1171875
1437,796.5933837890625,790.5494384765625,788.5347900390625,784.908447265625
1438,793.7728881835938,785.7142944335938,790.1465454101562,788.1318969726562
1439,792.1611938476562,782.4908447265625,792.5640869140625,783.2966918945312
1440,788.937744140625,786.1171875,794.1758422851562,779.6703491210938
1441,784.1025390625,785.7142944335938,796.1904907226562,782.087890625
1442,788.937744140625,783.6996459960938,796.1904907226562,781.6849975585938
1443,790.5494384765625,784.908447265625,796.1904907226562,776.4468994140625
1444,782.893798828125,784.1025390625,799.010986328125,775.2380981445312
1445,781.2820434570312,784.5054931640625,800.2197875976562,781.6849975585938
1446,782.4908447265625,785.7142944335938,799.4139404296875,784.1025390625
1447,788.937744140625,789.7435913085938,798.6080322265625,787.7289428710938
1448,794.981689453125,790.952392578125,798.2051391601562,789.3406372070312
1449,789.3406372070312,790.952392578125,798.6080322265625,785.7142944335938
1450,779.6703491210938,789.7435913085938,798.6080322265625,782.893798828125
1451,783.2966918945312,788.1318969726562,801.4285888671875,785.3113403320312
1452,788.1318969726562,789.7435913085938,801.8314819335938,786.5201416015625
1453,792.5640869140625,790.5494384765625,801.4285888671875,785.7142944335938
1454,794.1758422851562,787.3259887695312,803.040283203125,786.923095703125
1455,785.7142944335938,784.5054931640625,802.2344360351562,790.5494384765625
1456,780.0732421875,784.1025390625,796.996337890625,788.5347900390625
1457,786.5201416015625,785.3113403320312,798.6080322265625,782.893798828125
1458,801.8314819335938,787.3259887695312,799.8168334960938,784.1025390625
1459,805.8607788085938,782.4908447265625,793.7728881835938,790.952392578125
1460,796.5933837890625,783.2966918945312,793.7728881835938,788.5347900390625
1461,795.7875366210938,785.7142944335938,796.5933837890625,784.908447265625
1462,797.3992919921875,787.7289428710938,794.5787353515625,789.3406372070312
1463,801.025634765625,788.5347900390625,796.996337890625,792.967041015625
1464,807.87548828125,792.1611938476562,797.3992919921875,793.7728881835938
1465,800.2197875976562,791.3552856445312,794.981689453125,793.7728881835938
1466,796.996337890625,786.5201416015625,795.3846435546875,792.5640869140625
1467,801.4285888671875,784.1025390625,792.1611938476562,788.1318969726562
1468,797.8021850585938,785.3113403320312,785.7142944335938,788.5347900390625
1469,792.967041015625,784.1025390625,777.2527465820312,780.4761962890625
1470,791.3552856445312,783.6996459960938,778.8644409179688,782.087890625
1471,794.1758422851562,788.937744140625,781.6849975585938,793.7728881835938
1472,794.981689453125,789.3406372070312,779.6703491210938,784.1025390625
1473,800.2197875976562,795.3846435546875,784.1025390625,782.4908447265625
1474,803.4432373046875,798.2051391601562,786.1171875,784.5054931640625
1475,795.7875366210938,791.7582397460938,784.5054931640625,780.0732421875
1476,787.7289428710938,791.7582397460938,789.7435913085938,782.4908447265625
1477,789.7435913085938,794.1758422851562,792.1611938476562,782.087890625
1478,794.981689453125,792.1611938476562,792.967041015625,784.1025390625
1479,794.981689453125,789.3406372070312,794.5787353515625,786.5201416015625
1480,792.967041015625,791.7582397460938,800.2197875976562,792.5640869140625
1481,790.5494384765625,793.7728881835938,805.054931640625,796.996337890625
1482,793.3699340820312,794.1758422851562,801.025634765625,801.4285888671875
1483,794.1758422851562,792.967041015625,801.8314819335938,800.2197875976562
1484,793.7728881835938,795.7875366210938,799.8168334960938,800.2197875976562
1485,797.3992919921875,797.8021850585938,797.8021850585938,800.2197875976562
1486,800.6226806640625,793.7728881835938,799.8168334960938,799.010986328125
1487,792.967041015625,793.3699340820312,798.2051391601562,794.1758422851562
1488,792.1611938476562,793.7728881835938,797.3992919921875,791.7582397460938
1489,802.2344360351562,797.3992919921875,798.6080322265625,796.1904907226562
1490,802.2344360351562,800.6226806640625,799.4139404296875,795.7875366210938
1491,796.5933837890625,795.3846435546875,796.996337890625,790.1465454101562
1492,795.3846435546875,792.5640869140625,791.7582397460938,793.3699340820312
1493,795.3846435546875,791.7582397460938,790.5494384765625,796.996337890625
1494,792.967041015625,788.937744140625,788.5347900390625,791.7582397460938
1495,794.1758422851562,792.1611938476562,787.7289428710938,787.7289428710938
1496,793.7728881835938,796.1904907226562,784.1025390625,780.879150390625
1497,791.3552856445312,796.5933837890625,788.5347900390625,786.1171875
1498,794.981689453125,802.6373901367188,792.967041015625,794.981689453125
1499,801.4285888671875,803.8461303710938,792.967041015625,790.5494384765625
1500,801.025634765625,797.3992919921875,794.5787353515625,784.5054931640625
1501,797.3992919921875,795.7875366210938,794.5787353515625,779.6703491210938
1502,792.5640869140625,795.3846435546875,792.967041015625,781.6849975585938
1503,790.952392578125,797.8021850585938,791.7582397460938,790.1465454101562
1504,789.3406372070312,790.5494384765625,792.5640869140625,787.7289428710938
1505,786.923095703125,787.3259887695312,788.5347900390625,781.6849975585938
1506,784.5054931640625,797.8021850585938,787.3259887695312,782.087890625
1507,780.4761962890625,796.996337890625,789.3406372070312,777.6557006835938
1508,778.8644409179688,791.3552856445312,790.5494384765625,780.879150390625
1509,783.6996459960938,793.3699340820312,791.7582397460938,787.7289428710938
1510,788.5347900390625,794.981689453125,792.967041015625,789.7435913085938
1511,791.7582397460938,796.5933837890625,794.5787353515625,794.981689453125
1512,793.3699340820312,794.981689453125,792.967041015625,785.3113403320312
1513,794.5787353515625,791.3552856445312,794.1758422851562,779.6703491210938
1514,796.1904907226562,791.7582397460938,794.981689453125,785.7142944335938
1515,796.5933837890625,789.7435913085938,787.3259887695312,788.1318969726562
1516,794.1758422851562,785.7142944335938,788.1318969726562,786.923095703125
1517,789.3406372070312,786.923095703125,794.1758422851562,791.3552856445312
1518,795.3846435546875,785.3113403320312,792.1611938476562,794.5787353515625
1519,797.3992919921875,781.6849975585938,790.952392578125,791.7582397460938
1520,790.952392578125,781.2820434570312,794.5787353515625,796.1904907226562
1521,789.3406372070312,786.923095703125,791.3552856445312,800.6226806640625
1522,786.923095703125,787.3259887695312,791.3552856445312,794.981689453125
1523,790.1465454101562,789.7435913085938,795.3846435546875,796.5933837890625
1524,795.3846435546875,792.5640869140625,795.3846435546875,800.6226806640625
1525,797.3992919921875,790.5494384765625,796.5933837890625,800.6226806640625
1526,795.3846435546875,790.5494384765625,796.1904907226562,800.6226806640625
1527,788.937744140625,788.937744140625,794.1758422851562,801.025634765625
1528,788.5347900390625,786.5201416015625,796.1904907226562,807.4725341796875
1529,790.1465454101562,793.3699340820312,797.3992919921875,801.4285888671875
1530,789.7435913085938,798.2051391601562,798.2051391601562,793.3699340820312
1531,791.3552856445312,794.981689453125,798.6080322265625,790.5494384765625
1532,786.1171875,790.1465454101562,798.6080322265625,787.7289428710938
1533,779.2673950195312,788.5347900390625,801.025634765625,783.2966918945312
1534,778.05859375,786.923095703125,800.2197875976562,778.4615478515625
1535,781.6849975585938,784.5054931640625,798.6080322265625,780.879150390625
1536,791.3552856445312,784.5054931640625,796.5933837890625,801.8314819335938
1537,788.5347900390625,783.6996459960938,792.1611938476562,798.6080322265625
1538,793.7728881835938,785.3113403320312,792.5640869140625,786.5201416015625
1539,798.6080322265625,789.7435913085938,799.010986328125,786.1171875
1540,812.3076782226562,794.5787353515625,796.996337890625,793.3699340820312
1541,816.7399291992188,799.010986328125,795.7875366210938,792.967041015625
1542,808.2783813476562,797.3992919921875,795.3846435546875,786.1171875
1543,807.4725341796875,794.981689453125,796.1904907226562,785.7142944335938
1544,803.8461303710938,795.7875366210938,795.3846435546875,791.7582397460938
1545,804.6520385742188,792.967041015625,794.5787353515625,803.040283203125
1546,808.2783813476562,799.010986328125,796.996337890625,801.025634765625
1547,806.6666870117188,807.87548828125,797.3992919921875,792.5640869140625
1548,807.069580078125,806.6666870117188,791.3552856445312,790.952392578125
1549,809.084228515625,803.4432373046875,786.5201416015625,791.7582397460938
1550,808.6813354492188,805.4578857421875,786.1171875,793.3699340820312
1551,810.2930297851562,804.6520385742188,790.5494384765625,792.1611938476562
1552,805.4578857421875,798.6080322265625,789.7435913085938,785.3113403320312
1553,801.025634765625,797.3992919921875,787.3259887695312,781.6849975585938
1554,799.010986328125,792.967041015625,791.7582397460938,782.4908447265625
1555,799.8168334960938,790.5494384765625,794.5787353515625,781.6849975585938
1556,797.8021850585938,789.7435913085938,793.7728881835938,786.1171875
1557,783.2966918945312,788.1318969726562,791.7582397460938,786.1171875
1558,780.879150390625,786.1171875,796.996337890625,781.2820434570312
1559,788.5347900390625,784.1025390625,801.4285888671875,780.879150390625
1560,788.937744140625,785.7142944335938,799.010986328125,782.4908447265625
1561,787.3259887695312,787.3259887695312,802.2344360351562,779.6703491210938
1562,790.5494384765625,786.5201416015625,796.5933837890625,771.6116943359375
1563,785.7142944335938,786.1171875,791.7582397460938,769.5970458984375
1564,782.4908447265625,788.1318969726562,794.1758422851562,775.6410522460938
1565,786.1171875,786.923095703125,794.1758422851562,779.2673950195312
1566,786.923095703125,786.1171875,790.5494384765625,777.6557006835938
1567,789.3406372070312,784.5054931640625,789.7435913085938,776.0439453125
1568,792.967041015625,787.7289428710938,792.967041015625,780.4761962890625
1569,797.8021850585938,794.981689453125,797.3992919921875,782.087890625
1570,803.040283203125,792.967041015625,794.5787353515625,781.2820434570312
1571,805.4578857421875,796.996337890625,794.1758422851562,792.1611938476562
1572,805.054931640625,799.8168334960938,795.7875366210938,799.010986328125
1573,806.6666870117188,794.5787353515625,795.3846435546875,796.1904907226562
1574,802.6373901367188,795.7875366210938,794.1758422851562,800.6226806640625
1575,803.4432373046875,801.8314819335938,793.3699340820312,811.098876953125
1576,813.113525390625,798.6080322265625,793.3699340820312,811.5018310546875
1577,814.7252807617188,790.952392578125,792.1611938476562,812.3076782226562
1578,809.89013671875,791.3552856445312,789.7435913085938,807.87548828125
1579,807.069580078125,792.1611938476562,788.5347900390625,809.4871826171875
1580,806.2637329101562,796.1904907226562,787.7289428710938,814.3223266601562
1581,805.8607788085938,799.010986328125,784.1025390625,813.113525390625
1582,801.8314819335938,794.981689453125,782.4908447265625,807.87548828125
1583,796.996337890625,795.7875366210938,780.4761962890625,805.4578857421875
1584,795.3846435546875,799.4139404296875,778.8644409179688,802.6373901367188
1585,798.6080322265625,800.6226806640625,776.4468994140625,792.1611938476562
1586,800.2197875976562,803.8461303710938,777.2527465820312,788.5347900390625
