timestamp,RAW_TP9,RAW_AF7,RAW_AF8,RAW_TP10
1,808.2783813476562,798.2051391601562,796.996337890625,791.7582397460938
2,802.6373901367188,795.3846435546875,794.5787353515625,802.6373901367188
3,799.010986328125,796.996337890625,794.5787353515625,800.6226806640625
4,798.2051391601562,793.7728881835938,798.6080322265625,796.5933837890625
5,792.5640869140625,791.7582397460938,799.8168334960938,800.6226806640625
6,792.5640869140625,790.5494384765625,801.8314819335938,803.8461303710938
7,792.967041015625,791.3552856445312,801.4285888671875,798.2051391601562
8,794.1758422851562,792.1611938476562,799.010986328125,798.6080322265625
9,791.7582397460938,793.7728881835938,799.8168334960938,802.2344360351562
10,782.4908447265625,795.7875366210938,796.996337890625,795.3846435546875
11,780.4761962890625,793.7728881835938,794.5787353515625,794.1758422851562
12,790.952392578125,790.952392578125,793.7728881835938,799.8168334960938
13,794.5787353515625,790.5494384765625,793.7728881835938,798.2051391601562
14,792.967041015625,790.1465454101562,795.3846435546875,794.981689453125
15,792.967041015625,790.952392578125,800.2197875976562,798.6080322265625
16,793.7728881835938,790.952392578125,801.4285888671875,801.8314819335938
17,800.2197875976562,790.952392578125,797.8021850585938,806.6666870117188
18,805.8607788085938,791.3552856445312,800.2197875976562,807.069580078125
19,807.87548828125,790.952392578125,799.8168334960938,804.2490844726562
20,810.2930297851562,792.5640869140625,797.8021850585938,805.054931640625
21,803.4432373046875,799.010986328125,798.6080322265625,799.4139404296875
22,799.8168334960938,800.6226806640625,796.5933837890625,800.2197875976562
23,806.6666870117188,798.6080322265625,795.7875366210938,803.040283203125
24,805.4578857421875,796.1904907226562,794.1758422851562,796.1904907226562
25,801.8314819335938,796.996337890625,793.7728881835938,796.996337890625
26,797.8021850585938,797.3992919921875,798.6080322265625,803.040283203125
27,798.6080322265625,796.996337890625,800.6226806640625,807.4725341796875
28,798.6080322265625,795.3846435546875,800.6226806640625,805.054931640625
29,793.3699340820312,792.967041015625,800.6226806640625,799.4139404296875
30,792.967041015625,794.981689453125,801.4285888671875,792.967041015625
31,792.5640869140625,791.3552856445312,800.6226806640625,792.967041015625
32,791.3552856445312,792.5640869140625,799.8168334960938,792.967041015625
33,795.3846435546875,794.981689453125,800.2197875976562,801.025634765625
34,795.7875366210938,791.7582397460938,801.4285888671875,806.2637329101562
35,796.996337890625,792.5640869140625,803.040283203125,799.4139404296875
36,796.996337890625,792.1611938476562,800.6226806640625,794.5787353515625
37,799.010986328125,788.1318969726562,798.2051391601562,795.7875366210938
38,801.8314819335938,789.3406372070312,798.6080322265625,799.8168334960938
39,794.5787353515625,791.3552856445312,799.010986328125,796.5933837890625
40,791.7582397460938,792.967041015625,799.010986328125,792.967041015625
41,796.5933837890625,798.6080322265625,801.8314819335938,800.6226806640625
42,795.7875366210938,798.6080322265625,802.6373901367188,802.2344360351562
43,799.8168334960938,791.7582397460938,798.2051391601562,799.4139404296875
44,801.4285888671875,784.1025390625,793.7728881835938,797.8021850585938
45,798.6080322265625,788.5347900390625,790.5494384765625,791.7582397460938
46,792.5640869140625,794.5787353515625,792.5640869140625,787.7289428710938
47,788.1318969726562,796.5933837890625,794.981689453125,789.3406372070312
48,794.5787353515625,797.8021850585938,795.7875366210938,800.6226806640625
49,799.010986328125,797.3992919921875,801.025634765625,807.069580078125
50,794.981689453125,797.3992919921875,804.2490844726562,801.4285888671875
51,793.3699340820312,791.3552856445312,799.010986328125,793.7728881835938
52,797.8021850585938,786.923095703125,800.2197875976562,797.3992919921875
53,795.3846435546875,792.1611938476562,805.054931640625,796.996337890625
54,791.7582397460938,795.3846435546875,803.8461303710938,786.5201416015625
55,791.3552856445312,792.5640869140625,799.8168334960938,788.937744140625
56,787.3259887695312,789.3406372070312,797.3992919921875,785.7142944335938
57,790.1465454101562,788.937744140625,798.6080322265625,786.5201416015625
58,794.981689453125,789.3406372070312,799.4139404296875,795.7875366210938
59,790.952392578125,790.5494384765625,798.6080322265625,790.5494384765625
60,786.5201416015625,791.3552856445312,796.1904907226562,784.1025390625
61,793.3699340820312,792.967041015625,797.8021850585938,790.5494384765625
62,791.3552856445312,792.1611938476562,799.8168334960938,795.7875366210938
63,785.3113403320312,791.7582397460938,800.2197875976562,794.1758422851562
64,786.5201416015625,786.5201416015625,802.2344360351562,792.1611938476562
65,788.5347900390625,786.923095703125,802.6373901367188,788.937744140625
66,784.908447265625,792.5640869140625,797.8021850585938,786.1171875
67,788.1318969726562,789.7435913085938,795.3846435546875,790.1465454101562
68,792.1611938476562,786.5201416015625,796.996337890625,793.7728881835938
69,791.7582397460938,788.937744140625,795.3846435546875,794.5787353515625
70,794.981689453125,791.7582397460938,792.967041015625,795.3846435546875
71,799.010986328125,787.7289428710938,792.5640869140625,800.6226806640625
72,794.5787353515625,791.7582397460938,792.1611938476562,803.8461303710938
73,788.937744140625,793.7728881835938,790.952392578125,791.3552856445312
74,794.981689453125,791.7582397460938,792.967041015625,792.967041015625
75,800.2197875976562,789.3406372070312,792.967041015625,803.040283203125
76,795.7875366210938,790.952392578125,794.1758422851562,795.7875366210938
77,795.3846435546875,795.7875366210938,798.6080322265625,794.1758422851562
78,792.967041015625,793.7728881835938,794.981689453125,797.3992919921875
79,789.3406372070312,791.7582397460938,792.1611938476562,794.981689453125
80,787.3259887695312,792.1611938476562,793.3699340820312,790.5494384765625
81,788.937744140625,791.3552856445312,794.981689453125,791.3552856445312
82,793.7728881835938,792.1611938476562,792.967041015625,794.981689453125
83,790.5494384765625,788.937744140625,792.1611938476562,797.8021850585938
84,794.1758422851562,788.5347900390625,796.5933837890625,796.1904907226562
85,798.2051391601562,796.996337890625,792.5640869140625,790.952392578125
86,798.6080322265625,799.8168334960938,791.7582397460938,791.3552856445312
87,801.4285888671875,795.3846435546875,798.2051391601562,790.952392578125
88,801.025634765625,792.1611938476562,795.3846435546875,788.5347900390625
89,801.8314819335938,794.981689453125,793.3699340820312,791.7582397460938
90,803.4432373046875,793.7728881835938,793.7728881835938,796.1904907226562
91,798.6080322265625,795.7875366210938,793.7728881835938,793.3699340820312
92,796.1904907226562,794.1758422851562,796.5933837890625,793.7728881835938
93,800.2197875976562,790.1465454101562,798.6080322265625,798.6080322265625
94,797.3992919921875,786.1171875,799.010986328125,790.1465454101562
95,792.967041015625,787.3259887695312,795.7875366210938,785.7142944335938
96,788.937744140625,788.1318969726562,794.5787353515625,793.7728881835938
97,785.3113403320312,784.1025390625,792.967041015625,796.1904907226562
98,789.7435913085938,787.3259887695312,791.3552856445312,794.1758422851562
99,793.7728881835938,792.967041015625,794.5787353515625,794.1758422851562
100,790.952392578125,790.5494384765625,794.1758422851562,793.3699340820312
101,790.952392578125,788.5347900390625,794.1758422851562,795.7875366210938
102,788.1318969726562,786.923095703125,790.5494384765625,788.937744140625
103,784.908447265625,787.7289428710938,786.5201416015625,780.0732421875
104,784.908447265625,781.6849975585938,789.7435913085938,789.3406372070312
105,786.1171875,782.893798828125,788.5347900390625,795.3846435546875
106,791.7582397460938,791.3552856445312,790.1465454101562,797.3992919921875
107,789.7435913085938,789.7435913085938,789.3406372070312,799.4139404296875
108,786.923095703125,786.1171875,786.1171875,793.3699340820312
109,794.1758422851562,786.923095703125,784.1025390625,799.4139404296875
110,794.5787353515625,786.5201416015625,787.3259887695312,798.2051391601562
111,786.1171875,783.6996459960938,794.1758422851562,792.5640869140625
112,788.5347900390625,786.923095703125,794.5787353515625,796.996337890625
113,792.967041015625,794.1758422851562,793.3699340820312,800.6226806640625
114,792.5640869140625,796.1904907226562,795.3846435546875,800.6226806640625
115,797.3992919921875,793.3699340820312,798.2051391601562,796.5933837890625
116,800.2197875976562,795.3846435546875,794.5787353515625,800.6226806640625
117,793.3699340820312,796.996337890625,787.7289428710938,804.6520385742188
118,792.1611938476562,791.7582397460938,790.5494384765625,806.2637329101562
119,798.2051391601562,790.5494384765625,796.5933837890625,803.4432373046875
120,800.6226806640625,792.1611938476562,796.5933837890625,799.010986328125
121,796.1904907226562,794.5787353515625,798.6080322265625,801.8314819335938
122,795.7875366210938,794.1758422851562,799.010986328125,802.2344360351562
123,796.1904907226562,792.5640869140625,799.4139404296875,803.040283203125
124,794.1758422851562,797.3992919921875,801.4285888671875,805.8607788085938
125,801.025634765625,794.1758422851562,799.8168334960938,814.7252807617188
126,796.1904907226562,790.952392578125,801.8314819335938,807.87548828125
127,792.5640869140625,791.3552856445312,807.069580078125,802.6373901367188
128,802.6373901367188,795.3846435546875,805.4578857421875,806.6666870117188
129,807.4725341796875,791.3552856445312,803.040283203125,807.87548828125
130,808.2783813476562,788.937744140625,800.6226806640625,807.87548828125
131,804.6520385742188,792.1611938476562,796.5933837890625,801.8314819335938
132,796.996337890625,788.937744140625,794.981689453125,798.2051391601562
133,794.5787353515625,790.952392578125,793.7728881835938,795.7875366210938
134,801.025634765625,792.967041015625,798.2051391601562,796.5933837890625
135,803.8461303710938,792.5640869140625,800.2197875976562,796.5933837890625
136,800.6226806640625,792.1611938476562,799.4139404296875,795.7875366210938
137,795.3846435546875,793.3699340820312,796.5933837890625,796.5933837890625
138,790.5494384765625,794.1758422851562,796.1904907226562,792.967041015625
139,792.967041015625,790.1465454101562,795.7875366210938,794.1758422851562
140,795.7875366210938,792.1611938476562,792.967041015625,796.996337890625
141,794.981689453125,795.3846435546875,796.5933837890625,797.3992919921875
142,789.7435913085938,790.952392578125,794.5787353515625,789.7435913085938
143,794.1758422851562,790.1465454101562,791.7582397460938,788.1318969726562
144,800.2197875976562,788.1318969726562,791.7582397460938,785.7142944335938
145,794.5787353515625,786.5201416015625,792.967041015625,783.2966918945312
146,791.3552856445312,783.6996459960938,798.2051391601562,791.3552856445312
147,791.3552856445312,785.7142944335938,796.5933837890625,793.3699340820312
148,790.1465454101562,794.5787353515625,793.3699340820312,795.7875366210938
149,781.2820434570312,792.1611938476562,792.1611938476562,784.908447265625
150,782.087890625,788.1318969726562,790.1465454101562,782.4908447265625
151,790.5494384765625,791.7582397460938,789.7435913085938,796.5933837890625
152,792.1611938476562,793.3699340820312,794.5787353515625,805.054931640625
153,790.5494384765625,792.967041015625,797.8021850585938,804.2490844726562
154,790.1465454101562,790.5494384765625,792.967041015625,798.2051391601562
155,794.981689453125,789.7435913085938,790.952392578125,792.1611938476562
156,796.5933837890625,792.1611938476562,793.7728881835938,794.5787353515625
157,792.1611938476562,786.1171875,792.5640869140625,797.3992919921875
158,784.5054931640625,783.6996459960938,789.3406372070312,792.5640869140625
159,784.5054931640625,789.7435913085938,788.5347900390625,796.996337890625
160,791.7582397460938,797.8021850585938,790.952392578125,799.8168334960938
161,796.5933837890625,799.8168334960938,795.7875366210938,790.5494384765625
162,792.5640869140625,794.5787353515625,796.996337890625,786.923095703125
163,790.5494384765625,790.1465454101562,799.4139404296875,787.3259887695312
164,796.5933837890625,785.7142944335938,796.996337890625,793.7728881835938
165,794.981689453125,786.5201416015625,796.1904907226562,800.6226806640625
166,796.5933837890625,792.967041015625,799.010986328125,808.2783813476562
167,797.8021850585938,792.967041015625,800.6226806640625,807.87548828125
168,789.3406372070312,788.1318969726562,796.5933837890625,794.981689453125
169,786.923095703125,787.7289428710938,790.5494384765625,789.3406372070312
170,788.937744140625,788.937744140625,791.7582397460938,790.952392578125
171,782.4908447265625,785.3113403320312,794.5787353515625,792.967041015625
172,780.0732421875,788.1318969726562,795.7875366210938,788.937744140625
173,784.908447265625,795.3846435546875,799.4139404296875,790.952392578125
174,790.1465454101562,790.5494384765625,799.010986328125,790.5494384765625
175,790.5494384765625,788.1318969726562,797.8021850585938,787.3259887695312
176,791.3552856445312,792.5640869140625,802.2344360351562,787.7289428710938
177,793.3699340820312,793.3699340820312,803.040283203125,793.3699340820312
178,789.7435913085938,790.952392578125,800.2197875976562,795.7875366210938
179,785.7142944335938,790.5494384765625,799.8168334960938,792.967041015625
180,784.5054931640625,786.923095703125,797.3992919921875,788.5347900390625
181,790.1465454101562,781.6849975585938,792.1611938476562,786.5201416015625
182,792.967041015625,784.908447265625,789.3406372070312,790.952392578125
183,794.981689453125,790.5494384765625,794.981689453125,792.967041015625
184,787.7289428710938,794.1758422851562,799.010986328125,781.6849975585938
185,789.7435913085938,793.3699340820312,794.981689453125,785.7142944335938
186,794.981689453125,788.5347900390625,792.967041015625,795.3846435546875
187,790.5494384765625,791.7582397460938,791.3552856445312,792.1611938476562
188,790.952392578125,793.3699340820312,788.937744140625,794.1758422851562
189,790.1465454101562,787.7289428710938,785.7142944335938,792.967041015625
190,789.7435913085938,788.1318969726562,788.937744140625,789.7435913085938
191,790.952392578125,788.1318969726562,794.5787353515625,795.7875366210938
192,793.3699340820312,790.1465454101562,797.8021850585938,799.4139404296875
193,792.967041015625,791.7582397460938,796.5933837890625,800.6226806640625
194,793.3699340820312,791.3552856445312,797.8021850585938,801.8314819335938
195,796.1904907226562,792.967041015625,802.2344360351562,794.5787353515625
196,793.7728881835938,793.3699340820312,800.2197875976562,789.3406372070312
197,796.1904907226562,795.7875366210938,797.3992919921875,800.2197875976562
198,800.2197875976562,795.7875366210938,794.5787353515625,801.4285888671875
199,792.5640869140625,793.7728881835938,790.5494384765625,793.3699340820312
200,791.3552856445312,794.1758422851562,787.7289428710938,791.3552856445312
201,797.8021850585938,797.3992919921875,791.7582397460938,794.1758422851562
202,800.6226806640625,794.981689453125,796.5933837890625,795.7875366210938
203,797.3992919921875,790.1465454101562,796.1904907226562,794.5787353515625
204,799.010986328125,789.3406372070312,793.3699340820312,796.996337890625
205,796.1904907226562,784.908447265625,786.923095703125,796.5933837890625
206,798.6080322265625,784.1025390625,786.5201416015625,794.1758422851562
207,803.4432373046875,786.1171875,789.3406372070312,800.6226806640625
208,801.025634765625,787.3259887695312,791.7582397460938,802.2344360351562
209,801.8314819335938,789.3406372070312,796.1904907226562,800.6226806640625
210,801.4285888671875,794.1758422851562,797.8021850585938,801.4285888671875
211,798.6080322265625,796.5933837890625,799.8168334960938,794.981689453125
212,801.4285888671875,793.7728881835938,798.2051391601562,796.1904907226562
213,797.3992919921875,792.5640869140625,796.5933837890625,803.040283203125
214,789.7435913085938,791.3552856445312,799.4139404296875,802.2344360351562
215,788.1318969726562,791.7582397460938,799.8168334960938,792.967041015625
216,790.5494384765625,794.1758422851562,801.4285888671875,791.7582397460938
217,790.5494384765625,794.1758422851562,801.8314819335938,797.3992919921875
218,792.967041015625,792.5640869140625,801.8314819335938,803.040283203125
219,794.5787353515625,792.967041015625,799.010986328125,795.3846435546875
220,793.3699340820312,792.5640869140625,796.1904907226562,792.5640869140625
221,792.1611938476562,790.952392578125,796.996337890625,804.6520385742188
222,793.7728881835938,793.7728881835938,799.010986328125,801.4285888671875
223,803.4432373046875,798.6080322265625,797.8021850585938,794.1758422851562
224,807.4725341796875,798.6080322265625,798.2051391601562,794.1758422851562
225,808.6813354492188,797.3992919921875,798.6080322265625,796.1904907226562
226,803.8461303710938,796.996337890625,795.3846435546875,792.5640869140625
227,796.996337890625,794.1758422851562,796.5933837890625,788.937744140625
228,795.3846435546875,790.1465454101562,791.7582397460938,788.1318969726562
229,797.3992919921875,790.1465454101562,789.7435913085938,788.1318969726562
230,804.2490844726562,791.3552856445312,790.5494384765625,792.967041015625
231,804.2490844726562,793.3699340820312,793.3699340820312,794.981689453125
232,799.8168334960938,794.981689453125,794.5787353515625,794.1758422851562
233,799.8168334960938,796.996337890625,793.7728881835938,796.5933837890625
234,796.996337890625,799.4139404296875,794.1758422851562,791.7582397460938
235,790.5494384765625,796.996337890625,793.3699340820312,785.3113403320312
236,792.967041015625,796.996337890625,792.967041015625,794.1758422851562
237,801.8314819335938,799.8168334960938,796.5933837890625,794.5787353515625
238,800.2197875976562,798.2051391601562,799.8168334960938,785.7142944335938
239,796.996337890625,796.1904907226562,796.5933837890625,792.5640869140625
240,796.1904907226562,798.6080322265625,792.1611938476562,794.981689453125
241,796.1904907226562,797.8021850585938,792.967041015625,795.7875366210938
242,801.025634765625,792.5640869140625,796.5933837890625,797.8021850585938
243,799.4139404296875,789.7435913085938,794.5787353515625,798.2051391601562
244,793.7728881835938,791.3552856445312,787.3259887695312,796.5933837890625
245,793.7728881835938,794.5787353515625,787.3259887695312,790.952392578125
246,791.7582397460938,794.981689453125,790.1465454101562,793.3699340820312
247,793.3699340820312,790.952392578125,790.952392578125,797.3992919921875
248,793.7728881835938,788.5347900390625,794.5787353515625,797.3992919921875
249,789.7435913085938,788.937744140625,796.5933837890625,794.5787353515625
250,794.5787353515625,792.1611938476562,797.3992919921875,798.2051391601562
251,802.2344360351562,793.7728881835938,802.2344360351562,800.2197875976562
252,806.6666870117188,793.3699340820312,802.6373901367188,798.6080322265625
253,806.6666870117188,795.3846435546875,799.010986328125,799.4139404296875
254,803.4432373046875,794.5787353515625,793.7728881835938,799.4139404296875
255,803.040283203125,792.967041015625,792.1611938476562,805.4578857421875
256,800.2197875976562,792.1611938476562,795.3846435546875,801.8314819335938
257,796.996337890625,792.967041015625,798.6080322265625,797.8021850585938
258,796.5933837890625,792.1611938476562,803.4432373046875,800.2197875976562
259,799.8168334960938,788.1318969726562,805.8607788085938,803.040283203125
260,800.6226806640625,786.923095703125,803.040283203125,806.6666870117188
261,791.3552856445312,793.7728881835938,797.3992919921875,797.3992919921875
262,784.908447265625,796.5933837890625,792.1611938476562,787.3259887695312
263,784.908447265625,790.952392578125,792.5640869140625,791.3552856445312
264,785.3113403320312,790.5494384765625,794.981689453125,794.5787353515625
265,790.1465454101562,791.7582397460938,797.3992919921875,797.3992919921875
266,793.3699340820312,791.7582397460938,798.2051391601562,805.4578857421875
267,789.3406372070312,793.3699340820312,798.2051391601562,807.069580078125
268,790.952392578125,793.7728881835938,796.996337890625,801.4285888671875
269,801.025634765625,794.5787353515625,796.1904907226562,805.4578857421875
270,804.6520385742188,796.996337890625,795.7875366210938,807.069580078125
271,803.040283203125,793.7728881835938,797.8021850585938,806.2637329101562
272,803.8461303710938,792.5640869140625,799.010986328125,807.87548828125
273,808.6813354492188,797.8021850585938,799.010986328125,806.2637329101562
274,806.6666870117188,793.3699340820312,795.3846435546875,808.2783813476562
275,797.8021850585938,790.1465454101562,791.7582397460938,803.8461303710938
276,795.3846435546875,792.1611938476562,794.1758422851562,800.2197875976562
277,795.7875366210938,789.3406372070312,792.967041015625,805.8607788085938
278,792.967041015625,783.2966918945312,792.1611938476562,806.2637329101562
279,793.3699340820312,784.1025390625,795.3846435546875,808.2783813476562
280,794.1758422851562,787.7289428710938,798.2051391601562,804.2490844726562
281,798.6080322265625,790.1465454101562,794.981689453125,795.7875366210938
282,796.996337890625,791.3552856445312,794.5787353515625,795.7875366210938
283,788.937744140625,786.923095703125,799.8168334960938,794.981689453125
284,789.7435913085938,783.2966918945312,799.010986328125,792.1611938476562
285,791.3552856445312,780.4761962890625,794.981689453125,796.1904907226562
286,790.5494384765625,778.05859375,794.981689453125,790.5494384765625
287,789.7435913085938,783.2966918945312,796.1904907226562,785.3113403320312
288,787.3259887695312,779.2673950195312,799.010986328125,786.1171875
289,789.7435913085938,778.8644409179688,795.7875366210938,786.5201416015625
290,795.7875366210938,787.7289428710938,792.967041015625,790.952392578125
291,796.996337890625,788.937744140625,796.996337890625,787.3259887695312
292,799.010986328125,789.7435913085938,796.996337890625,788.1318969726562
293,799.4139404296875,788.5347900390625,796.996337890625,794.1758422851562
294,801.025634765625,791.3552856445312,799.010986328125,804.6520385742188
295,796.996337890625,793.7728881835938,799.010986328125,799.4139404296875
296,790.5494384765625,793.3699340820312,799.010986328125,794.981689453125
297,788.5347900390625,794.981689453125,801.4285888671875,803.040283203125
298,790.952392578125,795.7875366210938,801.025634765625,802.2344360351562
299,792.967041015625,793.3699340820312,797.8021850585938,797.8021850585938
300,796.996337890625,791.3552856445312,800.6226806640625,795.7875366210938
301,801.4285888671875,791.3552856445312,802.6373901367188,800.6226806640625
302,800.6226806640625,790.952392578125,799.010986328125,800.6226806640625
303,796.5933837890625,793.3699340820312,798.2051391601562,798.6080322265625
304,794.5787353515625,792.5640869140625,799.8168334960938,799.8168334960938
305,801.025634765625,795.3846435546875,800.6226806640625,807.069580078125
306,796.5933837890625,801.8314819335938,799.8168334960938,804.6520385742188
307,785.7142944335938,799.010986328125,796.1904907226562,791.7582397460938
308,785.3113403320312,798.2051391601562,799.8168334960938,790.952392578125
309,784.1025390625,791.3552856445312,799.8168334960938,792.1611938476562
310,788.1318969726562,786.5201416015625,796.5933837890625,790.952392578125
311,788.937744140625,790.5494384765625,796.1904907226562,786.1171875
312,787.3259887695312,788.937744140625,797.3992919921875,791.3552856445312
313,789.3406372070312,789.3406372070312,796.996337890625,794.981689453125
314,793.3699340820312,790.1465454101562,794.1758422851562,795.3846435546875
315,792.5640869140625,786.5201416015625,798.2051391601562,800.6226806640625
316,793.7728881835938,784.1025390625,800.2197875976562,801.8314819335938
317,803.040283203125,788.937744140625,799.010986328125,802.6373901367188
318,797.8021850585938,792.1611938476562,800.2197875976562,795.7875366210938
319,789.3406372070312,786.923095703125,796.5933837890625,790.5494384765625
320,800.2197875976562,784.908447265625,796.5933837890625,796.5933837890625
321,805.4578857421875,786.1171875,798.6080322265625,802.2344360351562
322,800.6226806640625,788.937744140625,802.2344360351562,796.1904907226562
323,803.040283203125,788.1318969726562,800.6226806640625,794.1758422851562
324,807.069580078125,784.1025390625,796.996337890625,799.8168334960938
325,805.4578857421875,787.7289428710938,799.010986328125,796.1904907226562
326,799.010986328125,787.7289428710938,797.3992919921875,793.7728881835938
327,794.1758422851562,786.5201416015625,796.5933837890625,795.3846435546875
328,791.3552856445312,787.3259887695312,795.3846435546875,800.6226806640625
329,789.3406372070312,786.5201416015625,794.5787353515625,802.6373901367188
330,783.2966918945312,788.937744140625,796.996337890625,792.1611938476562
331,781.2820434570312,790.952392578125,794.1758422851562,788.5347900390625
332,783.2966918945312,791.3552856445312,792.5640869140625,794.5787353515625
333,782.087890625,788.937744140625,790.1465454101562,791.7582397460938
334,781.6849975585938,788.5347900390625,787.3259887695312,786.923095703125
335,791.7582397460938,788.937744140625,790.1465454101562,789.7435913085938
336,794.5787353515625,786.923095703125,792.967041015625,794.981689453125
337,795.3846435546875,788.5347900390625,794.5787353515625,792.1611938476562
338,800.6226806640625,789.3406372070312,796.1904907226562,788.5347900390625
339,796.5933837890625,790.1465454101562,793.3699340820312,790.5494384765625
340,796.996337890625,791.3552856445312,790.5494384765625,790.1465454101562
341,794.981689453125,789.7435913085938,788.1318969726562,780.879150390625
342,794.981689453125,792.1611938476562,787.3259887695312,779.6703491210938
343,800.6226806640625,794.981689453125,792.5640869140625,789.3406372070312
344,792.967041015625,787.3259887695312,794.1758422851562,789.7435913085938
345,788.937744140625,781.6849975585938,793.7728881835938,787.3259887695312
346,798.2051391601562,788.937744140625,796.1904907226562,792.1611938476562
347,801.4285888671875,792.967041015625,801.8314819335938,794.981689453125
348,804.2490844726562,793.3699340820312,800.2197875976562,795.3846435546875
349,805.054931640625,795.7875366210938,800.2197875976562,793.3699340820312
350,799.010986328125,795.3846435546875,798.6080322265625,796.1904907226562
351,800.6226806640625,793.3699340820312,795.3846435546875,809.084228515625
352,801.025634765625,796.996337890625,799.010986328125,813.91943359375
353,795.7875366210938,796.1904907226562,799.010986328125,801.4285888671875
354,792.1611938476562,794.5787353515625,795.7875366210938,797.8021850585938
355,789.3406372070312,794.981689453125,794.5787353515625,798.6080322265625
356,790.952392578125,793.3699340820312,792.1611938476562,800.6226806640625
357,790.5494384765625,792.1611938476562,790.952392578125,803.8461303710938
358,790.952392578125,793.3699340820312,794.5787353515625,799.010986328125
359,793.7728881835938,793.7728881835938,797.3992919921875,798.6080322265625
360,796.1904907226562,792.967041015625,796.5933837890625,797.3992919921875
361,796.996337890625,793.7728881835938,794.1758422851562,796.1904907226562
362,793.7728881835938,788.937744140625,795.7875366210938,797.8021850585938
363,796.1904907226562,789.3406372070312,791.7582397460938,809.084228515625
364,793.3699340820312,794.981689453125,795.3846435546875,805.4578857421875
365,790.952392578125,795.3846435546875,800.2197875976562,792.967041015625
366,792.967041015625,798.2051391601562,796.996337890625,794.5787353515625
367,789.3406372070312,799.8168334960938,796.5933837890625,796.996337890625
368,785.7142944335938,799.4139404296875,799.4139404296875,798.6080322265625
369,784.908447265625,798.6080322265625,799.4139404296875,800.6226806640625
370,786.923095703125,797.3992919921875,796.1904907226562,796.5933837890625
371,792.1611938476562,794.981689453125,795.3846435546875,794.1758422851562
372,795.7875366210938,788.1318969726562,795.3846435546875,795.7875366210938
373,794.981689453125,789.3406372070312,795.3846435546875,794.981689453125
374,791.3552856445312,795.3846435546875,791.3552856445312,797.8021850585938
375,788.1318969726562,797.3992919921875,792.967041015625,803.4432373046875
376,786.923095703125,801.4285888671875,794.1758422851562,798.6080322265625
377,788.5347900390625,802.2344360351562,795.3846435546875,789.3406372070312
378,786.923095703125,801.4285888671875,798.6080322265625,789.7435913085938
379,782.4908447265625,798.2051391601562,795.7875366210938,792.5640869140625
380,789.7435913085938,794.5787353515625,796.5933837890625,793.3699340820312
381,799.010986328125,791.3552856445312,799.4139404296875,797.8021850585938
382,794.5787353515625,794.981689453125,799.8168334960938,799.8168334960938
383,794.5787353515625,800.6226806640625,804.6520385742188,800.6226806640625
384,797.3992919921875,799.4139404296875,808.2783813476562,799.010986328125
385,795.7875366210938,794.5787353515625,808.2783813476562,800.2197875976562
386,795.3846435546875,791.7582397460938,807.4725341796875,805.054931640625
387,797.8021850585938,792.5640869140625,804.6520385742188,797.8021850585938
388,798.2051391601562,792.5640869140625,801.8314819335938,797.8021850585938
389,799.4139404296875,792.5640869140625,799.8168334960938,802.6373901367188
390,794.981689453125,795.7875366210938,798.2051391601562,794.981689453125
391,790.952392578125,795.7875366210938,796.5933837890625,792.1611938476562
392,790.1465454101562,793.7728881835938,794.981689453125,791.3552856445312
393,787.3259887695312,792.1611938476562,794.1758422851562,795.7875366210938
394,790.952392578125,792.967041015625,792.1611938476562,798.6080322265625
395,793.7728881835938,794.981689453125,794.981689453125,792.5640869140625
396,790.952392578125,791.7582397460938,796.1904907226562,788.5347900390625
397,786.1171875,792.967041015625,792.1611938476562,787.7289428710938
398,786.1171875,797.8021850585938,793.7728881835938,788.5347900390625
399,790.1465454101562,796.996337890625,800.6226806640625,792.967041015625
400,790.5494384765625,800.6226806640625,802.2344360351562,791.7582397460938
401,790.5494384765625,799.8168334960938,800.2197875976562,795.7875366210938
402,798.6080322265625,800.2197875976562,803.4432373046875,799.4139404296875
403,796.5933837890625,801.025634765625,803.4432373046875,791.7582397460938
404,790.1465454101562,794.981689453125,797.8021850585938,792.967041015625
405,792.967041015625,795.3846435546875,799.4139404296875,797.8021850585938
406,797.8021850585938,799.4139404296875,801.8314819335938,800.6226806640625
407,798.6080322265625,798.2051391601562,802.6373901367188,805.4578857421875
408,801.8314819335938,790.1465454101562,800.2197875976562,807.87548828125
409,799.4139404296875,789.7435913085938,795.3846435546875,805.054931640625
410,794.5787353515625,793.3699340820312,795.3846435546875,797.8021850585938
411,795.7875366210938,794.1758422851562,796.996337890625,793.7728881835938
412,797.8021850585938,795.3846435546875,797.8021850585938,796.1904907226562
413,798.6080322265625,796.996337890625,797.8021850585938,795.7875366210938
414,794.981689453125,800.6226806640625,803.040283203125,791.3552856445312
415,793.7728881835938,797.8021850585938,804.2490844726562,794.5787353515625
416,798.2051391601562,794.1758422851562,801.8314819335938,794.1758422851562
417,800.6226806640625,796.1904907226562,798.6080322265625,792.1611938476562
418,792.967041015625,797.8021850585938,799.4139404296875,791.7582397460938
419,789.7435913085938,792.967041015625,799.010986328125,792.5640869140625
420,790.5494384765625,792.967041015625,796.996337890625,796.996337890625
421,792.967041015625,798.2051391601562,799.010986328125,796.996337890625
422,793.7728881835938,793.3699340820312,797.3992919921875,789.7435913085938
423,792.967041015625,791.7582397460938,798.2051391601562,784.5054931640625
424,796.5933837890625,790.952392578125,797.3992919921875,795.7875366210938
425,795.3846435546875,791.7582397460938,798.6080322265625,800.6226806640625
426,792.1611938476562,798.6080322265625,802.2344360351562,792.967041015625
427,796.996337890625,800.2197875976562,801.025634765625,797.8021850585938
428,799.010986328125,794.981689453125,800.2197875976562,802.6373901367188
429,795.7875366210938,790.952392578125,800.2197875976562,798.6080322265625
430,793.7728881835938,793.7728881835938,799.010986328125,795.3846435546875
431,793.7728881835938,792.5640869140625,795.7875366210938,795.7875366210938
432,795.3846435546875,788.5347900390625,795.7875366210938,796.5933837890625
433,797.8021850585938,789.3406372070312,796.996337890625,801.8314819335938
434,798.2051391601562,793.3699340820312,795.7875366210938,799.8168334960938
435,799.4139404296875,794.1758422851562,794.5787353515625,804.6520385742188
436,795.3846435546875,794.1758422851562,792.5640869140625,810.2930297851562
437,795.3846435546875,791.3552856445312,794.5787353515625,807.4725341796875
438,803.040283203125,789.3406372070312,797.8021850585938,804.2490844726562
439,804.2490844726562,790.5494384765625,795.7875366210938,801.4285888671875
440,801.8314819335938,788.937744140625,792.1611938476562,796.996337890625
441,799.8168334960938,790.952392578125,793.3699340820312,790.952392578125
442,796.996337890625,792.967041015625,791.7582397460938,788.937744140625
443,801.8314819335938,790.952392578125,789.7435913085938,792.1611938476562
444,811.098876953125,794.1758422851562,790.5494384765625,805.4578857421875
445,805.4578857421875,794.1758422851562,790.5494384765625,798.6080322265625
446,802.2344360351562,792.5640869140625,792.5640869140625,790.952392578125
447,802.6373901367188,792.967041015625,789.7435913085938,797.8021850585938
448,801.8314819335938,788.937744140625,785.7142944335938,797.3992919921875
449,797.8021850585938,788.5347900390625,791.7582397460938,792.967041015625
450,792.5640869140625,788.5347900390625,791.7582397460938,794.981689453125
451,792.1611938476562,787.7289428710938,788.937744140625,797.8021850585938
452,795.7875366210938,790.5494384765625,792.5640869140625,797.8021850585938
453,800.6226806640625,793.3699340820312,790.5494384765625,799.4139404296875
454,799.4139404296875,796.5933837890625,788.5347900390625,801.025634765625
455,790.5494384765625,796.996337890625,794.5787353515625,800.2197875976562
456,790.5494384765625,794.5787353515625,798.6080322265625,803.040283203125
457,798.2051391601562,794.1758422851562,796.5933837890625,804.6520385742188
458,796.996337890625,790.5494384765625,791.7582397460938,801.025634765625
459,796.996337890625,788.1318969726562,789.7435913085938,801.025634765625
460,795.7875366210938,796.1904907226562,791.3552856445312,794.981689453125
461,796.5933837890625,799.4139404296875,793.3699340820312,786.5201416015625
462,800.2197875976562,799.4139404296875,790.1465454101562,790.1465454101562
463,799.4139404296875,796.5933837890625,789.7435913085938,794.5787353515625
464,805.054931640625,792.5640869140625,794.981689453125,795.3846435546875
465,807.069580078125,793.3699340820312,795.7875366210938,796.5933837890625
466,803.8461303710938,794.5787353515625,798.2051391601562,797.8021850585938
467,801.025634765625,794.5787353515625,796.996337890625,798.2051391601562
468,801.025634765625,795.3846435546875,794.981689453125,798.6080322265625
469,803.4432373046875,796.5933837890625,796.1904907226562,794.981689453125
470,794.981689453125,793.3699340820312,791.7582397460938,792.967041015625
471,789.7435913085938,790.952392578125,790.1465454101562,791.7582397460938
472,790.1465454101562,793.3699340820312,792.1611938476562,786.5201416015625
473,790.1465454101562,790.952392578125,791.3552856445312,788.937744140625
474,790.5494384765625,793.3699340820312,794.981689453125,796.5933837890625
475,794.1758422851562,793.7728881835938,797.8021850585938,792.5640869140625
476,794.1758422851562,795.3846435546875,798.2051391601562,786.923095703125
477,794.5787353515625,797.8021850585938,797.8021850585938,792.5640869140625
478,794.1758422851562,798.6080322265625,795.7875366210938,792.1611938476562
479,792.967041015625,798.6080322265625,792.1611938476562,783.6996459960938
480,795.3846435546875,794.5787353515625,792.5640869140625,788.937744140625
481,789.3406372070312,796.5933837890625,794.5787353515625,794.981689453125
482,785.7142944335938,797.3992919921875,792.967041015625,794.1758422851562
483,792.967041015625,798.2051391601562,795.7875366210938,796.5933837890625
484,796.996337890625,798.6080322265625,797.3992919921875,801.025634765625
485,788.5347900390625,794.5787353515625,799.8168334960938,797.3992919921875
486,784.908447265625,797.8021850585938,799.8168334960938,789.3406372070312
487,784.1025390625,803.8461303710938,792.967041015625,776.8497924804688
488,787.3259887695312,796.996337890625,788.1318969726562,771.6116943359375
489,796.5933837890625,791.7582397460938,789.7435913085938,778.05859375
490,799.4139404296875,792.5640869140625,796.1904907226562,786.1171875
491,790.952392578125,793.3699340820312,798.2051391601562,783.6996459960938
492,787.3259887695312,794.981689453125,800.2197875976562,778.8644409179688
493,791.7582397460938,792.5640869140625,801.025634765625,790.952392578125
494,788.5347900390625,790.952392578125,797.8021850585938,794.981689453125
495,783.2966918945312,791.3552856445312,797.3992919921875,787.7289428710938
496,787.7289428710938,785.7142944335938,796.996337890625,791.7582397460938
497,792.1611938476562,788.5347900390625,794.5787353515625,792.967041015625
498,790.952392578125,792.5640869140625,796.996337890625,793.7728881835938
499,794.981689453125,791.3552856445312,800.6226806640625,799.010986328125
500,803.040283203125,790.1465454101562,799.4139404296875,798.2051391601562
501,796.996337890625,788.1318969726562,796.5933837890625,795.3846435546875
502,788.1318969726562,788.5347900390625,800.2197875976562,799.010986328125
503,786.923095703125,790.1465454101562,801.025634765625,799.8168334960938
504,791.3552856445312,785.3113403320312,799.010986328125,801.4285888671875
505,792.1611938476562,784.1025390625,801.4285888671875,805.054931640625
506,787.7289428710938,787.7289428710938,796.996337890625,801.025634765625
507,785.3113403320312,787.7289428710938,794.981689453125,794.5787353515625
508,790.5494384765625,786.923095703125,795.7875366210938,796.1904907226562
509,793.3699340820312,784.1025390625,789.7435913085938,799.4139404296875
510,793.3699340820312,786.5201416015625,788.937744140625,787.3259887695312
511,791.7582397460938,784.1025390625,792.967041015625,780.879150390625
512,784.908447265625,785.7142944335938,791.7582397460938,788.5347900390625
513,779.2673950195312,785.7142944335938,792.5640869140625,793.3699340820312
514,775.6410522460938,777.6557006835938,792.1611938476562,792.5640869140625
515,777.6557006835938,780.0732421875,792.967041015625,796.996337890625
516,784.908447265625,784.908447265625,790.1465454101562,799.8168334960938
517,790.952392578125,789.3406372070312,791.3552856445312,796.5933837890625
518,790.1465454101562,788.937744140625,794.981689453125,797.3992919921875
519,792.5640869140625,786.923095703125,793.7728881835938,796.5933837890625
520,796.5933837890625,785.3113403320312,793.7728881835938,801.4285888671875
521,795.7875366210938,786.5201416015625,793.7728881835938,802.6373901367188
522,798.2051391601562,792.5640869140625,797.3992919921875,794.981689453125
523,799.4139404296875,794.981689453125,799.010986328125,797.3992919921875
524,796.1904907226562,794.1758422851562,796.996337890625,799.010986328125
525,797.3992919921875,796.996337890625,799.8168334960938,802.2344360351562
526,797.3992919921875,796.1904907226562,801.4285888671875,805.4578857421875
527,794.1758422851562,793.7728881835938,799.010986328125,801.4285888671875
528,794.981689453125,794.5787353515625,795.3846435546875,798.6080322265625
529,795.3846435546875,786.923095703125,798.2051391601562,794.981689453125
530,794.1758422851562,786.1171875,799.8168334960938,786.923095703125
531,799.8168334960938,790.952392578125,796.996337890625,786.923095703125
532,801.025634765625,790.952392578125,795.7875366210938,799.010986328125
533,796.5933837890625,793.3699340820312,795.3846435546875,796.1904907226562
534,790.5494384765625,792.1611938476562,794.1758422851562,786.1171875
535,794.981689453125,794.5787353515625,794.5787353515625,791.3552856445312
536,800.6226806640625,799.8168334960938,796.996337890625,798.2051391601562
537,797.3992919921875,795.3846435546875,796.5933837890625,799.8168334960938
538,802.6373901367188,790.1465454101562,800.2197875976562,808.2783813476562
539,809.084228515625,795.3846435546875,795.7875366210938,808.6813354492188
540,802.6373901367188,802.6373901367188,786.5201416015625,799.010986328125
541,787.3259887695312,788.1318969726562,788.5347900390625,786.1171875
542,784.908447265625,780.879150390625,792.5640869140625,781.6849975585938
543,795.3846435546875,788.1318969726562,791.7582397460938,792.1611938476562
544,801.8314819335938,791.7582397460938,792.967041015625,799.4139404296875
545,797.8021850585938,796.996337890625,792.1611938476562,794.5787353515625
546,790.5494384765625,794.1758422851562,792.1611938476562,789.3406372070312
547,784.5054931640625,786.923095703125,795.7875366210938,788.1318969726562
548,785.3113403320312,787.7289428710938,796.996337890625,786.923095703125
549,786.5201416015625,788.937744140625,796.1904907226562,785.7142944335938
550,787.7289428710938,788.5347900390625,791.7582397460938,786.1171875
551,793.7728881835938,788.1318969726562,788.937744140625,788.5347900390625
552,795.3846435546875,792.967041015625,796.1904907226562,793.3699340820312
553,798.6080322265625,793.3699340820312,796.1904907226562,794.981689453125
554,796.1904907226562,789.3406372070312,793.3699340820312,793.3699340820312
555,796.5933837890625,790.952392578125,794.5787353515625,802.2344360351562
556,794.1758422851562,790.952392578125,797.3992919921875,800.2197875976562
557,789.7435913085938,790.1465454101562,796.5933837890625,793.3699340820312
558,792.967041015625,789.3406372070312,793.3699340820312,797.8021850585938
559,796.5933837890625,786.5201416015625,795.7875366210938,797.8021850585938
560,792.967041015625,789.3406372070312,791.7582397460938,787.3259887695312
561,788.1318969726562,788.5347900390625,788.1318969726562,779.6703491210938
562,794.1758422851562,782.893798828125,790.5494384765625,793.3699340820312
563,793.3699340820312,785.3113403320312,789.3406372070312,797.3992919921875
564,787.7289428710938,783.6996459960938,790.952392578125,792.5640869140625
565,792.967041015625,780.4761962890625,794.5787353515625,796.5933837890625
566,796.996337890625,786.5201416015625,791.7582397460938,797.3992919921875
567,795.7875366210938,792.5640869140625,792.5640869140625,798.6080322265625
568,794.5787353515625,791.7582397460938,795.7875366210938,794.981689453125
569,794.1758422851562,792.967041015625,801.4285888671875,794.981689453125
570,795.3846435546875,792.967041015625,801.4285888671875,791.7582397460938
571,801.025634765625,790.1465454101562,797.8021850585938,788.5347900390625
572,802.6373901367188,794.5787353515625,803.040283203125,795.7875366210938
573,801.4285888671875,800.6226806640625,801.8314819335938,801.025634765625
574,801.025634765625,799.8168334960938,800.2197875976562,799.4139404296875
575,798.6080322265625,800.2197875976562,799.4139404296875,799.010986328125
576,796.5933837890625,803.4432373046875,797.8021850585938,797.8021850585938
577,799.010986328125,799.4139404296875,799.4139404296875,793.3699340820312
578,802.2344360351562,797.3992919921875,799.010986328125,806.2637329101562
579,797.3992919921875,797.3992919921875,799.8168334960938,807.4725341796875
580,795.3846435546875,796.996337890625,801.4285888671875,795.7875366210938
581,794.981689453125,796.5933837890625,796.5933837890625,801.025634765625
582,795.3846435546875,794.1758422851562,792.5640869140625,804.2490844726562
583,797.3992919921875,792.967041015625,793.3699340820312,801.4285888671875
584,798.6080322265625,795.7875366210938,794.5787353515625,799.4139404296875
585,796.1904907226562,797.8021850585938,792.967041015625,796.996337890625
586,792.1611938476562,794.981689453125,788.1318969726562,794.5787353515625
587,798.6080322265625,796.1904907226562,790.5494384765625,792.967041015625
588,801.8314819335938,798.6080322265625,795.3846435546875,791.7582397460938
589,799.8168334960938,796.1904907226562,791.3552856445312,793.7728881835938
590,795.7875366210938,797.3992919921875,788.937744140625,796.5933837890625
591,794.1758422851562,798.6080322265625,788.937744140625,797.8021850585938
592,796.996337890625,794.5787353515625,787.3259887695312,799.4139404296875
593,800.6226806640625,790.5494384765625,787.3259887695312,805.8607788085938
594,799.4139404296875,793.7728881835938,787.7289428710938,804.6520385742188
595,794.1758422851562,792.1611938476562,786.1171875,788.937744140625
596,797.3992919921875,786.923095703125,788.937744140625,790.5494384765625
597,797.8021850585938,787.3259887695312,791.7582397460938,797.3992919921875
598,790.952392578125,790.5494384765625,790.952392578125,788.1318969726562
599,794.981689453125,789.7435913085938,791.7582397460938,780.879150390625
600,799.4139404296875,788.1318969726562,791.3552856445312,787.7289428710938
601,800.2197875976562,789.3406372070312,790.952392578125,797.3992919921875
602,799.010986328125,795.3846435546875,795.3846435546875,798.2051391601562
603,794.5787353515625,797.8021850585938,792.5640869140625,799.8168334960938
604,795.3846435546875,788.937744140625,791.3552856445312,801.4285888671875
605,797.3992919921875,788.937744140625,796.996337890625,793.7728881835938
606,794.1758422851562,796.996337890625,796.5933837890625,789.7435913085938
607,790.5494384765625,796.5933837890625,794.5787353515625,787.3259887695312
608,803.4432373046875,796.5933837890625,794.5787353515625,799.4139404296875
609,808.6813354492188,796.996337890625,794.981689453125,805.054931640625
610,801.025634765625,796.1904907226562,796.996337890625,792.967041015625
611,800.6226806640625,794.1758422851562,796.996337890625,794.981689453125
612,801.025634765625,791.7582397460938,794.5787353515625,801.8314819335938
613,798.2051391601562,791.3552856445312,794.981689453125,799.4139404296875
614,796.996337890625,793.3699340820312,797.8021850585938,795.3846435546875
615,800.6226806640625,793.3699340820312,795.7875366210938,794.5787353515625
616,796.5933837890625,788.5347900390625,794.981689453125,796.996337890625
617,785.7142944335938,786.923095703125,798.6080322265625,796.996337890625
618,782.4908447265625,791.7582397460938,798.6080322265625,792.967041015625
619,788.1318969726562,790.5494384765625,792.1611938476562,796.5933837890625
620,790.952392578125,788.937744140625,792.5640869140625,798.6080322265625
621,790.1465454101562,796.1904907226562,798.2051391601562,795.7875366210938
622,793.7728881835938,797.3992919921875,799.8168334960938,794.981689453125
623,792.967041015625,792.1611938476562,797.8021850585938,795.7875366210938
624,786.5201416015625,782.893798828125,798.2051391601562,796.1904907226562
625,791.3552856445312,784.1025390625,800.6226806640625,797.3992919921875
626,795.7875366210938,792.1611938476562,799.8168334960938,794.5787353515625
627,790.1465454101562,789.7435913085938,799.8168334960938,793.7728881835938
628,792.967041015625,789.3406372070312,800.2197875976562,803.8461303710938
629,795.3846435546875,792.5640869140625,794.981689453125,804.2490844726562
630,792.967041015625,790.5494384765625,792.1611938476562,800.6226806640625
631,796.1904907226562,785.3113403320312,793.7728881835938,799.8168334960938
632,801.025634765625,788.5347900390625,794.5787353515625,802.6373901367188
633,795.7875366210938,789.3406372070312,794.5787353515625,801.4285888671875
634,793.3699340820312,787.7289428710938,793.3699340820312,797.8021850585938
635,796.5933837890625,788.5347900390625,795.3846435546875,798.2051391601562
636,794.5787353515625,787.7289428710938,795.3846435546875,790.952392578125
637,791.7582397460938,786.5201416015625,788.937744140625,785.7142944335938
638,788.5347900390625,787.7289428710938,790.952392578125,787.3259887695312
639,789.3406372070312,785.7142944335938,793.7728881835938,796.1904907226562
640,787.7289428710938,780.879150390625,793.3699340820312,797.8021850585938
641,783.2966918945312,783.2966918945312,793.3699340820312,790.1465454101562
642,783.6996459960938,786.5201416015625,792.1611938476562,789.7435913085938
643,786.5201416015625,775.2380981445312,794.5787353515625,790.5494384765625
644,788.5347900390625,774.4322509765625,799.4139404296875,786.923095703125
645,785.3113403320312,786.1171875,798.2051391601562,786.923095703125
646,782.893798828125,787.7289428710938,798.6080322265625,791.3552856445312
647,783.2966918945312,791.3552856445312,799.4139404296875,794.981689453125
648,778.8644409179688,789.3406372070312,800.6226806640625,792.967041015625
649,786.1171875,787.7289428710938,800.6226806640625,787.7289428710938
650,794.5787353515625,789.3406372070312,798.2051391601562,794.1758422851562
651,790.5494384765625,786.923095703125,799.4139404296875,807.069580078125
652,788.937744140625,790.952392578125,798.6080322265625,799.010986328125
653,792.1611938476562,791.3552856445312,796.5933837890625,786.5201416015625
654,791.3552856445312,789.3406372070312,796.5933837890625,782.4908447265625
655,787.7289428710938,792.1611938476562,795.3846435546875,784.5054931640625
656,785.3113403320312,792.1611938476562,794.5787353515625,786.5201416015625
657,783.6996459960938,786.1171875,793.7728881835938,789.3406372070312
658,789.7435913085938,788.1318969726562,794.5787353515625,798.2051391601562
659,792.5640869140625,792.5640869140625,795.3846435546875,797.3992919921875
660,790.1465454101562,791.7582397460938,794.981689453125,788.1318969726562
661,792.967041015625,790.5494384765625,793.3699340820312,790.1465454101562
662,792.967041015625,790.952392578125,793.7728881835938,801.8314819335938
663,790.1465454101562,789.3406372070312,795.7875366210938,801.8314819335938
664,794.981689453125,787.7289428710938,799.010986328125,798.6080322265625
665,800.2197875976562,790.1465454101562,799.010986328125,803.4432373046875
666,797.8021850585938,792.967041015625,801.025634765625,800.2197875976562
667,794.981689453125,792.967041015625,802.2344360351562,796.5933837890625
668,793.3699340820312,790.5494384765625,800.2197875976562,799.010986328125
669,794.5787353515625,788.937744140625,797.8021850585938,801.025634765625
670,800.6226806640625,793.7728881835938,795.3846435546875,797.8021850585938
671,794.981689453125,792.5640869140625,791.3552856445312,796.1904907226562
672,788.5347900390625,793.3699340820312,793.3699340820312,795.3846435546875
673,788.1318969726562,794.5787353515625,795.3846435546875,796.1904907226562
674,790.952392578125,793.7728881835938,794.981689453125,800.6226806640625
675,791.7582397460938,794.5787353515625,797.3992919921875,797.3992919921875
676,790.5494384765625,797.3992919921875,801.025634765625,794.5787353515625
677,792.967041015625,799.010986328125,803.4432373046875,799.8168334960938
678,789.7435913085938,792.5640869140625,797.3992919921875,793.7728881835938
679,787.7289428710938,788.937744140625,796.1904907226562,787.7289428710938
680,790.1465454101562,791.7582397460938,797.8021850585938,794.5787353515625
681,790.5494384765625,790.5494384765625,794.981689453125,796.1904907226562
682,786.1171875,791.3552856445312,792.1611938476562,794.5787353515625
683,783.6996459960938,794.981689453125,793.3699340820312,796.5933837890625
684,782.893798828125,791.3552856445312,795.7875366210938,794.1758422851562
685,782.893798828125,791.7582397460938,794.981689453125,792.1611938476562
686,784.1025390625,792.5640869140625,790.952392578125,790.5494384765625
687,790.1465454101562,794.5787353515625,791.7582397460938,792.5640869140625
688,792.1611938476562,795.7875366210938,794.981689453125,793.3699340820312
689,794.5787353515625,790.952392578125,794.5787353515625,794.1758422851562
690,797.3992919921875,789.3406372070312,792.5640869140625,799.8168334960938
691,792.967041015625,788.1318969726562,790.952392578125,790.5494384765625
692,793.7728881835938,783.2966918945312,791.3552856445312,788.1318969726562
693,796.996337890625,782.893798828125,792.5640869140625,787.3259887695312
694,794.981689453125,790.1465454101562,796.1904907226562,782.087890625
695,793.3699340820312,793.3699340820312,801.4285888671875,785.3113403320312
696,795.7875366210938,794.1758422851562,801.8314819335938,790.5494384765625
697,795.3846435546875,794.981689453125,794.981689453125,796.5933837890625
698,793.7728881835938,790.5494384765625,789.7435913085938,799.4139404296875
699,792.967041015625,790.1465454101562,792.967041015625,797.3992919921875
700,792.1611938476562,787.7289428710938,788.937744140625,792.5640869140625
701,795.3846435546875,786.5201416015625,787.3259887695312,794.981689453125
702,792.5640869140625,788.1318969726562,793.7728881835938,799.8168334960938
703,796.1904907226562,792.5640869140625,796.1904907226562,802.2344360351562
704,798.6080322265625,790.952392578125,797.3992919921875,805.054931640625
705,793.3699340820312,787.3259887695312,798.2051391601562,800.2197875976562
706,793.7728881835938,788.1318969726562,795.3846435546875,795.3846435546875
707,792.5640869140625,785.3113403320312,793.3699340820312,793.3699340820312
708,791.3552856445312,785.3113403320312,795.7875366210938,794.981689453125
709,797.3992919921875,786.1171875,797.8021850585938,803.4432373046875
710,798.6080322265625,786.1171875,797.3992919921875,804.6520385742188
711,796.996337890625,790.5494384765625,797.3992919921875,801.8314819335938
712,798.6080322265625,790.952392578125,796.996337890625,807.069580078125
713,793.3699340820312,787.3259887695312,798.2051391601562,803.8461303710938
714,791.7582397460938,789.7435913085938,800.2197875976562,795.3846435546875
715,797.3992919921875,794.1758422851562,796.996337890625,796.1904907226562
716,794.1758422851562,790.5494384765625,790.5494384765625,789.3406372070312
717,794.5787353515625,790.1465454101562,790.952392578125,788.5347900390625
718,798.2051391601562,791.7582397460938,795.7875366210938,792.5640869140625
719,801.4285888671875,793.7728881835938,792.967041015625,792.5640869140625
720,802.2344360351562,796.996337890625,791.3552856445312,796.1904907226562
721,798.6080322265625,798.2051391601562,794.981689453125,797.3992919921875
722,795.7875366210938,794.5787353515625,794.1758422851562,794.1758422851562
723,794.1758422851562,792.967041015625,796.1904907226562,794.981689453125
724,795.3846435546875,798.6080322265625,796.5933837890625,799.4139404296875
725,790.1465454101562,796.5933837890625,795.3846435546875,792.5640869140625
726,791.7582397460938,790.952392578125,790.952392578125,786.5201416015625
727,797.8021850585938,792.1611938476562,790.5494384765625,788.937744140625
728,799.4139404296875,797.3992919921875,794.5787353515625,797.3992919921875
729,792.1611938476562,797.3992919921875,793.7728881835938,799.8168334960938
730,789.7435913085938,790.952392578125,794.1758422851562,798.2051391601562
731,799.4139404296875,790.1465454101562,796.996337890625,805.054931640625
732,798.2051391601562,794.981689453125,792.5640869140625,796.996337890625
733,790.5494384765625,786.5201416015625,788.5347900390625,789.3406372070312
734,796.5933837890625,787.3259887695312,790.952392578125,790.5494384765625
735,796.996337890625,790.1465454101562,789.3406372070312,792.5640869140625
736,792.1611938476562,787.3259887695312,788.1318969726562,793.3699340820312
737,786.5201416015625,791.3552856445312,790.952392578125,786.923095703125
738,781.2820434570312,786.5201416015625,790.5494384765625,785.3113403320312
739,783.2966918945312,783.2966918945312,789.3406372070312,779.2673950195312
740,784.908447265625,790.5494384765625,790.5494384765625,773.2234497070312
741,787.3259887695312,791.3552856445312,790.952392578125,780.0732421875
742,788.937744140625,789.3406372070312,790.952392578125,786.923095703125
743,788.1318969726562,791.7582397460938,794.1758422851562,789.3406372070312
744,787.3259887695312,789.3406372070312,794.981689453125,789.7435913085938
745,785.7142944335938,784.1025390625,792.5640869140625,788.937744140625
746,784.5054931640625,788.1318969726562,791.3552856445312,786.5201416015625
747,786.5201416015625,791.7582397460938,792.1611938476562,795.7875366210938
748,789.7435913085938,790.952392578125,798.6080322265625,801.025634765625
749,791.7582397460938,792.5640869140625,798.6080322265625,793.7728881835938
750,795.3846435546875,791.7582397460938,796.1904907226562,790.5494384765625
751,799.010986328125,793.3699340820312,796.1904907226562,786.5201416015625
752,799.4139404296875,799.010986328125,798.2051391601562,792.1611938476562
753,796.996337890625,799.8168334960938,796.5933837890625,797.3992919921875
754,795.7875366210938,795.3846435546875,795.3846435546875,793.3699340820312
755,801.025634765625,795.7875366210938,797.3992919921875,799.010986328125
756,807.069580078125,799.4139404296875,795.3846435546875,795.7875366210938
757,805.8607788085938,797.8021850585938,794.5787353515625,792.967041015625
758,805.054931640625,795.3846435546875,795.3846435546875,802.2344360351562
759,801.025634765625,796.1904907226562,793.7728881835938,801.4285888671875
760,795.3846435546875,799.4139404296875,792.1611938476562,796.5933837890625
761,801.025634765625,798.6080322265625,795.3846435546875,797.3992919921875
762,802.6373901367188,794.5787353515625,796.1904907226562,797.8021850585938
763,800.2197875976562,796.996337890625,798.6080322265625,796.996337890625
764,796.5933837890625,794.5787353515625,799.8168334960938,795.3846435546875
765,795.7875366210938,793.3699340820312,796.1904907226562,795.3846435546875
766,796.996337890625,792.967041015625,795.3846435546875,799.8168334960938
767,795.3846435546875,790.952392578125,798.2051391601562,801.4285888671875
768,798.6080322265625,796.996337890625,797.8021850585938,805.4578857421875
769,798.6080322265625,799.4139404296875,792.1611938476562,810.2930297851562
770,794.1758422851562,797.3992919921875,795.3846435546875,810.2930297851562
771,801.4285888671875,798.6080322265625,799.8168334960938,806.2637329101562
772,807.87548828125,797.8021850585938,801.025634765625,799.8168334960938
773,805.4578857421875,792.967041015625,798.6080322265625,801.8314819335938
774,797.3992919921875,785.7142944335938,797.8021850585938,803.4432373046875
775,785.3113403320312,788.5347900390625,796.1904907226562,793.3699340820312
776,782.893798828125,796.1904907226562,795.3846435546875,791.3552856445312
777,790.1465454101562,794.5787353515625,798.6080322265625,803.4432373046875
778,796.996337890625,797.3992919921875,800.2197875976562,812.3076782226562
779,794.5787353515625,798.2051391601562,801.025634765625,801.025634765625
780,792.1611938476562,794.981689453125,802.2344360351562,803.8461303710938
781,794.981689453125,795.3846435546875,802.6373901367188,809.89013671875
782,791.3552856445312,795.3846435546875,803.8461303710938,797.3992919921875
783,787.7289428710938,793.7728881835938,800.6226806640625,792.1611938476562
784,784.5054931640625,790.1465454101562,801.8314819335938,790.5494384765625
785,787.7289428710938,787.7289428710938,802.2344360351562,797.8021850585938
786,790.952392578125,787.3259887695312,799.8168334960938,801.4285888671875
787,796.1904907226562,785.3113403320312,800.2197875976562,795.3846435546875
788,797.8021850585938,784.1025390625,794.1758422851562,796.1904907226562
789,792.967041015625,780.879150390625,790.952392578125,795.3846435546875
790,793.3699340820312,783.2966918945312,795.3846435546875,792.967041015625
791,791.3552856445312,790.1465454101562,799.010986328125,792.967041015625
792,797.3992919921875,788.5347900390625,798.6080322265625,799.4139404296875
793,801.025634765625,786.923095703125,799.010986328125,805.4578857421875
794,797.8021850585938,791.7582397460938,798.6080322265625,801.8314819335938
795,798.6080322265625,793.3699340820312,800.2197875976562,795.3846435546875
796,796.1904907226562,790.5494384765625,802.6373901367188,798.2051391601562
797,794.5787353515625,788.5347900390625,799.8168334960938,801.8314819335938
798,789.7435913085938,786.5201416015625,794.981689453125,799.010986328125
799,788.937744140625,788.937744140625,793.7728881835938,797.3992919921875
800,794.981689453125,792.5640869140625,794.1758422851562,796.5933837890625
801,792.967041015625,791.7582397460938,795.3846435546875,798.2051391601562
802,796.1904907226562,795.7875366210938,797.3992919921875,803.4432373046875
803,799.4139404296875,795.7875366210938,796.996337890625,803.8461303710938
804,794.1758422851562,792.967041015625,793.7728881835938,793.3699340820312
805,794.981689453125,796.996337890625,795.3846435546875,792.967041015625
806,794.5787353515625,797.3992919921875,797.8021850585938,796.996337890625
807,790.1465454101562,792.967041015625,794.5787353515625,792.967041015625
808,800.6226806640625,794.5787353515625,795.3846435546875,803.040283203125
809,800.6226806640625,795.3846435546875,796.1904907226562,807.4725341796875
810,791.3552856445312,795.7875366210938,799.4139404296875,794.981689453125
811,792.967041015625,798.2051391601562,801.4285888671875,790.1465454101562
812,792.1611938476562,799.8168334960938,797.8021850585938,789.7435913085938
813,795.3846435546875,801.4285888671875,799.010986328125,791.7582397460938
814,787.7289428710938,798.2051391601562,797.3992919921875,791.3552856445312
815,784.908447265625,798.2051391601562,791.7582397460938,792.967041015625
816,790.952392578125,803.040283203125,794.1758422851562,795.3846435546875
817,792.5640869140625,799.8168334960938,794.1758422851562,792.1611938476562
818,791.3552856445312,794.1758422851562,790.5494384765625,791.7582397460938
819,788.1318969726562,795.7875366210938,792.1611938476562,790.5494384765625
820,790.952392578125,792.1611938476562,795.3846435546875,793.7728881835938
821,794.981689453125,785.3113403320312,799.010986328125,798.2051391601562
822,796.996337890625,792.967041015625,801.025634765625,794.5787353515625
823,795.3846435546875,797.3992919921875,799.010986328125,791.7582397460938
824,788.1318969726562,792.967041015625,795.7875366210938,791.7582397460938
825,787.7289428710938,794.1758422851562,796.996337890625,791.7582397460938
826,792.967041015625,796.996337890625,795.7875366210938,788.1318969726562
827,795.7875366210938,792.967041015625,791.7582397460938,794.981689453125
828,797.8021850585938,787.7289428710938,793.3699340820312,801.4285888671875
829,796.5933837890625,793.7728881835938,794.5787353515625,793.7728881835938
830,798.6080322265625,792.967041015625,801.025634765625,792.5640869140625
831,801.4285888671875,790.5494384765625,803.040283203125,796.996337890625
832,801.025634765625,794.5787353515625,797.8021850585938,801.8314819335938
833,799.8168334960938,798.2051391601562,798.6080322265625,801.025634765625
834,795.3846435546875,797.3992919921875,798.6080322265625,797.8021850585938
835,797.3992919921875,792.967041015625,795.3846435546875,797.8021850585938
836,793.3699340820312,790.1465454101562,799.010986328125,794.5787353515625
837,789.3406372070312,793.3699340820312,800.2197875976562,789.7435913085938
838,801.025634765625,797.3992919921875,800.2197875976562,789.3406372070312
839,801.4285888671875,793.7728881835938,802.2344360351562,792.1611938476562
840,793.3699340820312,788.937744140625,799.8168334960938,789.7435913085938
841,794.981689453125,792.1611938476562,798.2051391601562,790.5494384765625
842,795.7875366210938,794.1758422851562,797.3992919921875,800.2197875976562
843,802.2344360351562,790.1465454101562,795.7875366210938,807.4725341796875
844,805.054931640625,792.967041015625,798.2051391601562,799.010986328125
845,794.1758422851562,791.7582397460938,794.1758422851562,789.7435913085938
846,786.5201416015625,787.7289428710938,788.5347900390625,793.3699340820312
847,784.908447265625,787.7289428710938,787.7289428710938,792.5640869140625
848,789.7435913085938,786.1171875,791.7582397460938,791.3552856445312
849,790.952392578125,786.923095703125,797.3992919921875,796.5933837890625
850,788.1318969726562,788.1318969726562,795.7875366210938,790.952392578125
851,792.1611938476562,788.937744140625,792.5640869140625,786.5201416015625
852,792.1611938476562,789.7435913085938,790.952392578125,793.3699340820312
853,792.5640869140625,790.5494384765625,793.3699340820312,796.996337890625
854,794.981689453125,786.923095703125,795.7875366210938,802.6373901367188
855,794.5787353515625,781.6849975585938,796.996337890625,804.2490844726562
856,787.3259887695312,784.1025390625,796.996337890625,792.967041015625
857,786.1171875,788.5347900390625,794.1758422851562,791.3552856445312
858,789.3406372070312,787.3259887695312,793.7728881835938,787.7289428710938
859,789.7435913085938,790.952392578125,795.7875366210938,787.7289428710938
860,786.5201416015625,799.8168334960938,795.7875366210938,792.1611938476562
861,784.5054931640625,794.5787353515625,794.981689453125,794.5787353515625
862,784.5054931640625,788.1318969726562,792.5640869140625,799.4139404296875
863,782.893798828125,790.952392578125,794.1758422851562,794.1758422851562
864,784.908447265625,792.5640869140625,795.7875366210938,784.908447265625
865,788.937744140625,791.7582397460938,790.952392578125,787.3259887695312
866,792.967041015625,789.3406372070312,790.1465454101562,791.3552856445312
867,794.981689453125,788.937744140625,793.7728881835938,785.7142944335938
868,789.7435913085938,790.5494384765625,795.7875366210938,786.923095703125
869,792.5640869140625,790.952392578125,796.996337890625,801.025634765625
870,801.8314819335938,796.5933837890625,796.5933837890625,805.054931640625
871,799.8168334960938,802.2344360351562,796.5933837890625,791.3552856445312
872,793.3699340820312,799.8168334960938,799.010986328125,788.5347900390625
873,799.010986328125,794.981689453125,796.5933837890625,797.8021850585938
874,803.8461303710938,792.967041015625,796.1904907226562,807.87548828125
875,798.2051391601562,793.3699340820312,797.8021850585938,803.4432373046875
876,798.6080322265625,796.1904907226562,796.5933837890625,799.4139404296875
877,799.8168334960938,795.3846435546875,792.1611938476562,799.010986328125
878,792.967041015625,794.1758422851562,788.937744140625,799.4139404296875
879,790.952392578125,798.2051391601562,791.7582397460938,792.5640869140625
880,799.8168334960938,798.2051391601562,793.7728881835938,788.1318969726562
881,804.6520385742188,794.1758422851562,795.3846435546875,795.3846435546875
882,803.040283203125,790.952392578125,792.967041015625,799.4139404296875
883,802.2344360351562,796.1904907226562,794.5787353515625,795.3846435546875
884,800.6226806640625,799.8168334960938,798.6080322265625,791.7582397460938
885,799.4139404296875,794.5787353515625,800.6226806640625,798.2051391601562
886,806.2637329101562,791.7582397460938,799.8168334960938,800.2197875976562
887,810.2930297851562,796.1904907226562,793.7728881835938,799.010986328125
888,807.069580078125,794.981689453125,792.967041015625,799.8168334960938
889,810.6959838867188,791.7582397460938,798.6080322265625,800.2197875976562
890,815.93408203125,796.5933837890625,799.8168334960938,796.1904907226562
891,806.6666870117188,796.1904907226562,799.8168334960938,788.1318969726562
892,800.6226806640625,794.5787353515625,798.2051391601562,796.5933837890625
893,803.040283203125,793.7728881835938,794.5787353515625,807.069580078125
894,801.025634765625,795.7875366210938,798.2051391601562,798.2051391601562
895,795.7875366210938,792.5640869140625,799.8168334960938,793.7728881835938
896,793.3699340820312,789.3406372070312,794.981689453125,802.2344360351562
897,794.5787353515625,788.937744140625,789.7435913085938,802.2344360351562
898,796.5933837890625,785.7142944335938,790.1465454101562,801.8314819335938
899,795.3846435546875,787.3259887695312,793.3699340820312,795.7875366210938
900,792.1611938476562,791.3552856445312,790.1465454101562,789.3406372070312
901,788.1318969726562,790.5494384765625,787.7289428710938,788.1318969726562
902,789.7435913085938,787.7289428710938,788.937744140625,785.7142944335938
903,794.5787353515625,790.5494384765625,790.952392578125,791.7582397460938
904,801.025634765625,795.7875366210938,792.5640869140625,809.89013671875
905,801.4285888671875,796.1904907226562,795.7875366210938,815.1282348632812
906,791.3552856445312,794.981689453125,799.010986328125,797.3992919921875
907,792.1611938476562,796.1904907226562,795.3846435546875,789.7435913085938
908,794.1758422851562,796.5933837890625,794.1758422851562,793.3699340820312
909,796.996337890625,794.5787353515625,796.996337890625,789.7435913085938
910,799.8168334960938,794.1758422851562,794.981689453125,787.3259887695312
911,798.6080322265625,792.5640869140625,791.7582397460938,792.1611938476562
912,796.1904907226562,789.3406372070312,790.5494384765625,790.1465454101562
913,794.5787353515625,787.3259887695312,790.5494384765625,788.937744140625
914,792.1611938476562,790.1465454101562,790.5494384765625,787.7289428710938
915,786.923095703125,791.3552856445312,792.5640869140625,787.7289428710938
916,788.1318969726562,784.5054931640625,792.967041015625,800.2197875976562
917,788.5347900390625,787.3259887695312,796.5933837890625,800.6226806640625
918,784.1025390625,793.3699340820312,801.025634765625,790.1465454101562
919,786.5201416015625,791.7582397460938,800.6226806640625,790.1465454101562
920,790.5494384765625,789.7435913085938,799.010986328125,794.1758422851562
921,787.3259887695312,796.1904907226562,800.2197875976562,798.2051391601562
922,788.937744140625,799.8168334960938,801.4285888671875,798.2051391601562
923,790.952392578125,796.5933837890625,799.4139404296875,796.1904907226562
924,786.923095703125,796.1904907226562,799.4139404296875,794.981689453125
925,790.1465454101562,793.7728881835938,795.7875366210938,796.5933837890625
926,796.996337890625,796.1904907226562,794.981689453125,802.2344360351562
927,801.8314819335938,794.981689453125,795.3846435546875,808.6813354492188
928,801.8314819335938,792.1611938476562,794.5787353515625,807.069580078125
929,804.6520385742188,802.2344360351562,798.2051391601562,804.2490844726562
930,807.4725341796875,801.8314819335938,796.1904907226562,806.2637329101562
931,802.6373901367188,797.3992919921875,791.7582397460938,805.054931640625
932,799.4139404296875,799.4139404296875,795.7875366210938,804.2490844726562
933,799.8168334960938,799.8168334960938,799.4139404296875,803.8461303710938
934,799.4139404296875,792.967041015625,796.5933837890625,804.2490844726562
935,799.4139404296875,786.5201416015625,790.5494384765625,805.8607788085938
936,803.8461303710938,791.3552856445312,790.5494384765625,804.2490844726562
937,801.025634765625,789.3406372070312,792.967041015625,799.010986328125
938,797.3992919921875,788.1318969726562,792.1611938476562,803.040283203125
939,798.2051391601562,790.1465454101562,793.3699340820312,810.2930297851562
940,796.996337890625,788.937744140625,795.3846435546875,802.6373901367188
941,798.6080322265625,794.5787353515625,794.5787353515625,796.1904907226562
942,803.8461303710938,796.5933837890625,792.967041015625,801.8314819335938
943,800.6226806640625,794.1758422851562,793.3699340820312,803.040283203125
944,792.1611938476562,788.1318969726562,790.952392578125,797.8021850585938
945,793.7728881835938,789.7435913085938,790.952392578125,800.6226806640625
946,796.1904907226562,795.7875366210938,792.5640869140625,809.4871826171875
947,796.1904907226562,796.996337890625,792.5640869140625,807.87548828125
948,794.5787353515625,799.010986328125,790.952392578125,799.010986328125
949,789.7435913085938,792.5640869140625,792.5640869140625,792.5640869140625
950,794.1758422851562,788.937744140625,794.5787353515625,805.054931640625
951,800.2197875976562,794.5787353515625,795.3846435546875,807.069580078125
952,799.8168334960938,792.1611938476562,799.4139404296875,791.7582397460938
953,794.1758422851562,790.952392578125,797.8021850585938,790.1465454101562
954,793.7728881835938,791.3552856445312,797.3992919921875,792.967041015625
955,796.1904907226562,790.5494384765625,799.4139404296875,792.967041015625
956,792.967041015625,792.1611938476562,796.5933837890625,790.1465454101562
957,787.7289428710938,792.5640869140625,792.1611938476562,788.1318969726562
958,781.6849975585938,791.3552856445312,791.7582397460938,787.7289428710938
959,776.4468994140625,793.3699340820312,794.981689453125,788.1318969726562
960,778.05859375,794.5787353515625,791.7582397460938,791.3552856445312
961,787.3259887695312,788.937744140625,788.937744140625,795.7875366210938
962,790.952392578125,788.5347900390625,788.937744140625,799.4139404296875
963,786.923095703125,792.967041015625,789.3406372070312,797.3992919921875
964,790.952392578125,791.7582397460938,794.1758422851562,799.010986328125
965,796.5933837890625,791.3552856445312,796.996337890625,803.040283203125
966,792.1611938476562,788.5347900390625,793.3699340820312,799.4139404296875
967,793.7728881835938,784.1025390625,794.1758422851562,792.5640869140625
968,791.7582397460938,783.2966918945312,796.996337890625,794.1758422851562
969,785.7142944335938,782.893798828125,796.996337890625,798.6080322265625
970,782.4908447265625,785.3113403320312,793.7728881835938,790.1465454101562
971,784.5054931640625,787.7289428710938,789.7435913085938,784.1025390625
972,789.3406372070312,786.5201416015625,794.1758422851562,787.7289428710938
973,796.1904907226562,786.923095703125,799.8168334960938,793.7728881835938
974,800.2197875976562,790.5494384765625,799.8168334960938,801.4285888671875
975,792.967041015625,791.3552856445312,800.6226806640625,799.010986328125
976,788.1318969726562,791.7582397460938,802.6373901367188,798.6080322265625
977,790.1465454101562,793.3699340820312,801.025634765625,805.4578857421875
978,788.1318969726562,788.1318969726562,797.3992919921875,801.8314819335938
979,785.7142944335938,792.1611938476562,797.3992919921875,794.5787353515625
980,781.6849975585938,795.7875366210938,798.2051391601562,793.7728881835938
981,778.8644409179688,790.5494384765625,798.6080322265625,789.7435913085938
982,786.5201416015625,788.937744140625,801.025634765625,788.1318969726562
983,787.7289428710938,784.5054931640625,801.8314819335938,786.923095703125
984,785.3113403320312,781.6849975585938,800.2197875976562,788.937744140625
985,786.5201416015625,783.2966918945312,800.2197875976562,789.7435913085938
986,784.5054931640625,786.1171875,798.2051391601562,788.1318969726562
987,789.7435913085938,787.7289428710938,797.3992919921875,789.7435913085938
988,794.5787353515625,788.5347900390625,790.5494384765625,791.3552856445312
989,794.1758422851562,785.3113403320312,787.3259887695312,796.5933837890625
990,793.3699340820312,782.4908447265625,793.3699340820312,796.996337890625
991,791.3552856445312,787.3259887695312,796.1904907226562,792.5640869140625
992,797.3992919921875,792.5640869140625,795.7875366210938,801.025634765625
993,801.4285888671875,791.7582397460938,794.981689453125,806.6666870117188
994,794.1758422851562,793.7728881835938,797.8021850585938,795.7875366210938
995,793.3699340820312,795.3846435546875,798.2051391601562,796.1904907226562
996,792.1611938476562,790.5494384765625,794.5787353515625,800.6226806640625
997,791.7582397460938,796.1904907226562,792.1611938476562,799.8168334960938
998,797.3992919921875,798.2051391601562,794.5787353515625,803.4432373046875
999,790.5494384765625,790.5494384765625,794.5787353515625,802.6373901367188
1000,786.923095703125,790.952392578125,793.3699340820312,806.2637329101562
1001,793.3699340820312,797.3992919921875,793.7728881835938,802.2344360351562
1002,795.7875366210938,804.2490844726562,794.1758422851562,796.5933837890625
1003,790.952392578125,795.7875366210938,794.981689453125,801.8314819335938
1004,791.7582397460938,790.1465454101562,793.3699340820312,803.040283203125
1005,790.1465454101562,795.3846435546875,791.7582397460938,793.7728881835938
1006,788.5347900390625,798.2051391601562,789.7435913085938,785.7142944335938
1007,790.952392578125,797.8021850585938,789.3406372070312,791.3552856445312
1008,792.5640869140625,794.981689453125,790.1465454101562,793.7728881835938
1009,791.7582397460938,792.5640869140625,789.7435913085938,788.1318969726562
1010,793.7728881835938,791.7582397460938,792.967041015625,792.5640869140625
1011,789.3406372070312,791.3552856445312,795.7875366210938,794.1758422851562
1012,784.1025390625,788.1318969726562,798.6080322265625,800.2197875976562
1013,786.1171875,784.908447265625,796.1904907226562,795.7875366210938
1014,785.7142944335938,788.1318969726562,794.1758422851562,789.3406372070312
1015,790.5494384765625,786.1171875,798.6080322265625,793.7728881835938
1016,793.3699340820312,784.908447265625,792.5640869140625,795.7875366210938
1017,793.3699340820312,792.1611938476562,787.7289428710938,788.5347900390625
1018,794.981689453125,789.3406372070312,790.1465454101562,784.908447265625
1019,792.967041015625,784.908447265625,790.1465454101562,786.5201416015625
1020,792.967041015625,784.908447265625,790.5494384765625,789.7435913085938
1021,793.7728881835938,783.2966918945312,796.996337890625,799.8168334960938
1022,798.6080322265625,783.2966918945312,800.6226806640625,804.2490844726562
1023,798.2051391601562,785.3113403320312,794.981689453125,807.069580078125
1024,791.3552856445312,787.3259887695312,796.5933837890625,805.8607788085938
1025,791.7582397460938,788.1318969726562,803.8461303710938,798.6080322265625
1026,793.3699340820312,788.1318969726562,800.2197875976562,793.3699340820312
1027,786.5201416015625,789.3406372070312,797.3992919921875,788.1318969726562
1028,779.2673950195312,792.1611938476562,797.3992919921875,781.2820434570312
1029,782.893798828125,792.1611938476562,798.6080322265625,776.0439453125
1030,785.7142944335938,789.7435913085938,799.4139404296875,780.4761962890625
1031,784.908447265625,791.7582397460938,799.8168334960938,789.3406372070312
1032,794.1758422851562,790.952392578125,801.8314819335938,790.5494384765625
1033,799.010986328125,786.1171875,796.5933837890625,788.5347900390625
1034,792.967041015625,780.0732421875,794.5787353515625,784.1025390625
1035,788.937744140625,779.6703491210938,794.5787353515625,788.937744140625
1036,789.3406372070312,784.1025390625,792.1611938476562,789.3406372070312
1037,795.3846435546875,787.3259887695312,793.7728881835938,788.5347900390625
1038,793.7728881835938,785.7142944335938,794.5787353515625,788.5347900390625
1039,791.3552856445312,787.3259887695312,790.5494384765625,783.6996459960938
1040,792.1611938476562,787.7289428710938,792.5640869140625,790.5494384765625
1041,789.7435913085938,785.3113403320312,791.3552856445312,793.3699340820312
1042,788.937744140625,784.5054931640625,786.1171875,792.967041015625
1043,788.937744140625,783.6996459960938,788.1318969726562,795.7875366210938
1044,790.5494384765625,782.087890625,790.952392578125,790.1465454101562
1045,789.7435913085938,784.5054931640625,790.952392578125,786.1171875
1046,786.923095703125,784.5054931640625,788.1318969726562,786.923095703125
1047,789.3406372070312,785.3113403320312,789.3406372070312,789.3406372070312
1048,791.3552856445312,790.5494384765625,791.7582397460938,783.6996459960938
1049,788.1318969726562,793.7728881835938,792.5640869140625,783.6996459960938
1050,786.1171875,799.8168334960938,793.7728881835938,790.1465454101562
1051,786.5201416015625,799.8168334960938,793.7728881835938,790.5494384765625
1052,790.5494384765625,794.981689453125,796.1904907226562,792.1611938476562
1053,789.7435913085938,793.3699340820312,796.996337890625,791.7582397460938
1054,792.967041015625,788.1318969726562,794.1758422851562,788.937744140625
1055,798.6080322265625,788.5347900390625,799.4139404296875,791.7582397460938
1056,796.996337890625,796.5933837890625,802.6373901367188,790.5494384765625
1057,798.2051391601562,796.996337890625,801.025634765625,788.5347900390625
1058,795.7875366210938,799.010986328125,799.4139404296875,793.7728881835938
1059,798.6080322265625,796.996337890625,794.5787353515625,794.5787353515625
1060,799.4139404296875,794.5787353515625,793.7728881835938,794.1758422851562
1061,794.981689453125,797.8021850585938,794.1758422851562,799.010986328125
1062,794.5787353515625,797.3992919921875,794.5787353515625,802.2344360351562
1063,794.5787353515625,799.010986328125,799.8168334960938,793.7728881835938
1064,793.3699340820312,797.3992919921875,801.025634765625,789.3406372070312
1065,795.7875366210938,793.3699340820312,797.8021850585938,792.5640869140625
1066,797.3992919921875,795.3846435546875,798.6080322265625,796.996337890625
1067,791.3552856445312,795.7875366210938,801.025634765625,793.3699340820312
1068,787.3259887695312,795.3846435546875,797.8021850585938,788.937744140625
1069,783.6996459960938,796.1904907226562,793.7728881835938,783.6996459960938
1070,783.6996459960938,792.5640869140625,794.1758422851562,783.2966918945312
1071,786.5201416015625,793.7728881835938,794.5787353515625,783.6996459960938
1072,786.1171875,791.7582397460938,794.1758422851562,783.6996459960938
1073,783.2966918945312,785.3113403320312,794.981689453125,792.1611938476562
1074,782.893798828125,789.3406372070312,798.2051391601562,797.3992919921875
1075,786.923095703125,792.1611938476562,801.8314819335938,788.937744140625
1076,788.5347900390625,792.967041015625,797.8021850585938,783.6996459960938
1077,790.952392578125,796.996337890625,795.3846435546875,788.937744140625
1078,797.3992919921875,793.7728881835938,801.8314819335938,797.8021850585938
1079,801.025634765625,794.5787353515625,803.8461303710938,797.3992919921875
1080,800.2197875976562,794.5787353515625,801.025634765625,795.7875366210938
1081,795.3846435546875,790.952392578125,798.6080322265625,798.6080322265625
1082,792.967041015625,791.3552856445312,799.4139404296875,790.952392578125
1083,791.3552856445312,792.1611938476562,800.2197875976562,788.1318969726562
1084,792.5640869140625,796.1904907226562,796.5933837890625,791.3552856445312
1085,792.1611938476562,796.1904907226562,794.981689453125,795.3846435546875
1086,788.937744140625,799.4139404296875,795.7875366210938,793.7728881835938
1087,788.937744140625,798.6080322265625,798.2051391601562,795.7875366210938
1088,787.7289428710938,794.981689453125,800.2197875976562,801.4285888671875
1089,785.7142944335938,795.7875366210938,799.010986328125,796.5933837890625
1090,788.1318969726562,797.8021850585938,798.2051391601562,795.3846435546875
1091,794.5787353515625,796.5933837890625,800.2197875976562,800.2197875976562
1092,793.7728881835938,794.5787353515625,801.8314819335938,803.4432373046875
1093,789.3406372070312,794.5787353515625,798.6080322265625,801.025634765625
1094,793.7728881835938,795.7875366210938,798.2051391601562,796.5933837890625
1095,800.6226806640625,799.8168334960938,797.8021850585938,795.7875366210938
1096,804.2490844726562,799.4139404296875,796.1904907226562,804.2490844726562
1097,801.025634765625,796.5933837890625,799.010986328125,803.040283203125
1098,797.8021850585938,796.996337890625,796.996337890625,791.3552856445312
1099,804.6520385742188,793.3699340820312,791.3552856445312,792.967041015625
1100,805.4578857421875,791.3552856445312,793.3699340820312,799.4139404296875
1101,803.040283203125,791.3552856445312,796.996337890625,799.010986328125
1102,803.8461303710938,790.5494384765625,794.1758422851562,794.1758422851562
1103,807.4725341796875,788.937744140625,794.5787353515625,789.3406372070312
1104,806.6666870117188,786.1171875,796.5933837890625,794.981689453125
1105,804.2490844726562,785.7142944335938,797.8021850585938,800.2197875976562
1106,800.6226806640625,788.937744140625,796.996337890625,794.5787353515625
1107,799.010986328125,792.967041015625,798.6080322265625,796.1904907226562
1108,800.6226806640625,794.5787353515625,803.040283203125,805.054931640625
1109,795.3846435546875,792.1611938476562,801.4285888671875,798.6080322265625
1110,795.3846435546875,789.3406372070312,801.4285888671875,797.3992919921875
1111,798.2051391601562,792.1611938476562,801.4285888671875,801.025634765625
1112,797.3992919921875,794.5787353515625,796.996337890625,796.1904907226562
1113,796.5933837890625,795.7875366210938,797.8021850585938,798.6080322265625
1114,797.3992919921875,794.5787353515625,803.4432373046875,800.2197875976562
1115,798.2051391601562,789.3406372070312,803.8461303710938,798.6080322265625
1116,795.3846435546875,788.5347900390625,804.2490844726562,800.2197875976562
1117,793.7728881835938,791.7582397460938,801.025634765625,796.1904907226562
1118,796.5933837890625,792.5640869140625,797.3992919921875,792.5640869140625
1119,798.6080322265625,794.1758422851562,796.996337890625,801.4285888671875
1120,791.7582397460938,793.3699340820312,791.3552856445312,797.8021850585938
1121,789.3406372070312,792.5640869140625,790.5494384765625,785.3113403320312
1122,797.8021850585938,791.7582397460938,794.1758422851562,793.3699340820312
1123,796.5933837890625,792.1611938476562,792.5640869140625,790.1465454101562
1124,793.7728881835938,788.5347900390625,789.7435913085938,782.893798828125
1125,796.5933837890625,786.923095703125,793.3699340820312,788.937744140625
1126,798.2051391601562,784.908447265625,796.5933837890625,791.3552856445312
1127,796.1904907226562,779.6703491210938,796.5933837890625,797.3992919921875
1128,794.5787353515625,787.7289428710938,799.8168334960938,804.2490844726562
1129,795.3846435546875,794.1758422851562,799.010986328125,804.6520385742188
1130,793.7728881835938,788.937744140625,797.3992919921875,801.4285888671875
1131,796.1904907226562,784.1025390625,798.2051391601562,799.4139404296875
1132,795.7875366210938,783.2966918945312,794.5787353515625,795.3846435546875
1133,793.3699340820312,788.5347900390625,790.1465454101562,788.1318969726562
1134,792.967041015625,792.5640869140625,796.5933837890625,796.996337890625
1135,790.1465454101562,789.3406372070312,794.1758422851562,805.8607788085938
1136,788.1318969726562,788.1318969726562,787.3259887695312,805.8607788085938
1137,791.7582397460938,789.7435913085938,787.7289428710938,801.025634765625
1138,795.3846435546875,789.3406372070312,793.3699340820312,799.010986328125
1139,790.1465454101562,791.7582397460938,799.4139404296875,798.6080322265625
1140,789.3406372070312,791.3552856445312,797.8021850585938,798.6080322265625
1141,796.996337890625,792.1611938476562,798.2051391601562,801.025634765625
1142,801.8314819335938,788.937744140625,795.7875366210938,799.4139404296875
1143,799.8168334960938,787.3259887695312,793.3699340820312,795.7875366210938
1144,792.1611938476562,795.3846435546875,799.4139404296875,788.937744140625
1145,796.5933837890625,800.2197875976562,799.010986328125,794.1758422851562
1146,799.8168334960938,796.1904907226562,794.981689453125,799.8168334960938
1147,792.967041015625,792.967041015625,792.5640869140625,792.967041015625
1148,792.1611938476562,790.1465454101562,790.5494384765625,790.1465454101562
1149,795.3846435546875,787.3259887695312,793.7728881835938,803.040283203125
1150,795.3846435546875,790.5494384765625,801.025634765625,803.040283203125
1151,796.5933837890625,790.952392578125,801.025634765625,798.2051391601562
1152,799.010986328125,788.5347900390625,801.4285888671875,798.2051391601562
1153,794.1758422851562,788.1318969726562,800.6226806640625,794.1758422851562
1154,785.7142944335938,784.5054931640625,793.7728881835938,793.7728881835938
1155,786.5201416015625,789.7435913085938,790.5494384765625,792.1611938476562
1156,792.1611938476562,790.952392578125,791.3552856445312,788.1318969726562
1157,796.1904907226562,785.3113403320312,791.7582397460938,792.1611938476562
1158,794.981689453125,786.923095703125,792.967041015625,797.8021850585938
1159,790.5494384765625,791.7582397460938,797.8021850585938,794.1758422851562
1160,786.1171875,793.3699340820312,800.2197875976562,787.7289428710938
1161,785.7142944335938,789.7435913085938,799.8168334960938,790.5494384765625
1162,794.5787353515625,790.952392578125,799.010986328125,794.5787353515625
1163,794.981689453125,792.5640869140625,800.2197875976562,789.3406372070312
1164,789.7435913085938,790.5494384765625,801.025634765625,792.1611938476562
1165,792.1611938476562,793.7728881835938,798.6080322265625,799.4139404296875
1166,794.1758422851562,792.5640869140625,799.4139404296875,797.8021850585938
1167,796.5933837890625,793.7728881835938,800.6226806640625,793.7728881835938
1168,802.2344360351562,798.2051391601562,802.6373901367188,791.3552856445312
1169,805.4578857421875,792.5640869140625,800.6226806640625,799.4139404296875
1170,806.2637329101562,794.1758422851562,800.6226806640625,803.040283203125
1171,800.6226806640625,792.967041015625,801.025634765625,794.981689453125
1172,791.7582397460938,789.3406372070312,796.5933837890625,797.8021850585938
1173,795.3846435546875,792.1611938476562,794.1758422851562,805.054931640625
1174,802.6373901367188,794.1758422851562,794.981689453125,799.8168334960938
1175,806.2637329101562,796.5933837890625,799.010986328125,795.7875366210938
1176,806.6666870117188,793.3699340820312,799.8168334960938,796.5933837890625
1177,802.6373901367188,790.952392578125,798.2051391601562,791.3552856445312
1178,796.996337890625,793.3699340820312,797.8021850585938,789.7435913085938
1179,796.5933837890625,792.1611938476562,798.2051391601562,790.952392578125
1180,797.3992919921875,792.967041015625,802.2344360351562,791.7582397460938
1181,795.7875366210938,794.981689453125,804.2490844726562,794.5787353515625
1182,799.4139404296875,792.967041015625,804.2490844726562,798.6080322265625
1183,799.8168334960938,792.967041015625,803.040283203125,801.8314819335938
1184,794.981689453125,795.3846435546875,801.4285888671875,796.5933837890625
1185,792.1611938476562,791.7582397460938,798.6080322265625,793.7728881835938
1186,792.1611938476562,791.7582397460938,795.3846435546875,793.7728881835938
1187,791.3552856445312,793.3699340820312,796.1904907226562,793.3699340820312
1188,796.1904907226562,789.3406372070312,799.010986328125,799.8168334960938
1189,796.5933837890625,785.3113403320312,799.4139404296875,801.8314819335938
1190,786.923095703125,786.923095703125,795.7875366210938,792.967041015625
1191,783.6996459960938,793.3699340820312,794.1758422851562,789.7435913085938
1192,784.5054931640625,789.7435913085938,793.3699340820312,797.3992919921875
1193,789.7435913085938,791.3552856445312,795.7875366210938,802.2344360351562
1194,792.5640869140625,796.1904907226562,798.6080322265625,791.7582397460938
1195,794.981689453125,789.7435913085938,797.8021850585938,790.5494384765625
1196,798.2051391601562,790.952392578125,796.5933837890625,789.3406372070312
1197,794.5787353515625,793.7728881835938,798.6080322265625,786.5201416015625
1198,795.7875366210938,794.5787353515625,798.2051391601562,791.3552856445312
1199,796.1904907226562,792.5640869140625,796.5933837890625,798.2051391601562
1200,792.1611938476562,794.1758422851562,797.8021850585938,799.8168334960938
1201,794.981689453125,801.8314819335938,799.8168334960938,799.8168334960938
1202,791.7582397460938,797.8021850585938,795.7875366210938,794.5787353515625
1203,784.5054931640625,789.7435913085938,787.7289428710938,786.5201416015625
1204,787.7289428710938,788.5347900390625,790.5494384765625,792.967041015625
1205,786.923095703125,791.7582397460938,796.1904907226562,794.5787353515625
1206,783.6996459960938,794.1758422851562,794.5787353515625,784.5054931640625
1207,782.4908447265625,792.967041015625,791.3552856445312,782.4908447265625
1208,784.1025390625,789.7435913085938,792.1611938476562,786.5201416015625
1209,782.087890625,791.7582397460938,790.952392578125,784.5054931640625
1210,780.879150390625,792.5640869140625,789.7435913085938,784.908447265625
1211,784.1025390625,793.7728881835938,791.7582397460938,787.3259887695312
1212,788.937744140625,796.996337890625,794.5787353515625,787.3259887695312
1213,791.7582397460938,794.1758422851562,790.952392578125,782.893798828125
1214,791.7582397460938,791.7582397460938,787.7289428710938,782.893798828125
1215,792.5640869140625,793.3699340820312,790.1465454101562,793.3699340820312
1216,796.5933837890625,793.3699340820312,792.1611938476562,797.3992919921875
1217,795.7875366210938,795.3846435546875,795.3846435546875,791.7582397460938
1218,795.3846435546875,796.996337890625,796.5933837890625,790.1465454101562
1219,796.1904907226562,791.7582397460938,794.981689453125,794.5787353515625
1220,794.1758422851562,796.5933837890625,793.7728881835938,794.5787353515625
1221,797.8021850585938,800.6226806640625,798.2051391601562,794.1758422851562
1222,798.2051391601562,800.6226806640625,801.4285888671875,800.2197875976562
1223,794.1758422851562,798.6080322265625,796.5933837890625,795.7875366210938
1224,796.5933837890625,795.7875366210938,794.5787353515625,793.7728881835938
1225,797.8021850585938,793.3699340820312,794.981689453125,798.6080322265625
1226,791.7582397460938,794.981689453125,796.5933837890625,797.3992919921875
1227,791.7582397460938,798.2051391601562,797.3992919921875,802.2344360351562
1228,797.3992919921875,801.8314819335938,798.2051391601562,799.8168334960938
1229,798.2051391601562,805.4578857421875,797.3992919921875,794.981689453125
1230,795.3846435546875,797.8021850585938,794.5787353515625,796.1904907226562
1231,793.7728881835938,790.5494384765625,795.3846435546875,795.7875366210938
1232,794.1758422851562,790.952392578125,796.1904907226562,791.7582397460938
1233,797.3992919921875,792.1611938476562,793.3699340820312,788.5347900390625
1234,805.4578857421875,793.7728881835938,792.5640869140625,791.3552856445312
1235,807.87548828125,790.952392578125,793.7728881835938,796.1904907226562
1236,795.7875366210938,788.937744140625,795.7875366210938,798.2051391601562
1237,784.5054931640625,786.923095703125,796.5933837890625,796.5933837890625
1238,794.981689453125,787.3259887695312,795.3846435546875,807.069580078125
1239,802.6373901367188,792.5640869140625,793.3699340820312,814.3223266601562
1240,797.3992919921875,790.1465454101562,796.1904907226562,801.4285888671875
1241,798.6080322265625,789.3406372070312,799.010986328125,796.996337890625
1242,799.010986328125,791.7582397460938,797.3992919921875,798.6080322265625
1243,793.7728881835938,792.1611938476562,801.4285888671875,797.8021850585938
1244,794.5787353515625,792.5640869140625,800.6226806640625,795.3846435546875
1245,802.6373901367188,790.1465454101562,793.3699340820312,792.1611938476562
1246,796.996337890625,786.5201416015625,790.5494384765625,790.952392578125
1247,793.7728881835938,785.3113403320312,792.967041015625,794.981689453125
1248,802.2344360351562,788.937744140625,792.967041015625,799.8168334960938
1249,801.4285888671875,791.7582397460938,794.5787353515625,806.2637329101562
1250,797.8021850585938,790.952392578125,795.3846435546875,806.6666870117188
1251,795.3846435546875,791.7582397460938,794.5787353515625,791.7582397460938
1252,792.1611938476562,790.1465454101562,791.7582397460938,786.5201416015625
1253,788.1318969726562,788.937744140625,788.5347900390625,787.7289428710938
1254,783.6996459960938,788.5347900390625,790.5494384765625,784.5054931640625
1255,786.923095703125,791.3552856445312,793.7728881835938,786.923095703125
1256,786.923095703125,790.952392578125,793.7728881835938,792.967041015625
1257,788.1318969726562,789.3406372070312,798.2051391601562,803.040283203125
1258,791.7582397460938,790.5494384765625,799.010986328125,803.8461303710938
1259,791.3552856445312,791.7582397460938,796.1904907226562,793.7728881835938
1260,798.2051391601562,790.952392578125,796.996337890625,799.8168334960938
1261,803.040283203125,792.5640869140625,795.7875366210938,805.4578857421875
1262,799.010986328125,792.5640869140625,796.1904907226562,801.025634765625
1263,795.7875366210938,790.5494384765625,797.8021850585938,800.6226806640625
1264,801.4285888671875,795.3846435546875,801.025634765625,802.6373901367188
1265,804.6520385742188,798.6080322265625,800.2197875976562,809.4871826171875
1266,800.6226806640625,797.3992919921875,801.025634765625,811.5018310546875
1267,797.3992919921875,796.996337890625,799.8168334960938,802.2344360351562
1268,798.6080322265625,798.6080322265625,793.7728881835938,790.952392578125
1269,797.8021850585938,796.996337890625,791.7582397460938,788.1318969726562
1270,794.1758422851562,793.3699340820312,791.3552856445312,790.952392578125
1271,792.1611938476562,794.5787353515625,796.996337890625,788.5347900390625
1272,790.1465454101562,794.1758422851562,799.8168334960938,790.5494384765625
1273,794.5787353515625,795.3846435546875,800.6226806640625,798.6080322265625
1274,796.5933837890625,794.981689453125,802.6373901367188,802.2344360351562
1275,795.7875366210938,792.5640869140625,802.6373901367188,802.2344360351562
1276,799.010986328125,795.7875366210938,796.5933837890625,804.6520385742188
1277,798.2051391601562,801.025634765625,795.3846435546875,807.4725341796875
1278,796.1904907226562,797.8021850585938,797.3992919921875,796.5933837890625
1279,793.7728881835938,792.5640869140625,792.967041015625,784.908447265625
1280,794.1758422851562,788.937744140625,788.5347900390625,789.7435913085938
1281,795.3846435546875,785.7142944335938,792.1611938476562,799.010986328125
1282,791.7582397460938,790.1465454101562,794.1758422851562,794.1758422851562
1283,794.981689453125,789.7435913085938,794.5787353515625,788.5347900390625
1284,796.1904907226562,790.952392578125,796.996337890625,794.5787353515625
1285,792.967041015625,796.5933837890625,796.996337890625,796.5933837890625
1286,793.3699340820312,798.6080322265625,795.7875366210938,796.5933837890625
1287,797.3992919921875,798.6080322265625,793.7728881835938,796.996337890625
1288,797.8021850585938,792.967041015625,791.7582397460938,801.8314819335938
1289,797.3992919921875,792.967041015625,794.1758422851562,807.4725341796875
1290,802.2344360351562,793.7728881835938,797.3992919921875,803.040283203125
1291,799.4139404296875,792.967041015625,796.996337890625,801.4285888671875
1292,789.7435913085938,793.7728881835938,799.4139404296875,799.010986328125
1293,786.1171875,791.7582397460938,798.6080322265625,794.5787353515625
1294,785.7142944335938,791.7582397460938,797.3992919921875,799.010986328125
1295,787.7289428710938,791.7582397460938,794.1758422851562,802.6373901367188
1296,791.3552856445312,794.5787353515625,792.1611938476562,798.6080322265625
1297,795.7875366210938,796.1904907226562,791.7582397460938,798.6080322265625
1298,794.981689453125,792.967041015625,794.1758422851562,793.7728881835938
1299,786.5201416015625,792.5640869140625,797.8021850585938,787.7289428710938
1300,788.1318969726562,794.981689453125,798.6080322265625,797.3992919921875
1301,790.1465454101562,794.5787353515625,799.010986328125,795.7875366210938
1302,792.5640869140625,792.967041015625,796.5933837890625,787.3259887695312
1303,793.3699340820312,790.5494384765625,796.5933837890625,792.5640869140625
1304,786.923095703125,791.3552856445312,798.6080322265625,794.5787353515625
1305,785.7142944335938,798.2051391601562,799.8168334960938,794.5787353515625
1306,792.967041015625,797.8021850585938,802.2344360351562,800.6226806640625
1307,793.7728881835938,796.5933837890625,802.6373901367188,796.996337890625
1308,785.7142944335938,794.1758422851562,799.4139404296875,787.3259887695312
1309,787.3259887695312,791.7582397460938,795.3846435546875,786.1171875
1310,788.937744140625,790.1465454101562,792.5640869140625,782.4908447265625
1311,790.1465454101562,788.5347900390625,796.1904907226562,790.5494384765625
1312,794.1758422851562,789.3406372070312,800.6226806640625,805.054931640625
1313,790.5494384765625,790.952392578125,798.2051391601562,793.3699340820312
1314,788.1318969726562,792.5640869140625,796.5933837890625,790.952392578125
1315,790.952392578125,787.7289428710938,800.2197875976562,805.054931640625
1316,792.1611938476562,790.5494384765625,799.010986328125,803.8461303710938
1317,792.5640869140625,792.5640869140625,798.6080322265625,798.6080322265625
1318,790.1465454101562,792.5640869140625,798.6080322265625,799.8168334960938
1319,790.1465454101562,791.3552856445312,800.2197875976562,800.2197875976562
1320,796.1904907226562,790.5494384765625,801.8314819335938,803.8461303710938
1321,793.3699340820312,790.952392578125,803.040283203125,796.5933837890625
1322,791.3552856445312,788.937744140625,799.8168334960938,789.7435913085938
1323,792.1611938476562,786.1171875,795.3846435546875,792.967041015625
1324,786.923095703125,784.5054931640625,796.996337890625,790.952392578125
1325,781.6849975585938,783.2966918945312,797.8021850585938,792.1611938476562
1326,788.937744140625,788.1318969726562,798.2051391601562,795.7875366210938
1327,792.5640869140625,796.1904907226562,799.010986328125,793.7728881835938
1328,787.7289428710938,796.996337890625,801.4285888671875,791.7582397460938
1329,786.1171875,794.981689453125,802.6373901367188,791.3552856445312
1330,788.1318969726562,793.7728881835938,799.8168334960938,793.7728881835938
1331,790.952392578125,792.5640869140625,798.2051391601562,793.3699340820312
1332,797.8021850585938,792.5640869140625,798.2051391601562,792.1611938476562
1333,800.6226806640625,792.967041015625,796.5933837890625,794.1758422851562
1334,797.8021850585938,788.937744140625,791.7582397460938,799.010986328125
1335,800.6226806640625,788.5347900390625,793.7728881835938,798.6080322265625
1336,805.4578857421875,793.7728881835938,796.996337890625,792.5640869140625
1337,808.2783813476562,796.996337890625,795.7875366210938,799.8168334960938
1338,803.4432373046875,794.1758422851562,795.7875366210938,802.2344360351562
1339,798.6080322265625,787.3259887695312,796.1904907226562,801.025634765625
1340,793.7728881835938,788.1318969726562,798.6080322265625,799.4139404296875
1341,791.3552856445312,788.937744140625,796.1904907226562,798.6080322265625
1342,792.5640869140625,785.7142944335938,794.1758422851562,811.90478515625
1343,792.967041015625,785.3113403320312,795.7875366210938,817.5457763671875
1344,800.6226806640625,793.3699340820312,795.7875366210938,815.1282348632812
1345,803.040283203125,791.7582397460938,794.1758422851562,814.3223266601562
1346,800.6226806640625,790.1465454101562,792.5640869140625,812.3076782226562
1347,802.2344360351562,793.3699340820312,791.7582397460938,805.4578857421875
1348,790.952392578125,788.1318969726562,792.967041015625,791.7582397460938
1349,788.1318969726562,788.1318969726562,797.3992919921875,790.5494384765625
1350,792.5640869140625,788.937744140625,799.010986328125,798.6080322265625
1351,794.981689453125,788.937744140625,799.8168334960938,802.6373901367188
1352,797.3992919921875,792.967041015625,801.8314819335938,801.8314819335938
1353,795.7875366210938,789.7435913085938,799.010986328125,797.8021850585938
1354,795.7875366210938,788.1318969726562,796.996337890625,792.5640869140625
1355,796.996337890625,790.1465454101562,796.1904907226562,794.5787353515625
1356,794.5787353515625,788.1318969726562,796.5933837890625,801.8314819335938
1357,794.981689453125,785.3113403320312,798.2051391601562,806.2637329101562
1358,798.6080322265625,781.6849975585938,798.6080322265625,806.6666870117188
1359,798.6080322265625,784.1025390625,798.2051391601562,796.996337890625
1360,805.054931640625,790.1465454101562,799.8168334960938,796.1904907226562
1361,805.8607788085938,791.7582397460938,803.8461303710938,799.8168334960938
1362,803.4432373046875,788.937744140625,803.040283203125,801.4285888671875
1363,800.6226806640625,790.5494384765625,801.4285888671875,803.040283203125
1364,795.7875366210938,790.952392578125,796.996337890625,803.8461303710938
1365,791.7582397460938,792.967041015625,793.3699340820312,811.098876953125
1366,790.1465454101562,795.7875366210938,793.7728881835938,805.4578857421875
1367,796.996337890625,796.5933837890625,797.8021850585938,791.3552856445312
1368,797.3992919921875,793.7728881835938,801.025634765625,796.1904907226562
1369,796.5933837890625,792.967041015625,798.2051391601562,801.4285888671875
1370,797.3992919921875,795.3846435546875,796.996337890625,800.2197875976562
1371,797.3992919921875,794.981689453125,797.3992919921875,801.4285888671875
1372,804.2490844726562,795.3846435546875,796.996337890625,803.8461303710938
1373,801.8314819335938,788.5347900390625,799.010986328125,805.8607788085938
1374,788.937744140625,783.6996459960938,798.2051391601562,799.4139404296875
1375,786.5201416015625,790.1465454101562,797.3992919921875,794.981689453125
1376,792.1611938476562,794.1758422851562,799.010986328125,796.996337890625
1377,795.7875366210938,794.5787353515625,795.7875366210938,795.7875366210938
1378,794.5787353515625,795.3846435546875,789.7435913085938,796.5933837890625
1379,788.937744140625,791.7582397460938,790.952392578125,799.8168334960938
1380,792.5640869140625,790.952392578125,791.3552856445312,807.87548828125
1381,798.2051391601562,787.3259887695312,792.5640869140625,817.5457763671875
1382,798.2051391601562,792.967041015625,799.010986328125,813.5164794921875
1383,794.1758422851562,799.4139404296875,797.3992919921875,799.010986328125
1384,793.3699340820312,794.1758422851562,795.3846435546875,798.2051391601562
1385,792.5640869140625,793.7728881835938,794.981689453125,797.8021850585938
1386,784.908447265625,794.1758422851562,794.5787353515625,788.937744140625
1387,784.908447265625,793.7728881835938,794.5787353515625,787.7289428710938
1388,788.937744140625,795.7875366210938,792.967041015625,788.937744140625
1389,792.967041015625,796.996337890625,796.5933837890625,789.7435913085938
1390,793.3699340820312,794.981689453125,798.6080322265625,792.967041015625
1391,790.1465454101562,796.5933837890625,795.3846435546875,798.6080322265625
1392,794.1758422851562,795.3846435546875,794.981689453125,801.8314819335938
1393,792.5640869140625,788.1318969726562,792.1611938476562,796.996337890625
1394,788.937744140625,787.7289428710938,790.1465454101562,792.967041015625
1395,792.967041015625,790.952392578125,793.7728881835938,790.5494384765625
1396,793.7728881835938,790.952392578125,795.7875366210938,782.893798828125
1397,796.5933837890625,791.7582397460938,794.5787353515625,781.6849975585938
1398,799.8168334960938,795.7875366210938,796.1904907226562,793.3699340820312
1399,795.7875366210938,795.3846435546875,796.5933837890625,794.1758422851562
1400,792.5640869140625,794.1758422851562,795.3846435546875,792.5640869140625
1401,791.3552856445312,794.981689453125,794.981689453125,793.3699340820312
1402,788.5347900390625,790.952392578125,793.7728881835938,792.1611938476562
1403,790.5494384765625,789.3406372070312,790.1465454101562,796.5933837890625
1404,792.967041015625,792.1611938476562,788.937744140625,801.025634765625
1405,790.5494384765625,795.3846435546875,794.1758422851562,802.2344360351562
1406,786.5201416015625,793.3699340820312,797.8021850585938,797.8021850585938
1407,780.879150390625,787.3259887695312,796.1904907226562,794.981689453125
1408,781.2820434570312,784.908447265625,796.1904907226562,795.3846435546875
1409,781.2820434570312,786.5201416015625,795.7875366210938,786.5201416015625
1410,780.879150390625,787.3259887695312,793.3699340820312,782.893798828125
1411,787.3259887695312,790.1465454101562,794.981689453125,791.7582397460938
1412,783.6996459960938,794.1758422851562,795.7875366210938,790.5494384765625
1413,780.0732421875,794.981689453125,796.996337890625,787.3259887695312
1414,786.1171875,793.7728881835938,799.8168334960938,788.1318969726562
1415,786.923095703125,793.3699340820312,799.8168334960938,795.3846435546875
1416,780.879150390625,790.1465454101562,799.8168334960938,801.4285888671875
1417,780.4761962890625,792.1611938476562,801.025634765625,799.8168334960938
1418,789.3406372070312,793.7728881835938,801.8314819335938,799.8168334960938
1419,793.3699340820312,788.1318969726562,799.8168334960938,799.8168334960938
1420,794.5787353515625,787.7289428710938,803.8461303710938,798.2051391601562
1421,792.1611938476562,790.952392578125,803.8461303710938,796.5933837890625
1422,781.6849975585938,790.952392578125,797.8021850585938,796.5933837890625
1423,776.4468994140625,786.923095703125,795.3846435546875,793.3699340820312
1424,784.908447265625,787.3259887695312,796.1904907226562,795.3846435546875
1425,787.7289428710938,790.1465454101562,794.1758422851562,794.1758422851562
1426,785.3113403320312,790.1465454101562,790.1465454101562,795.3846435546875
1427,782.893798828125,792.967041015625,789.3406372070312,799.8168334960938
1428,782.4908447265625,795.3846435546875,792.5640869140625,791.3552856445312
1429,787.7289428710938,793.3699340820312,795.3846435546875,791.3552856445312
1430,788.937744140625,788.937744140625,791.3552856445312,794.5787353515625
1431,787.3259887695312,789.3406372070312,791.3552856445312,792.967041015625
1432,789.7435913085938,792.967041015625,791.3552856445312,794.5787353515625
1433,795.3846435546875,788.937744140625,791.7582397460938,801.8314819335938
1434,790.952392578125,789.7435913085938,794.981689453125,802.6373901367188
1435,788.937744140625,791.3552856445312,797.3992919921875,799.8168334960938
1436,789.7435913085938,792.967041015625,794.1758422851562,796.996337890625
1437,787.7289428710938,795.7875366210938,794.1758422851562,792.5640869140625
1438,789.7435913085938,789.3406372070312,795.7875366210938,790.1465454101562
1439,795.7875366210938,790.952392578125,795.7875366210938,798.6080322265625
1440,799.4139404296875,791.7582397460938,799.010986328125,805.054931640625
1441,803.8461303710938,792.967041015625,799.8168334960938,802.2344360351562
1442,799.4139404296875,794.1758422851562,795.3846435546875,804.2490844726562
1443,792.967041015625,790.1465454101562,790.1465454101562,803.040283203125
1444,799.010986328125,793.3699340820312,796.5933837890625,803.8461303710938
1445,806.2637329101562,794.5787353515625,799.8168334960938,807.4725341796875
1446,797.8021850585938,795.7875366210938,797.3992919921875,805.054931640625
1447,787.7289428710938,796.1904907226562,797.8021850585938,799.8168334960938
1448,789.3406372070312,799.4139404296875,798.6080322265625,798.2051391601562
1449,795.3846435546875,802.2344360351562,802.6373901367188,793.7728881835938
1450,793.7728881835938,796.996337890625,802.6373901367188,792.1611938476562
1451,791.7582397460938,790.952392578125,801.8314819335938,795.7875366210938
1452,790.1465454101562,791.7582397460938,800.6226806640625,795.7875366210938
1453,790.1465454101562,794.1758422851562,797.3992919921875,790.952392578125
1454,795.7875366210938,792.5640869140625,799.4139404296875,794.1758422851562
1455,798.2051391601562,789.3406372070312,799.8168334960938,801.025634765625
1456,794.981689453125,783.2966918945312,797.8021850585938,799.4139404296875
1457,794.981689453125,786.5201416015625,799.4139404296875,810.6959838867188
1458,797.8021850585938,791.7582397460938,799.010986328125,811.098876953125
1459,792.1611938476562,792.1611938476562,796.5933837890625,798.2051391601562
1460,798.6080322265625,795.3846435546875,799.8168334960938,806.6666870117188
1461,798.6080322265625,790.1465454101562,796.5933837890625,804.6520385742188
1462,791.7582397460938,784.908447265625,794.1758422851562,800.6226806640625
1463,799.8168334960938,787.3259887695312,796.5933837890625,805.054931640625
1464,801.025634765625,786.923095703125,791.7582397460938,806.6666870117188
1465,799.010986328125,788.5347900390625,790.952392578125,805.8607788085938
1466,802.6373901367188,790.5494384765625,796.5933837890625,803.4432373046875
1467,802.6373901367188,790.1465454101562,800.2197875976562,801.4285888671875
1468,802.2344360351562,789.3406372070312,802.2344360351562,798.6080322265625
1469,801.8314819335938,788.5347900390625,799.4139404296875,803.4432373046875
1470,793.7728881835938,790.1465454101562,797.8021850585938,800.2197875976562
1471,795.3846435546875,790.1465454101562,799.8168334960938,794.1758422851562
1472,798.6080322265625,791.7582397460938,800.6226806640625,801.4285888671875
1473,797.8021850585938,793.7728881835938,798.6080322265625,804.6520385742188
1474,801.8314819335938,790.952392578125,802.2344360351562,807.069580078125
1475,800.2197875976562,791.3552856445312,800.6226806640625,806.6666870117188
1476,795.3846435546875,788.1318969726562,796.5933837890625,801.025634765625
1477,792.5640869140625,786.1171875,799.010986328125,804.2490844726562
1478,794.5787353515625,790.952392578125,799.8168334960938,797.3992919921875
1479,791.7582397460938,785.7142944335938,799.4139404296875,784.908447265625
1480,795.3846435546875,782.4908447265625,799.4139404296875,794.981689453125
1481,798.2051391601562,787.3259887695312,802.2344360351562,806.6666870117188
1482,792.5640869140625,791.3552856445312,802.2344360351562,801.4285888671875
1483,793.7728881835938,792.5640869140625,795.7875366210938,796.5933837890625
1484,792.967041015625,792.1611938476562,799.010986328125,793.7728881835938
1485,796.5933837890625,793.7728881835938,803.4432373046875,793.3699340820312
1486,801.025634765625,796.5933837890625,798.2051391601562,796.1904907226562
1487,803.040283203125,792.967041015625,798.2051391601562,802.6373901367188
1488,798.2051391601562,788.1318969726562,799.4139404296875,803.4432373046875
1489,793.7728881835938,789.3406372070312,797.3992919921875,799.8168334960938
1490,796.5933837890625,792.5640869140625,797.8021850585938,798.2051391601562
1491,795.7875366210938,796.5933837890625,798.6080322265625,806.2637329101562
1492,794.5787353515625,796.1904907226562,796.5933837890625,813.5164794921875
1493,796.5933837890625,796.1904907226562,794.981689453125,802.6373901367188
1494,792.5640869140625,797.8021850585938,798.2051391601562,794.1758422851562
1495,786.923095703125,794.5787353515625,797.8021850585938,792.967041015625
1496,792.967041015625,790.952392578125,797.3992919921875,797.8021850585938
1497,790.1465454101562,789.3406372070312,799.010986328125,797.8021850585938
1498,780.879150390625,794.1758422851562,800.6226806640625,793.7728881835938
1499,783.6996459960938,798.6080322265625,800.2197875976562,794.5787353515625
1500,786.5201416015625,800.2197875976562,798.6080322265625,791.3552856445312
1501,780.0732421875,798.2051391601562,802.2344360351562,788.1318969726562
1502,782.893798828125,795.3846435546875,804.2490844726562,786.923095703125
1503,793.3699340820312,796.996337890625,802.2344360351562,791.7582397460938
1504,790.952392578125,796.5933837890625,805.054931640625,796.5933837890625
1505,789.3406372070312,795.7875366210938,806.2637329101562,800.2197875976562
1506,791.7582397460938,795.3846435546875,805.054931640625,798.6080322265625
1507,795.7875366210938,790.952392578125,801.4285888671875,800.2197875976562
1508,796.5933837890625,793.3699340820312,798.2051391601562,803.040283203125
1509,793.3699340820312,793.3699340820312,797.8021850585938,788.937744140625
1510,794.5787353515625,790.952392578125,791.3552856445312,780.879150390625
1511,797.3992919921875,790.1465454101562,788.937744140625,784.5054931640625
1512,803.8461303710938,792.1611938476562,791.7582397460938,791.7582397460938
1513,803.4432373046875,792.5640869140625,793.7728881835938,796.1904907226562
1514,801.025634765625,789.7435913085938,790.952392578125,802.6373901367188
1515,802.2344360351562,785.7142944335938,791.3552856445312,815.93408203125
1516,799.4139404296875,788.937744140625,795.7875366210938,815.5311279296875
1517,796.1904907226562,798.2051391601562,795.3846435546875,800.6226806640625
1518,796.996337890625,796.1904907226562,791.3552856445312,795.7875366210938
1519,798.6080322265625,791.7582397460938,789.3406372070312,793.3699340820312
1520,797.8021850585938,791.7582397460938,790.952392578125,790.5494384765625
1521,797.8021850585938,791.3552856445312,796.1904907226562,790.5494384765625
1522,797.3992919921875,792.1611938476562,798.2051391601562,789.7435913085938
1523,796.996337890625,793.3699340820312,801.025634765625,792.5640869140625
1524,795.3846435546875,793.7728881835938,797.3992919921875,792.1611938476562
1525,789.3406372070312,790.1465454101562,792.1611938476562,787.7289428710938
1526,790.5494384765625,790.5494384765625,793.3699340820312,792.1611938476562
1527,792.5640869140625,794.981689453125,797.3992919921875,801.4285888671875
1528,790.5494384765625,798.6080322265625,801.4285888671875,801.025634765625
1529,790.1465454101562,797.8021850585938,797.3992919921875,793.3699340820312
1530,793.3699340820312,795.7875366210938,795.7875366210938,789.7435913085938
1531,792.1611938476562,793.7728881835938,798.2051391601562,792.5640869140625
1532,785.7142944335938,793.7728881835938,799.010986328125,791.7582397460938
1533,791.7582397460938,795.3846435546875,801.025634765625,792.967041015625
1534,795.7875366210938,793.7728881835938,801.4285888671875,792.967041015625
1535,798.2051391601562,799.4139404296875,801.8314819335938,794.981689453125
1536,805.4578857421875,803.040283203125,802.2344360351562,796.1904907226562
1537,811.5018310546875,798.6080322265625,801.8314819335938,804.2490844726562
1538,810.2930297851562,797.8021850585938,800.6226806640625,811.5018310546875
1539,798.6080322265625,804.6520385742188,802.2344360351562,798.2051391601562
1540,790.952392578125,805.8607788085938,803.8461303710938,785.7142944335938
1541,796.1904907226562,803.040283203125,805.054931640625,789.3406372070312
1542,795.7875366210938,796.5933837890625,799.8168334960938,791.3552856445312
1543,796.1904907226562,797.3992919921875,800.2197875976562,793.3699340820312
1544,799.010986328125,799.010986328125,807.069580078125,797.3992919921875
1545,793.3699340820312,796.5933837890625,800.2197875976562,797.8021850585938
1546,795.7875366210938,797.8021850585938,799.8168334960938,798.6080322265625
1547,796.1904907226562,795.3846435546875,803.040283203125,794.1758422851562
1548,796.1904907226562,792.1611938476562,798.6080322265625,792.5640869140625
1549,799.4139404296875,794.1758422851562,796.5933837890625,793.7728881835938
1550,803.040283203125,798.6080322265625,798.6080322265625,792.1611938476562
1551,803.8461303710938,797.8021850585938,798.6080322265625,792.967041015625
1552,799.4139404296875,789.3406372070312,797.3992919921875,793.7728881835938
1553,800.2197875976562,790.1465454101562,796.5933837890625,797.8021850585938
1554,800.6226806640625,798.2051391601562,798.6080322265625,800.2197875976562
1555,793.7728881835938,797.3992919921875,801.025634765625,794.981689453125
1556,799.4139404296875,796.1904907226562,802.2344360351562,798.6080322265625
1557,800.6226806640625,793.3699340820312,796.1904907226562,797.8021850585938
1558,790.5494384765625,786.923095703125,788.5347900390625,787.7289428710938
1559,791.7582397460938,788.1318969726562,790.1465454101562,788.937744140625
1560,790.5494384765625,789.7435913085938,791.3552856445312,796.996337890625
1561,788.5347900390625,790.1465454101562,790.5494384765625,797.3992919921875
1562,797.8021850585938,789.7435913085938,788.5347900390625,790.952392578125
1563,799.8168334960938,789.7435913085938,791.7582397460938,791.7582397460938
1564,802.6373901367188,792.967041015625,795.7875366210938,801.025634765625
1565,803.040283203125,791.3552856445312,791.7582397460938,800.2197875976562
1566,799.010986328125,790.952392578125,792.5640869140625,790.1465454101562
1567,802.2344360351562,791.3552856445312,792.967041015625,786.923095703125
1568,798.6080322265625,787.7289428710938,790.952392578125,793.7728881835938
1569,792.5640869140625,784.5054931640625,792.1611938476562,799.8168334960938
1570,793.3699340820312,789.7435913085938,789.7435913085938,792.967041015625
1571,796.1904907226562,793.7728881835938,792.1611938476562,789.3406372070312
1572,790.5494384765625,795.3846435546875,794.1758422851562,791.3552856445312
1573,790.5494384765625,793.7728881835938,793.7728881835938,784.908447265625
1574,792.5640869140625,789.3406372070312,796.5933837890625,783.2966918945312
