timestamp,RAW_TP9,RAW_AF7,RAW_AF8,RAW_TP10
1,785.7142944335938,782.893798828125,797.3992919921875,793.3699340820312
2,788.1318969726562,784.908447265625,795.7875366210938,796.996337890625
3,791.7582397460938,786.1171875,794.981689453125,795.7875366210938
4,789.7435913085938,785.3113403320312,795.3846435546875,792.1611938476562
5,789.7435913085938,786.5201416015625,791.3552856445312,792.967041015625
6,787.7289428710938,786.5201416015625,788.937744140625,789.3406372070312
7,786.923095703125,780.4761962890625,786.923095703125,779.2673950195312
8,786.1171875,786.1171875,788.1318969726562,778.8644409179688
9,787.7289428710938,794.981689453125,788.5347900390625,785.3113403320312
10,787.3259887695312,799.010986328125,785.7142944335938,780.0732421875
11,787.3259887695312,797.8021850585938,787.7289428710938,778.4615478515625
12,786.1171875,798.6080322265625,786.923095703125,782.893798828125
13,785.3113403320312,795.3846435546875,783.2966918945312,783.6996459960938
14,784.908447265625,792.5640869140625,782.893798828125,785.7142944335938
15,783.6996459960938,795.3846435546875,782.4908447265625,780.0732421875
16,782.087890625,792.5640869140625,780.879150390625,778.8644409179688
17,785.3113403320312,791.7582397460938,783.2966918945312,778.8644409179688
18,787.7289428710938,792.967041015625,784.908447265625,777.6557006835938
19,788.937744140625,788.5347900390625,783.2966918945312,777.2527465820312
20,788.937744140625,788.1318969726562,780.4761962890625,778.4615478515625
21,785.3113403320312,794.5787353515625,782.087890625,779.2673950195312
22,781.2820434570312,792.967041015625,782.893798828125,778.4615478515625
23,783.6996459960938,787.3259887695312,782.893798828125,783.2966918945312
24,786.5201416015625,784.1025390625,779.6703491210938,779.6703491210938
25,784.1025390625,784.5054931640625,778.05859375,771.6116943359375
26,786.1171875,789.3406372070312,784.5054931640625,774.029296875
27,786.1171875,788.5347900390625,791.3552856445312,776.8497924804688
28,791.3552856445312,787.7289428710938,793.3699340820312,788.1318969726562
29,796.1904907226562,790.952392578125,789.7435913085938,795.7875366210938
30,792.1611938476562,789.3406372070312,785.7142944335938,788.5347900390625
31,787.7289428710938,790.952392578125,788.937744140625,784.1025390625
32,780.4761962890625,788.937744140625,790.5494384765625,791.7582397460938
33,783.6996459960938,786.1171875,790.1465454101562,792.967041015625
34,784.1025390625,785.3113403320312,790.1465454101562,784.5054931640625
35,779.6703491210938,784.1025390625,787.7289428710938,782.087890625
36,780.0732421875,782.4908447265625,791.7582397460938,779.6703491210938
37,779.2673950195312,782.087890625,795.3846435546875,785.3113403320312
38,779.2673950195312,786.5201416015625,792.1611938476562,789.7435913085938
39,784.908447265625,790.5494384765625,793.3699340820312,790.5494384765625
40,788.1318969726562,788.1318969726562,791.7582397460938,794.1758422851562
41,779.6703491210938,784.5054931640625,792.5640869140625,793.7728881835938
42,780.4761962890625,784.5054931640625,794.981689453125,788.5347900390625
43,783.6996459960938,786.923095703125,795.3846435546875,790.5494384765625
44,787.7289428710938,787.7289428710938,794.981689453125,790.1465454101562
45,798.2051391601562,780.0732421875,788.5347900390625,790.5494384765625
46,804.2490844726562,775.6410522460938,793.7728881835938,797.3992919921875
47,793.3699340820312,782.4908447265625,795.3846435546875,787.7289428710938
48,778.4615478515625,792.1611938476562,788.1318969726562,768.3883056640625
49,778.8644409179688,790.952392578125,787.3259887695312,767.5823974609375
50,778.05859375,784.908447265625,787.7289428710938,776.4468994140625
51,779.6703491210938,787.7289428710938,788.1318969726562,785.3113403320312
52,772.0146484375,787.7289428710938,793.3699340820312,784.5054931640625
53,763.9560546875,782.087890625,790.1465454101562,770.0
54,774.4322509765625,780.4761962890625,787.3259887695312,770.0
55,782.087890625,780.0732421875,788.937744140625,780.0732421875
56,778.05859375,781.6849975585938,788.5347900390625,780.879150390625
57,779.6703491210938,785.3113403320312,790.1465454101562,780.0732421875
58,780.879150390625,785.3113403320312,790.5494384765625,782.4908447265625
59,782.4908447265625,785.3113403320312,791.7582397460938,784.1025390625
60,786.5201416015625,788.5347900390625,791.7582397460938,786.1171875
61,785.7142944335938,792.5640869140625,787.7289428710938,781.6849975585938
62,781.2820434570312,791.3552856445312,785.7142944335938,778.8644409179688
63,784.908447265625,792.967041015625,784.5054931640625,780.4761962890625
64,796.1904907226562,795.3846435546875,783.6996459960938,775.2380981445312
65,803.4432373046875,793.7728881835938,784.908447265625,778.8644409179688
66,799.010986328125,794.5787353515625,785.7142944335938,786.923095703125
67,790.952392578125,791.7582397460938,783.2966918945312,780.4761962890625
68,789.7435913085938,789.7435913085938,780.879150390625,786.5201416015625
69,791.3552856445312,791.7582397460938,784.908447265625,792.5640869140625
70,793.3699340820312,791.3552856445312,786.5201416015625,783.2966918945312
71,792.5640869140625,787.3259887695312,786.5201416015625,779.2673950195312
72,790.952392578125,786.5201416015625,788.1318969726562,781.6849975585938
73,788.5347900390625,793.7728881835938,790.952392578125,784.908447265625
74,790.5494384765625,794.5787353515625,794.1758422851562,790.5494384765625
75,794.1758422851562,792.967041015625,791.3552856445312,788.5347900390625
76,792.5640869140625,789.7435913085938,794.981689453125,791.7582397460938
77,788.1318969726562,786.5201416015625,793.7728881835938,791.7582397460938
78,782.087890625,787.3259887695312,787.7289428710938,781.2820434570312
79,778.05859375,791.7582397460938,788.937744140625,777.2527465820312
80,782.893798828125,792.5640869140625,792.967041015625,775.6410522460938
81,781.2820434570312,788.937744140625,791.3552856445312,775.6410522460938
82,785.7142944335938,790.952392578125,790.1465454101562,788.5347900390625
83,790.1465454101562,792.5640869140625,789.3406372070312,787.3259887695312
84,788.937744140625,791.3552856445312,787.7289428710938,779.6703491210938
85,797.3992919921875,795.7875366210938,788.5347900390625,787.3259887695312
86,798.2051391601562,797.3992919921875,789.7435913085938,794.5787353515625
87,799.010986328125,796.5933837890625,793.7728881835938,796.1904907226562
88,800.6226806640625,798.6080322265625,796.5933837890625,796.1904907226562
89,802.2344360351562,798.6080322265625,792.1611938476562,796.5933837890625
90,804.2490844726562,794.981689453125,796.996337890625,793.7728881835938
91,804.2490844726562,794.1758422851562,799.8168334960938,788.5347900390625
92,799.4139404296875,789.7435913085938,799.010986328125,784.1025390625
93,794.5787353515625,788.5347900390625,798.2051391601562,783.2966918945312
94,790.1465454101562,790.5494384765625,795.3846435546875,785.7142944335938
95,780.0732421875,784.5054931640625,789.7435913085938,778.05859375
96,775.6410522460938,780.879150390625,781.2820434570312,776.0439453125
97,774.4322509765625,781.6849975585938,782.893798828125,776.8497924804688
98,775.6410522460938,784.5054931640625,788.5347900390625,776.8497924804688
99,776.8497924804688,785.3113403320312,792.5640869140625,778.05859375
100,778.4615478515625,782.087890625,791.3552856445312,781.6849975585938
101,784.908447265625,785.7142944335938,791.7582397460938,781.6849975585938
102,789.3406372070312,789.7435913085938,792.967041015625,782.087890625
103,790.1465454101562,790.1465454101562,793.3699340820312,787.3259887695312
104,790.1465454101562,786.5201416015625,794.5787353515625,784.5054931640625
105,791.7582397460938,783.6996459960938,791.3552856445312,788.1318969726562
106,791.7582397460938,785.7142944335938,791.7582397460938,789.3406372070312
107,792.1611938476562,788.1318969726562,793.7728881835938,788.1318969726562
108,792.967041015625,788.5347900390625,793.7728881835938,780.4761962890625
109,798.2051391601562,788.937744140625,796.996337890625,772.8204956054688
110,803.4432373046875,792.5640869140625,798.2051391601562,776.4468994140625
111,803.8461303710938,792.967041015625,792.1611938476562,779.2673950195312
112,804.2490844726562,789.7435913085938,793.3699340820312,781.2820434570312
113,795.7875366210938,787.3259887695312,794.5787353515625,779.6703491210938
114,787.7289428710938,792.1611938476562,790.952392578125,782.4908447265625
115,788.1318969726562,794.1758422851562,790.5494384765625,783.2966918945312
116,790.1465454101562,786.1171875,791.3552856445312,786.923095703125
117,788.1318969726562,785.7142944335938,787.3259887695312,790.5494384765625
118,786.1171875,790.1465454101562,785.3113403320312,779.6703491210938
119,788.1318969726562,790.952392578125,789.3406372070312,775.6410522460938
120,784.1025390625,788.5347900390625,792.1611938476562,779.6703491210938
121,787.3259887695312,787.3259887695312,788.5347900390625,782.893798828125
122,786.5201416015625,787.7289428710938,786.5201416015625,780.0732421875
123,779.2673950195312,784.908447265625,786.5201416015625,770.4029541015625
124,780.0732421875,786.1171875,788.5347900390625,771.2088012695312
125,784.908447265625,787.7289428710938,795.7875366210938,782.4908447265625
126,789.7435913085938,783.6996459960938,797.3992919921875,778.8644409179688
127,796.1904907226562,788.1318969726562,798.6080322265625,781.6849975585938
128,796.1904907226562,790.952392578125,802.2344360351562,794.1758422851562
129,789.3406372070312,790.5494384765625,799.8168334960938,785.7142944335938
130,793.3699340820312,788.937744140625,798.6080322265625,778.4615478515625
131,796.996337890625,787.7289428710938,799.4139404296875,783.6996459960938
132,798.2051391601562,788.937744140625,795.7875366210938,793.3699340820312
133,798.6080322265625,792.1611938476562,795.7875366210938,792.1611938476562
134,793.3699340820312,792.967041015625,796.1904907226562,786.5201416015625
135,795.3846435546875,791.7582397460938,798.2051391601562,788.937744140625
136,800.6226806640625,793.3699340820312,801.4285888671875,792.1611938476562
137,804.2490844726562,793.7728881835938,803.8461303710938,800.6226806640625
138,806.6666870117188,797.8021850585938,801.025634765625,799.8168334960938
139,800.2197875976562,801.025634765625,799.8168334960938,798.6080322265625
140,796.1904907226562,797.8021850585938,800.2197875976562,799.8168334960938
141,790.952392578125,792.967041015625,799.010986328125,790.1465454101562
142,792.5640869140625,790.1465454101562,799.4139404296875,790.952392578125
143,792.967041015625,788.1318969726562,796.996337890625,784.908447265625
144,794.981689453125,791.3552856445312,795.7875366210938,778.05859375
145,799.8168334960938,794.5787353515625,795.7875366210938,781.6849975585938
146,792.967041015625,790.952392578125,794.5787353515625,778.8644409179688
147,795.3846435546875,788.5347900390625,795.7875366210938,783.2966918945312
148,789.7435913085938,784.908447265625,795.7875366210938,789.3406372070312
149,785.3113403320312,789.3406372070312,798.2051391601562,789.7435913085938
150,786.923095703125,789.7435913085938,795.7875366210938,789.7435913085938
151,788.937744140625,786.5201416015625,795.3846435546875,794.5787353515625
152,792.1611938476562,787.7289428710938,802.6373901367188,792.1611938476562
153,793.7728881835938,795.7875366210938,805.4578857421875,786.923095703125
154,788.5347900390625,796.996337890625,799.010986328125,777.2527465820312
155,783.2966918945312,792.1611938476562,791.7582397460938,771.2088012695312
156,787.3259887695312,790.5494384765625,793.7728881835938,775.2380981445312
157,791.7582397460938,789.3406372070312,794.1758422851562,778.4615478515625
158,792.967041015625,792.967041015625,791.7582397460938,784.5054931640625
159,787.7289428710938,799.8168334960938,793.7728881835938,790.1465454101562
160,780.879150390625,799.8168334960938,793.3699340820312,780.879150390625
161,777.2527465820312,796.1904907226562,794.981689453125,776.4468994140625
162,778.05859375,794.1758422851562,794.1758422851562,786.1171875
163,775.2380981445312,792.5640869140625,789.3406372070312,788.5347900390625
164,776.4468994140625,789.3406372070312,788.937744140625,780.0732421875
165,780.879150390625,789.3406372070312,790.952392578125,779.6703491210938
166,786.923095703125,791.7582397460938,790.952392578125,786.5201416015625
167,785.7142944335938,788.5347900390625,790.952392578125,786.1171875
168,784.908447265625,791.7582397460938,790.1465454101562,782.893798828125
169,784.908447265625,793.7728881835938,786.5201416015625,784.1025390625
170,781.2820434570312,792.5640869140625,788.1318969726562,785.3113403320312
171,782.087890625,793.7728881835938,788.5347900390625,783.2966918945312
172,788.1318969726562,791.7582397460938,789.7435913085938,787.7289428710938
173,790.5494384765625,790.1465454101562,791.7582397460938,787.3259887695312
174,792.5640869140625,792.5640869140625,792.967041015625,789.7435913085938
175,793.7728881835938,795.7875366210938,798.2051391601562,800.6226806640625
176,785.3113403320312,794.1758422851562,796.1904907226562,795.3846435546875
177,779.2673950195312,784.5054931640625,790.952392578125,784.908447265625
178,783.2966918945312,787.3259887695312,796.996337890625,792.5640869140625
179,784.5054931640625,798.6080322265625,806.6666870117188,794.981689453125
180,777.2527465820312,788.937744140625,803.4432373046875,785.3113403320312
181,769.5970458984375,788.5347900390625,799.010986328125,777.2527465820312
182,774.8351440429688,798.6080322265625,802.2344360351562,772.8204956054688
183,771.6116943359375,798.2051391601562,805.8607788085938,766.3735961914062
184,754.6886596679688,801.8314819335938,807.4725341796875,749.8534545898438
185,734.1392211914062,802.6373901367188,814.7252807617188,737.7655639648438
186,720.8424682617188,802.6373901367188,817.5457763671875,730.915771484375
187,715.2014770507812,807.87548828125,817.5457763671875,716.8131713867188
188,699.89013671875,809.89013671875,822.3809814453125,697.4725341796875
189,679.7435913085938,811.5018310546875,824.7985229492188,683.3699340820312
190,663.6264038085938,810.2930297851562,830.03662109375,673.6996459960938
191,657.5823974609375,812.7106323242188,834.4688720703125,668.4615478515625
192,653.5531005859375,811.90478515625,838.4981689453125,665.6410522460938
193,647.5091552734375,807.069580078125,841.3186645507812,649.9267578125
194,640.6593627929688,805.8607788085938,842.930419921875,638.6447143554688
195,646.3003540039062,808.6813354492188,842.5274658203125,647.912109375
196,661.6116943359375,809.89013671875,845.7509155273438,663.2234497070312
197,660.0,807.87548828125,849.7802124023438,660.8058471679688
198,667.2527465820312,812.3076782226562,852.6007080078125,661.2088012695312
199,689.4139404296875,812.7106323242188,850.989013671875,676.5201416015625
200,696.6666870117188,809.89013671875,849.3773193359375,684.981689453125
201,695.054931640625,808.6813354492188,845.3479614257812,691.8314819335938
202,707.5457763671875,799.4139404296875,834.8717651367188,707.94873046875
203,722.05126953125,792.967041015625,831.2454223632812,716.00732421875
204,731.3186645507812,794.5787353515625,827.2161254882812,723.2600708007812
205,732.5274658203125,794.5787353515625,824.3956298828125,724.4688720703125
206,734.945068359375,789.3406372070312,821.5750732421875,728.4981689453125
207,747.032958984375,790.1465454101562,817.1428833007812,743.8095092773438
208,757.106201171875,792.967041015625,816.7399291992188,758.3150024414062
209,760.3296508789062,790.1465454101562,814.3223266601562,765.970703125
210,773.6264038085938,793.3699340820312,809.4871826171875,772.4176025390625
211,786.1171875,795.7875366210938,807.4725341796875,779.6703491210938
212,790.952392578125,793.7728881835938,807.4725341796875,788.1318969726562
213,794.1758422851562,793.7728881835938,802.2344360351562,795.3846435546875
214,799.010986328125,794.5787353515625,794.1758422851562,796.5933837890625
215,807.4725341796875,792.5640869140625,789.7435913085938,804.6520385742188
216,808.2783813476562,792.967041015625,782.893798828125,811.5018310546875
217,807.069580078125,792.1611938476562,777.2527465820312,817.1428833007812
218,813.113525390625,789.7435913085938,778.05859375,816.3369750976562
219,814.7252807617188,788.937744140625,777.2527465820312,813.91943359375
220,823.5897216796875,786.923095703125,773.2234497070312,823.5897216796875
221,823.1868286132812,785.3113403320312,772.4176025390625,828.02197265625
222,823.99267578125,782.4908447265625,771.2088012695312,825.2014770507812
223,830.4395751953125,781.6849975585938,772.0146484375,825.6043701171875
224,831.2454223632812,786.5201416015625,771.2088012695312,834.06591796875
225,832.05126953125,786.5201416015625,768.3883056640625,831.2454223632812
226,824.7985229492188,782.4908447265625,767.5823974609375,819.96337890625
227,824.7985229492188,781.6849975585938,765.970703125,820.7692260742188
228,836.08056640625,782.893798828125,769.1941528320312,824.3956298828125
229,842.930419921875,786.1171875,770.0,826.8131713867188
230,837.6923217773438,788.1318969726562,763.9560546875,825.6043701171875
231,833.6630249023438,784.1025390625,763.5531005859375,821.97802734375
232,834.4688720703125,788.1318969726562,766.7765502929688,826.8131713867188
233,834.06591796875,784.5054931640625,765.5677490234375,829.2307739257812
234,834.4688720703125,783.2966918945312,763.5531005859375,829.2307739257812
235,836.08056640625,788.1318969726562,765.1648559570312,833.6630249023438
236,834.06591796875,786.923095703125,767.5823974609375,836.08056640625
237,832.8571166992188,786.5201416015625,767.5823974609375,832.05126953125
238,836.4835205078125,785.3113403320312,769.1941528320312,832.05126953125
239,840.10986328125,788.937744140625,770.8058471679688,840.10986328125
240,835.6776733398438,789.3406372070312,772.4176025390625,843.7362670898438
241,830.4395751953125,785.3113403320312,773.6264038085938,832.4542236328125
242,829.2307739257812,785.3113403320312,775.2380981445312,831.6483764648438
243,832.8571166992188,789.7435913085938,774.8351440429688,836.886474609375
244,843.3333129882812,790.952392578125,774.029296875,836.886474609375
245,846.959716796875,791.3552856445312,777.6557006835938,839.3040161132812
246,841.7216186523438,796.996337890625,781.6849975585938,841.3186645507812
247,840.5128173828125,799.010986328125,781.2820434570312,851.7948608398438
248,840.10986328125,794.981689453125,778.8644409179688,843.3333129882812
249,836.886474609375,790.5494384765625,776.0439453125,826.4102783203125
250,843.3333129882812,796.996337890625,785.3113403320312,834.06591796875
251,840.915771484375,802.2344360351562,794.1758422851562,834.06591796875
252,837.2893676757812,804.2490844726562,790.952392578125,832.4542236328125
253,834.4688720703125,799.8168334960938,786.1171875,828.02197265625
254,828.8278198242188,795.3846435546875,782.4908447265625,818.7545776367188
255,826.00732421875,796.1904907226562,782.087890625,818.3516235351562
256,821.1721801757812,787.7289428710938,780.879150390625,811.90478515625
257,817.94873046875,785.3113403320312,779.6703491210938,810.2930297851562
258,815.93408203125,784.908447265625,780.0732421875,809.4871826171875
259,809.4871826171875,782.087890625,779.6703491210938,804.2490844726562
260,808.6813354492188,780.4761962890625,776.0439453125,804.2490844726562
261,815.93408203125,780.4761962890625,778.05859375,804.2490844726562
262,816.3369750976562,785.7142944335938,780.0732421875,806.2637329101562
263,809.4871826171875,785.3113403320312,779.2673950195312,805.4578857421875
264,811.098876953125,785.3113403320312,778.05859375,796.1904907226562
265,813.91943359375,780.4761962890625,778.4615478515625,792.967041015625
266,815.93408203125,781.2820434570312,781.6849975585938,799.8168334960938
267,816.7399291992188,790.952392578125,785.3113403320312,802.2344360351562
268,813.113525390625,792.5640869140625,786.1171875,799.4139404296875
269,815.93408203125,791.7582397460938,786.923095703125,806.6666870117188
270,817.5457763671875,790.5494384765625,783.6996459960938,806.6666870117188
271,813.5164794921875,790.952392578125,778.8644409179688,802.2344360351562
272,804.2490844726562,786.5201416015625,775.6410522460938,793.7728881835938
273,801.025634765625,784.1025390625,779.2673950195312,788.937744140625
274,805.054931640625,784.908447265625,782.893798828125,802.2344360351562
275,805.054931640625,786.1171875,782.893798828125,804.2490844726562
276,803.4432373046875,788.5347900390625,780.0732421875,800.6226806640625
277,801.8314819335938,786.1171875,782.4908447265625,808.6813354492188
278,803.040283203125,787.3259887695312,784.1025390625,807.87548828125
279,805.4578857421875,787.3259887695312,781.2820434570312,801.025634765625
280,805.8607788085938,783.6996459960938,784.5054931640625,805.054931640625
281,804.2490844726562,780.879150390625,788.5347900390625,808.2783813476562
282,799.010986328125,786.5201416015625,789.7435913085938,802.6373901367188
283,798.2051391601562,793.7728881835938,786.5201416015625,805.054931640625
284,800.6226806640625,794.1758422851562,787.3259887695312,807.4725341796875
285,801.025634765625,794.981689453125,786.923095703125,805.4578857421875
286,801.025634765625,795.3846435546875,788.1318969726562,805.4578857421875
287,801.8314819335938,794.981689453125,790.952392578125,798.6080322265625
288,803.040283203125,794.1758422851562,791.7582397460938,794.5787353515625
289,802.6373901367188,790.952392578125,792.967041015625,797.8021850585938
290,809.084228515625,791.7582397460938,798.6080322265625,806.2637329101562
291,809.89013671875,793.3699340820312,800.6226806640625,803.4432373046875
292,795.7875366210938,787.7289428710938,796.1904907226562,790.5494384765625
293,794.5787353515625,790.5494384765625,794.1758422851562,789.3406372070312
294,799.010986328125,791.3552856445312,794.5787353515625,793.3699340820312
295,794.981689453125,787.7289428710938,790.5494384765625,796.1904907226562
296,793.7728881835938,790.5494384765625,791.3552856445312,794.5787353515625
297,788.5347900390625,790.5494384765625,788.937744140625,787.3259887695312
298,787.7289428710938,790.952392578125,782.4908447265625,783.6996459960938
299,792.5640869140625,794.1758422851562,783.2966918945312,788.5347900390625
300,793.7728881835938,792.5640869140625,787.3259887695312,793.3699340820312
301,794.1758422851562,786.5201416015625,787.7289428710938,790.1465454101562
302,793.7728881835938,787.7289428710938,784.908447265625,787.3259887695312
303,792.967041015625,790.5494384765625,786.5201416015625,787.3259887695312
304,799.010986328125,790.1465454101562,790.952392578125,792.5640869140625
305,801.4285888671875,792.5640869140625,791.7582397460938,795.3846435546875
306,801.025634765625,792.1611938476562,790.952392578125,792.967041015625
307,796.1904907226562,787.3259887695312,789.3406372070312,792.1611938476562
308,790.5494384765625,784.1025390625,787.7289428710938,792.5640869140625
309,791.7582397460938,786.5201416015625,787.3259887695312,793.3699340820312
310,796.996337890625,784.908447265625,788.937744140625,790.952392578125
311,801.8314819335938,784.5054931640625,789.7435913085938,795.7875366210938
312,792.967041015625,784.5054931640625,789.7435913085938,798.2051391601562
313,786.1171875,780.879150390625,788.1318969726562,796.5933837890625
314,791.7582397460938,782.4908447265625,789.3406372070312,792.1611938476562
315,797.3992919921875,785.7142944335938,790.952392578125,786.923095703125
316,799.010986328125,786.1171875,790.1465454101562,795.3846435546875
317,801.025634765625,786.1171875,791.3552856445312,798.2051391601562
318,799.010986328125,788.937744140625,795.7875366210938,788.937744140625
319,790.952392578125,788.5347900390625,795.7875366210938,784.908447265625
320,791.3552856445312,787.7289428710938,792.967041015625,792.967041015625
321,797.8021850585938,792.1611938476562,796.5933837890625,796.5933837890625
322,794.981689453125,789.3406372070312,803.4432373046875,784.908447265625
323,790.5494384765625,785.3113403320312,803.4432373046875,777.6557006835938
324,791.3552856445312,785.3113403320312,799.4139404296875,780.4761962890625
325,792.1611938476562,787.7289428710938,803.8461303710938,794.1758422851562
326,796.996337890625,790.5494384765625,809.89013671875,802.6373901367188
327,803.8461303710938,791.7582397460938,807.069580078125,805.054931640625
328,805.4578857421875,794.981689453125,802.2344360351562,803.040283203125
329,802.6373901367188,793.7728881835938,801.025634765625,803.4432373046875
330,801.4285888671875,795.3846435546875,801.4285888671875,808.2783813476562
331,800.2197875976562,794.5787353515625,801.4285888671875,807.4725341796875
332,796.996337890625,790.5494384765625,795.7875366210938,804.2490844726562
333,789.3406372070312,790.5494384765625,790.5494384765625,792.1611938476562
334,792.967041015625,790.952392578125,791.3552856445312,792.1611938476562
335,794.1758422851562,789.7435913085938,796.5933837890625,796.1904907226562
336,792.5640869140625,792.5640869140625,801.025634765625,796.996337890625
337,790.5494384765625,791.3552856445312,797.3992919921875,792.5640869140625
338,786.923095703125,786.5201416015625,793.3699340820312,787.7289428710938
339,786.923095703125,788.937744140625,794.1758422851562,781.6849975585938
340,784.1025390625,787.3259887695312,796.996337890625,775.2380981445312
341,790.5494384765625,786.1171875,800.6226806640625,783.6996459960938
342,796.996337890625,788.5347900390625,801.025634765625,777.6557006835938
343,789.7435913085938,787.7289428710938,799.8168334960938,776.4468994140625
344,783.6996459960938,786.923095703125,794.1758422851562,781.2820434570312
345,787.7289428710938,789.3406372070312,791.3552856445312,780.4761962890625
346,794.5787353515625,785.7142944335938,794.5787353515625,784.5054931640625
347,791.3552856445312,783.2966918945312,792.967041015625,788.1318969726562
348,788.1318969726562,787.3259887695312,792.5640869140625,788.937744140625
349,789.7435913085938,784.908447265625,794.981689453125,786.923095703125
350,791.7582397460938,785.7142944335938,791.7582397460938,791.7582397460938
351,793.7728881835938,790.5494384765625,790.1465454101562,789.3406372070312
352,794.981689453125,788.5347900390625,790.952392578125,784.5054931640625
353,794.1758422851562,787.3259887695312,788.1318969726562,785.7142944335938
354,785.3113403320312,791.3552856445312,790.1465454101562,786.923095703125
355,784.1025390625,787.3259887695312,792.967041015625,791.3552856445312
356,794.1758422851562,784.5054931640625,792.967041015625,792.5640869140625
357,799.010986328125,790.5494384765625,790.952392578125,792.967041015625
358,794.981689453125,792.1611938476562,789.7435913085938,798.2051391601562
359,796.5933837890625,794.5787353515625,795.7875366210938,796.996337890625
360,796.5933837890625,796.1904907226562,798.2051391601562,789.7435913085938
361,796.1904907226562,791.3552856445312,799.8168334960938,785.3113403320312
362,800.2197875976562,788.937744140625,800.6226806640625,785.7142944335938
363,795.3846435546875,794.5787353515625,794.5787353515625,789.3406372070312
364,790.1465454101562,793.3699340820312,790.952392578125,782.087890625
365,790.5494384765625,789.7435913085938,793.7728881835938,781.2820434570312
366,791.7582397460938,790.5494384765625,793.3699340820312,787.3259887695312
367,792.1611938476562,790.5494384765625,790.952392578125,793.3699340820312
368,790.5494384765625,788.937744140625,793.7728881835938,788.1318969726562
369,793.7728881835938,790.5494384765625,793.3699340820312,782.087890625
370,801.025634765625,799.4139404296875,796.996337890625,797.8021850585938
371,805.054931640625,808.6813354492188,800.6226806640625,803.040283203125
372,809.89013671875,806.2637329101562,799.010986328125,797.3992919921875
373,800.2197875976562,797.3992919921875,793.7728881835938,788.5347900390625
374,790.952392578125,793.3699340820312,791.3552856445312,787.7289428710938
375,792.5640869140625,795.3846435546875,792.967041015625,788.937744140625
376,792.5640869140625,791.3552856445312,794.981689453125,786.1171875
377,793.3699340820312,789.7435913085938,794.981689453125,786.923095703125
378,798.6080322265625,794.5787353515625,797.3992919921875,794.1758422851562
379,800.6226806640625,794.5787353515625,797.3992919921875,800.6226806640625
380,795.3846435546875,791.3552856445312,793.7728881835938,790.952392578125
381,798.2051391601562,787.7289428710938,792.1611938476562,784.5054931640625
382,801.025634765625,788.5347900390625,792.1611938476562,789.7435913085938
383,793.3699340820312,789.3406372070312,789.3406372070312,781.6849975585938
384,792.1611938476562,787.7289428710938,788.5347900390625,779.2673950195312
385,790.5494384765625,788.5347900390625,788.1318969726562,784.5054931640625
386,794.1758422851562,794.1758422851562,790.1465454101562,786.923095703125
387,797.8021850585938,795.3846435546875,792.967041015625,788.937744140625
388,791.3552856445312,787.3259887695312,788.5347900390625,785.7142944335938
389,788.937744140625,787.3259887695312,784.5054931640625,782.087890625
390,786.5201416015625,792.967041015625,786.923095703125,777.2527465820312
391,787.7289428710938,793.3699340820312,789.3406372070312,772.8204956054688
392,794.5787353515625,792.967041015625,786.923095703125,776.4468994140625
393,794.981689453125,794.1758422851562,788.5347900390625,786.923095703125
394,790.952392578125,797.8021850585938,793.7728881835938,785.7142944335938
395,786.923095703125,796.996337890625,790.952392578125,782.893798828125
396,784.1025390625,792.967041015625,789.3406372070312,782.4908447265625
397,787.3259887695312,795.3846435546875,788.5347900390625,784.908447265625
398,793.7728881835938,796.5933837890625,786.923095703125,791.7582397460938
399,790.5494384765625,792.5640869140625,784.1025390625,784.1025390625
400,784.5054931640625,794.1758422851562,784.908447265625,779.6703491210938
401,785.7142944335938,799.8168334960938,792.5640869140625,789.7435913085938
402,789.7435913085938,801.4285888671875,793.3699340820312,795.3846435546875
403,788.5347900390625,794.1758422851562,787.3259887695312,786.923095703125
404,784.908447265625,786.1171875,783.6996459960938,783.2966918945312
405,783.6996459960938,788.5347900390625,784.908447265625,792.5640869140625
406,783.2966918945312,790.1465454101562,785.3113403320312,784.5054931640625
407,784.908447265625,786.1171875,784.1025390625,776.0439453125
408,788.937744140625,786.5201416015625,786.5201416015625,780.0732421875
409,792.967041015625,788.937744140625,788.1318969726562,786.923095703125
410,792.5640869140625,788.5347900390625,789.7435913085938,786.1171875
411,792.5640869140625,789.7435913085938,787.3259887695312,783.2966918945312
412,788.5347900390625,791.3552856445312,784.908447265625,784.1025390625
413,788.5347900390625,792.1611938476562,786.1171875,784.1025390625
414,796.1904907226562,794.981689453125,788.937744140625,785.7142944335938
415,796.996337890625,797.3992919921875,792.967041015625,787.3259887695312
416,796.996337890625,800.6226806640625,799.010986328125,790.1465454101562
417,800.6226806640625,804.2490844726562,803.8461303710938,793.3699340820312
418,798.2051391601562,801.025634765625,801.8314819335938,788.937744140625
419,799.010986328125,801.8314819335938,795.3846435546875,790.5494384765625
420,792.5640869140625,799.8168334960938,792.5640869140625,787.7289428710938
421,787.7289428710938,796.1904907226562,794.5787353515625,784.1025390625
422,792.1611938476562,792.5640869140625,794.1758422851562,792.1611938476562
423,796.1904907226562,792.5640869140625,794.1758422851562,798.2051391601562
424,798.6080322265625,794.981689453125,795.7875366210938,801.8314819335938
425,791.3552856445312,789.3406372070312,795.7875366210938,799.010986328125
426,786.1171875,786.923095703125,795.3846435546875,794.5787353515625
427,784.1025390625,788.1318969726562,792.967041015625,794.5787353515625
428,783.6996459960938,786.5201416015625,788.5347900390625,796.1904907226562
429,788.5347900390625,786.1171875,788.1318969726562,789.7435913085938
430,788.1318969726562,786.5201416015625,788.937744140625,787.7289428710938
431,787.7289428710938,786.923095703125,793.3699340820312,797.3992919921875
432,790.952392578125,790.1465454101562,795.7875366210938,803.8461303710938
433,794.1758422851562,792.5640869140625,791.7582397460938,801.4285888671875
434,803.4432373046875,794.981689453125,795.3846435546875,802.2344360351562
435,802.2344360351562,795.3846435546875,796.5933837890625,800.2197875976562
436,792.1611938476562,796.996337890625,790.952392578125,798.6080322265625
437,792.1611938476562,797.8021850585938,794.5787353515625,800.6226806640625
438,798.6080322265625,794.5787353515625,799.4139404296875,800.6226806640625
439,800.2197875976562,791.3552856445312,797.3992919921875,800.2197875976562
440,794.5787353515625,792.967041015625,796.1904907226562,796.1904907226562
441,793.3699340820312,796.5933837890625,796.1904907226562,793.7728881835938
442,796.996337890625,790.5494384765625,796.1904907226562,793.3699340820312
443,796.1904907226562,786.923095703125,798.2051391601562,797.3992919921875
444,792.5640869140625,789.3406372070312,799.4139404296875,795.7875366210938
445,793.7728881835938,790.952392578125,799.010986328125,791.7582397460938
446,790.1465454101562,789.7435913085938,801.8314819335938,790.5494384765625
447,786.5201416015625,789.7435913085938,801.4285888671875,788.937744140625
448,790.5494384765625,790.1465454101562,804.6520385742188,788.1318969726562
449,792.5640869140625,786.923095703125,805.8607788085938,790.952392578125
450,790.1465454101562,788.1318969726562,799.8168334960938,792.5640869140625
451,790.1465454101562,789.7435913085938,798.6080322265625,791.7582397460938
452,793.3699340820312,790.1465454101562,808.6813354492188,793.3699340820312
453,796.5933837890625,788.1318969726562,808.6813354492188,794.1758422851562
454,795.7875366210938,788.937744140625,801.4285888671875,794.1758422851562
455,797.3992919921875,795.3846435546875,805.4578857421875,796.5933837890625
456,799.010986328125,798.2051391601562,806.6666870117188,796.1904907226562
457,800.2197875976562,797.8021850585938,804.2490844726562,795.7875366210938
458,798.6080322265625,795.7875366210938,800.6226806640625,796.5933837890625
459,797.8021850585938,790.5494384765625,795.3846435546875,799.010986328125
460,791.3552856445312,788.1318969726562,791.3552856445312,788.937744140625
461,786.1171875,787.7289428710938,789.3406372070312,783.2966918945312
462,790.952392578125,789.3406372070312,792.1611938476562,790.5494384765625
463,793.3699340820312,787.3259887695312,792.1611938476562,786.1171875
464,792.1611938476562,787.7289428710938,790.5494384765625,781.2820434570312
465,792.5640869140625,791.7582397460938,788.5347900390625,787.3259887695312
466,792.5640869140625,790.1465454101562,788.1318969726562,792.5640869140625
467,793.3699340820312,792.1611938476562,789.7435913085938,791.3552856445312
468,801.8314819335938,796.1904907226562,790.952392578125,789.7435913085938
469,804.6520385742188,793.3699340820312,788.937744140625,788.5347900390625
470,800.2197875976562,790.5494384765625,788.1318969726562,789.3406372070312
471,797.8021850585938,793.7728881835938,786.1171875,790.952392578125
472,797.8021850585938,793.3699340820312,785.3113403320312,788.937744140625
473,797.3992919921875,791.7582397460938,788.5347900390625,790.952392578125
474,796.996337890625,796.5933837890625,785.7142944335938,790.5494384765625
475,800.2197875976562,802.6373901367188,787.7289428710938,788.937744140625
476,800.2197875976562,799.4139404296875,787.7289428710938,782.4908447265625
477,803.040283203125,800.2197875976562,783.2966918945312,782.087890625
478,797.8021850585938,800.2197875976562,788.937744140625,789.3406372070312
479,796.5933837890625,795.7875366210938,793.7728881835938,782.893798828125
480,800.2197875976562,799.4139404296875,790.952392578125,782.4908447265625
481,797.8021850585938,799.010986328125,789.7435913085938,786.5201416015625
482,789.7435913085938,790.1465454101562,788.937744140625,783.2966918945312
483,790.952392578125,791.3552856445312,786.1171875,782.087890625
484,799.4139404296875,795.3846435546875,789.3406372070312,785.7142944335938
485,784.908447265625,791.3552856445312,792.5640869140625,780.0732421875
486,777.6557006835938,785.7142944335938,792.1611938476562,773.2234497070312
487,784.1025390625,788.1318969726562,791.3552856445312,781.6849975585938
488,786.923095703125,784.1025390625,790.1465454101562,781.2820434570312
489,794.1758422851562,775.6410522460938,791.3552856445312,788.1318969726562
490,795.3846435546875,776.8497924804688,794.5787353515625,794.981689453125
491,793.7728881835938,782.893798828125,796.1904907226562,784.908447265625
492,790.1465454101562,783.6996459960938,794.981689453125,782.893798828125
493,786.1171875,783.6996459960938,792.1611938476562,787.3259887695312
494,788.5347900390625,786.1171875,792.967041015625,790.952392578125
495,795.3846435546875,788.937744140625,795.3846435546875,793.7728881835938
496,794.1758422851562,788.5347900390625,792.967041015625,789.3406372070312
497,790.5494384765625,785.7142944335938,792.1611938476562,786.5201416015625
498,791.7582397460938,786.1171875,790.952392578125,784.1025390625
499,791.7582397460938,792.1611938476562,790.1465454101562,782.087890625
500,792.967041015625,792.5640869140625,790.952392578125,787.3259887695312
501,789.3406372070312,790.952392578125,788.937744140625,792.967041015625
502,785.7142944335938,791.3552856445312,786.1171875,788.937744140625
503,786.5201416015625,786.923095703125,787.7289428710938,788.937744140625
504,788.937744140625,784.5054931640625,786.923095703125,793.3699340820312
505,791.3552856445312,790.952392578125,784.5054931640625,794.5787353515625
506,792.5640869140625,790.1465454101562,786.923095703125,796.996337890625
507,792.5640869140625,790.1465454101562,791.7582397460938,803.4432373046875
508,795.7875366210938,797.8021850585938,794.5787353515625,806.2637329101562
509,795.3846435546875,796.5933837890625,796.996337890625,801.8314819335938
510,798.2051391601562,796.1904907226562,793.7728881835938,802.6373901367188
511,796.996337890625,799.010986328125,789.3406372070312,800.2197875976562
512,791.7582397460938,796.5933837890625,791.7582397460938,801.025634765625
513,794.1758422851562,796.1904907226562,794.5787353515625,802.2344360351562
514,793.7728881835938,794.1758422851562,789.7435913085938,792.5640869140625
515,792.5640869140625,789.3406372070312,791.7582397460938,790.5494384765625
516,794.981689453125,790.952392578125,791.7582397460938,796.1904907226562
517,795.3846435546875,792.5640869140625,790.5494384765625,794.1758422851562
518,796.5933837890625,790.5494384765625,792.5640869140625,795.7875366210938
519,800.6226806640625,788.937744140625,794.1758422851562,796.996337890625
520,801.025634765625,788.937744140625,794.981689453125,792.967041015625
521,798.2051391601562,788.5347900390625,792.5640869140625,792.967041015625
522,791.7582397460938,787.7289428710938,791.3552856445312,788.5347900390625
523,789.7435913085938,784.1025390625,791.3552856445312,793.7728881835938
524,795.7875366210938,786.1171875,792.1611938476562,800.6226806640625
525,795.7875366210938,790.952392578125,788.937744140625,788.5347900390625
526,793.7728881835938,786.923095703125,788.5347900390625,780.4761962890625
527,791.3552856445312,784.5054931640625,788.5347900390625,784.908447265625
528,787.3259887695312,787.3259887695312,790.952392578125,784.1025390625
529,792.1611938476562,787.7289428710938,797.3992919921875,788.5347900390625
530,799.4139404296875,786.1171875,798.2051391601562,789.3406372070312
531,801.025634765625,786.5201416015625,798.6080322265625,788.5347900390625
532,796.996337890625,784.908447265625,799.4139404296875,787.7289428710938
533,796.1904907226562,784.5054931640625,796.996337890625,785.3113403320312
534,798.2051391601562,784.1025390625,801.8314819335938,793.7728881835938
535,802.6373901367188,786.1171875,800.2197875976562,797.8021850585938
536,804.6520385742188,789.7435913085938,795.7875366210938,790.5494384765625
537,799.4139404296875,790.952392578125,793.7728881835938,783.6996459960938
538,792.967041015625,788.5347900390625,793.3699340820312,780.879150390625
539,795.3846435546875,788.5347900390625,794.981689453125,782.087890625
540,801.8314819335938,792.967041015625,793.3699340820312,784.5054931640625
541,802.6373901367188,792.5640869140625,792.967041015625,787.7289428710938
542,799.8168334960938,790.1465454101562,796.1904907226562,786.5201416015625
543,796.1904907226562,794.1758422851562,799.010986328125,780.879150390625
544,792.967041015625,792.967041015625,797.3992919921875,781.6849975585938
545,796.996337890625,789.7435913085938,795.3846435546875,780.4761962890625
546,797.3992919921875,791.3552856445312,796.5933837890625,781.2820434570312
547,796.5933837890625,792.967041015625,799.8168334960938,791.3552856445312
548,795.7875366210938,794.1758422851562,795.7875366210938,793.3699340820312
549,796.5933837890625,796.5933837890625,793.7728881835938,787.3259887695312
550,800.6226806640625,798.2051391601562,799.010986328125,786.5201416015625
551,797.8021850585938,800.6226806640625,807.4725341796875,794.981689453125
552,792.5640869140625,802.6373901367188,812.3076782226562,795.7875366210938
553,790.1465454101562,798.2051391601562,811.90478515625,791.3552856445312
554,787.3259887695312,794.1758422851562,807.069580078125,794.5787353515625
555,788.5347900390625,794.5787353515625,799.4139404296875,798.6080322265625
556,792.5640869140625,793.3699340820312,797.8021850585938,796.996337890625
557,793.3699340820312,794.1758422851562,801.4285888671875,794.981689453125
558,792.967041015625,792.967041015625,799.8168334960938,798.6080322265625
559,794.1758422851562,791.3552856445312,798.2051391601562,800.2197875976562
560,794.5787353515625,792.967041015625,799.010986328125,792.1611938476562
561,798.2051391601562,790.1465454101562,794.981689453125,787.3259887695312
562,796.996337890625,787.3259887695312,794.1758422851562,789.7435913085938
563,787.7289428710938,789.3406372070312,795.7875366210938,784.5054931640625
564,788.937744140625,796.5933837890625,791.7582397460938,787.7289428710938
565,790.1465454101562,795.7875366210938,798.2051391601562,789.7435913085938
566,791.3552856445312,794.1758422851562,804.6520385742188,781.6849975585938
567,790.952392578125,798.2051391601562,798.2051391601562,780.0732421875
568,789.3406372070312,795.3846435546875,800.6226806640625,785.3113403320312
569,792.967041015625,791.3552856445312,805.8607788085938,788.937744140625
570,798.2051391601562,793.7728881835938,807.87548828125,791.3552856445312
571,799.4139404296875,798.6080322265625,805.8607788085938,799.4139404296875
572,799.8168334960938,801.4285888671875,806.6666870117188,799.010986328125
573,796.1904907226562,802.2344360351562,807.87548828125,798.6080322265625
574,784.1025390625,798.2051391601562,804.6520385742188,792.5640869140625
575,786.1171875,796.1904907226562,800.2197875976562,782.893798828125
576,791.7582397460938,795.3846435546875,798.6080322265625,782.087890625
577,788.937744140625,795.7875366210938,798.2051391601562,781.2820434570312
578,787.7289428710938,798.2051391601562,798.2051391601562,783.2966918945312
579,788.5347900390625,799.010986328125,800.2197875976562,788.937744140625
580,788.1318969726562,799.4139404296875,800.2197875976562,793.7728881835938
581,782.087890625,791.3552856445312,790.1465454101562,794.5787353515625
582,781.2820434570312,784.5054931640625,786.923095703125,796.5933837890625
583,785.3113403320312,781.6849975585938,790.5494384765625,791.7582397460938
584,785.3113403320312,783.2966918945312,789.7435913085938,782.087890625
585,786.1171875,786.923095703125,790.1465454101562,780.0732421875
586,788.1318969726562,788.5347900390625,790.1465454101562,781.2820434570312
587,791.3552856445312,788.5347900390625,793.7728881835938,778.4615478515625
588,790.5494384765625,793.3699340820312,796.5933837890625,782.893798828125
589,788.1318969726562,795.7875366210938,796.996337890625,796.5933837890625
590,788.1318969726562,794.5787353515625,794.1758422851562,791.3552856445312
591,792.1611938476562,794.5787353515625,795.3846435546875,784.908447265625
592,794.5787353515625,791.7582397460938,796.1904907226562,784.1025390625
593,792.1611938476562,793.7728881835938,796.996337890625,781.6849975585938
594,797.3992919921875,801.025634765625,801.025634765625,784.1025390625
595,803.8461303710938,803.040283203125,806.6666870117188,786.1171875
596,805.4578857421875,801.4285888671875,806.2637329101562,788.1318969726562
597,806.2637329101562,799.010986328125,802.2344360351562,791.3552856445312
598,799.8168334960938,796.996337890625,799.4139404296875,785.7142944335938
599,790.952392578125,795.7875366210938,795.7875366210938,776.4468994140625
600,786.5201416015625,792.967041015625,797.3992919921875,779.2673950195312
601,778.8644409179688,788.937744140625,793.3699340820312,786.1171875
602,777.6557006835938,784.5054931640625,789.3406372070312,782.4908447265625
603,785.7142944335938,789.7435913085938,791.3552856445312,777.2527465820312
604,782.087890625,794.1758422851562,792.1611938476562,775.6410522460938
605,782.893798828125,789.3406372070312,789.3406372070312,779.2673950195312
606,789.3406372070312,783.2966918945312,788.937744140625,784.5054931640625
607,785.7142944335938,782.893798828125,790.1465454101562,781.6849975585938
608,789.7435913085938,789.3406372070312,794.1758422851562,792.1611938476562
609,792.5640869140625,794.1758422851562,799.8168334960938,796.996337890625
610,786.923095703125,794.981689453125,796.5933837890625,784.5054931640625
611,786.923095703125,794.1758422851562,795.7875366210938,785.7142944335938
612,789.7435913085938,789.3406372070312,793.7728881835938,797.3992919921875
613,792.1611938476562,787.3259887695312,790.952392578125,794.981689453125
614,791.7582397460938,791.3552856445312,791.7582397460938,788.5347900390625
615,781.6849975585938,789.3406372070312,792.1611938476562,786.923095703125
616,792.1611938476562,791.3552856445312,796.1904907226562,792.5640869140625
617,798.6080322265625,795.7875366210938,800.2197875976562,801.4285888671875
618,795.7875366210938,790.5494384765625,792.967041015625,796.5933837890625
619,793.3699340820312,788.1318969726562,789.7435913085938,788.1318969726562
620,791.7582397460938,789.3406372070312,792.5640869140625,796.996337890625
621,786.923095703125,785.3113403320312,793.7728881835938,790.5494384765625
622,790.1465454101562,785.7142944335938,795.7875366210938,787.7289428710938
623,796.996337890625,790.5494384765625,797.8021850585938,797.3992919921875
624,792.1611938476562,791.3552856445312,801.025634765625,795.3846435546875
625,795.7875366210938,795.7875366210938,805.054931640625,800.2197875976562
626,802.6373901367188,799.010986328125,804.2490844726562,801.8314819335938
627,799.8168334960938,796.5933837890625,798.6080322265625,802.2344360351562
628,800.2197875976562,797.3992919921875,800.2197875976562,806.2637329101562
629,801.025634765625,799.010986328125,804.6520385742188,799.8168334960938
630,797.8021850585938,799.8168334960938,803.8461303710938,793.3699340820312
631,799.010986328125,799.010986328125,799.010986328125,796.996337890625
632,800.6226806640625,797.8021850585938,794.981689453125,801.025634765625
633,798.6080322265625,794.981689453125,796.5933837890625,794.981689453125
634,800.6226806640625,789.7435913085938,794.1758422851562,796.996337890625
635,801.025634765625,787.3259887695312,795.7875366210938,797.8021850585938
636,790.952392578125,788.937744140625,797.3992919921875,791.7582397460938
637,792.5640869140625,791.3552856445312,799.010986328125,794.1758422851562
638,797.3992919921875,786.923095703125,799.8168334960938,791.3552856445312
639,789.7435913085938,792.5640869140625,796.5933837890625,782.4908447265625
640,787.7289428710938,800.2197875976562,793.3699340820312,782.087890625
641,786.923095703125,794.5787353515625,795.3846435546875,779.6703491210938
642,795.7875366210938,796.5933837890625,799.010986328125,785.3113403320312
643,801.8314819335938,794.5787353515625,794.1758422851562,786.923095703125
644,793.3699340820312,790.952392578125,794.1758422851562,782.893798828125
645,791.7582397460938,794.5787353515625,795.3846435546875,781.2820434570312
646,792.1611938476562,793.3699340820312,794.5787353515625,786.1171875
647,791.3552856445312,792.1611938476562,800.2197875976562,794.981689453125
648,788.1318969726562,794.1758422851562,800.2197875976562,791.7582397460938
649,786.5201416015625,788.937744140625,794.5787353515625,791.7582397460938
650,786.5201416015625,786.923095703125,791.3552856445312,788.937744140625
651,785.3113403320312,791.7582397460938,789.7435913085938,779.6703491210938
652,791.3552856445312,789.3406372070312,789.7435913085938,780.0732421875
653,797.3992919921875,785.7142944335938,792.1611938476562,785.7142944335938
654,801.8314819335938,786.1171875,794.5787353515625,789.7435913085938
655,803.8461303710938,788.1318969726562,797.3992919921875,790.952392578125
656,794.1758422851562,787.3259887695312,797.3992919921875,790.1465454101562
657,797.8021850585938,792.1611938476562,801.025634765625,794.981689453125
658,806.2637329101562,798.6080322265625,807.87548828125,809.89013671875
659,807.4725341796875,801.8314819335938,807.87548828125,806.2637329101562
660,801.4285888671875,801.025634765625,803.4432373046875,795.3846435546875
661,796.996337890625,795.7875366210938,796.5933837890625,796.996337890625
662,799.4139404296875,794.5787353515625,793.3699340820312,796.5933837890625
663,794.5787353515625,792.1611938476562,790.5494384765625,793.3699340820312
664,789.3406372070312,788.937744140625,782.893798828125,783.2966918945312
665,790.952392578125,790.952392578125,782.4908447265625,776.4468994140625
666,793.3699340820312,787.3259887695312,784.5054931640625,778.8644409179688
667,795.3846435546875,789.3406372070312,784.908447265625,780.879150390625
668,794.5787353515625,793.3699340820312,787.7289428710938,780.4761962890625
669,795.7875366210938,795.7875366210938,788.5347900390625,784.1025390625
670,802.2344360351562,796.996337890625,788.1318969726562,787.7289428710938
671,799.010986328125,791.3552856445312,792.967041015625,775.2380981445312
672,792.5640869140625,785.7142944335938,792.967041015625,772.8204956054688
673,786.923095703125,785.7142944335938,791.7582397460938,784.1025390625
674,788.937744140625,790.952392578125,796.996337890625,789.7435913085938
675,792.967041015625,792.5640869140625,795.7875366210938,789.3406372070312
676,789.7435913085938,788.937744140625,790.1465454101562,787.3259887695312
677,786.923095703125,786.1171875,788.5347900390625,787.3259887695312
678,789.3406372070312,788.1318969726562,790.1465454101562,787.3259887695312
679,796.996337890625,792.967041015625,793.7728881835938,786.923095703125
680,804.2490844726562,798.6080322265625,798.2051391601562,790.5494384765625
681,809.084228515625,800.2197875976562,802.2344360351562,803.040283203125
682,801.025634765625,796.5933837890625,799.4139404296875,796.5933837890625
683,799.010986328125,792.1611938476562,792.967041015625,788.937744140625
684,804.2490844726562,791.7582397460938,790.5494384765625,792.1611938476562
685,794.5787353515625,792.967041015625,790.1465454101562,788.1318969726562
686,790.1465454101562,792.5640869140625,786.1171875,778.4615478515625
687,798.2051391601562,794.1758422851562,790.952392578125,783.2966918945312
688,797.8021850585938,790.952392578125,795.3846435546875,785.3113403320312
689,792.1611938476562,787.7289428710938,791.3552856445312,781.6849975585938
690,787.3259887695312,788.1318969726562,792.1611938476562,786.1171875
691,788.1318969726562,787.3259887695312,795.3846435546875,787.7289428710938
692,784.908447265625,784.5054931640625,794.1758422851562,785.3113403320312
693,778.4615478515625,784.5054931640625,792.1611938476562,790.1465454101562
694,778.8644409179688,785.3113403320312,796.1904907226562,787.3259887695312
695,782.893798828125,788.937744140625,797.3992919921875,793.3699340820312
696,785.7142944335938,790.952392578125,794.981689453125,801.8314819335938
697,783.6996459960938,788.5347900390625,798.6080322265625,792.5640869140625
698,781.6849975585938,788.937744140625,799.010986328125,786.923095703125
699,787.3259887695312,788.5347900390625,799.8168334960938,796.996337890625
700,793.3699340820312,793.3699340820312,801.4285888671875,811.098876953125
701,796.5933837890625,798.2051391601562,796.1904907226562,807.069580078125
702,794.981689453125,798.2051391601562,797.8021850585938,797.8021850585938
703,791.7582397460938,795.3846435546875,797.8021850585938,795.3846435546875
704,789.3406372070312,791.7582397460938,788.937744140625,794.1758422851562
705,786.5201416015625,789.7435913085938,788.1318969726562,789.3406372070312
706,788.1318969726562,790.952392578125,792.1611938476562,790.1465454101562
707,789.7435913085938,791.7582397460938,790.1465454101562,787.3259887695312
708,790.1465454101562,791.7582397460938,789.7435913085938,783.2966918945312
709,792.967041015625,792.967041015625,789.3406372070312,787.7289428710938
710,788.1318969726562,790.1465454101562,789.3406372070312,788.937744140625
711,787.7289428710938,784.908447265625,784.1025390625,782.893798828125
712,787.3259887695312,783.2966918945312,783.2966918945312,782.893798828125
713,781.6849975585938,784.908447265625,786.5201416015625,787.7289428710938
714,788.5347900390625,787.3259887695312,792.1611938476562,789.7435913085938
715,790.1465454101562,788.5347900390625,794.981689453125,789.3406372070312
716,788.5347900390625,792.967041015625,794.1758422851562,791.7582397460938
717,786.923095703125,790.1465454101562,796.5933837890625,783.2966918945312
718,787.7289428710938,790.952392578125,795.3846435546875,777.6557006835938
719,789.3406372070312,794.1758422851562,796.5933837890625,785.3113403320312
720,790.952392578125,788.937744140625,799.4139404296875,788.937744140625
721,794.1758422851562,791.3552856445312,796.996337890625,790.952392578125
722,801.025634765625,801.025634765625,801.025634765625,800.6226806640625
723,798.6080322265625,802.6373901367188,807.4725341796875,799.8168334960938
724,794.981689453125,798.2051391601562,804.6520385742188,789.7435913085938
725,794.1758422851562,795.3846435546875,799.010986328125,786.5201416015625
726,793.3699340820312,787.3259887695312,794.5787353515625,784.908447265625
727,792.5640869140625,788.5347900390625,792.967041015625,790.1465454101562
728,787.7289428710938,794.5787353515625,790.5494384765625,784.1025390625
729,792.1611938476562,790.5494384765625,790.1465454101562,777.2527465820312
730,790.5494384765625,788.937744140625,788.5347900390625,785.3113403320312
731,787.7289428710938,793.7728881835938,789.3406372070312,786.1171875
732,791.7582397460938,794.981689453125,788.937744140625,780.0732421875
733,792.5640869140625,788.1318969726562,784.5054931640625,781.6849975585938
734,795.3846435546875,787.7289428710938,789.3406372070312,785.3113403320312
735,795.3846435546875,787.3259887695312,788.5347900390625,779.2673950195312
736,793.3699340820312,786.923095703125,785.7142944335938,774.8351440429688
737,792.5640869140625,792.1611938476562,782.893798828125,776.4468994140625
738,795.3846435546875,793.7728881835938,787.3259887695312,785.3113403320312
739,793.7728881835938,789.3406372070312,790.1465454101562,785.7142944335938
740,792.5640869140625,785.3113403320312,789.7435913085938,780.879150390625
741,792.1611938476562,785.3113403320312,789.7435913085938,789.3406372070312
742,792.5640869140625,787.3259887695312,787.3259887695312,797.3992919921875
743,792.967041015625,788.937744140625,788.1318969726562,795.7875366210938
744,792.1611938476562,789.7435913085938,787.7289428710938,786.923095703125
745,796.1904907226562,786.923095703125,788.5347900390625,789.7435913085938
746,798.6080322265625,786.1171875,792.5640869140625,796.1904907226562
747,801.025634765625,795.7875366210938,799.010986328125,801.4285888671875
748,804.6520385742188,800.6226806640625,803.8461303710938,799.010986328125
749,801.025634765625,799.8168334960938,802.2344360351562,793.3699340820312
750,797.3992919921875,796.1904907226562,801.4285888671875,799.010986328125
751,790.5494384765625,788.1318969726562,797.3992919921875,792.5640869140625
752,786.1171875,783.2966918945312,790.952392578125,785.3113403320312
753,790.1465454101562,785.7142944335938,792.5640869140625,797.8021850585938
754,794.5787353515625,788.5347900390625,794.5787353515625,807.87548828125
755,795.7875366210938,791.3552856445312,792.1611938476562,799.4139404296875
756,794.981689453125,792.5640869140625,792.5640869140625,791.3552856445312
757,794.5787353515625,791.7582397460938,793.3699340820312,787.3259887695312
758,796.996337890625,791.7582397460938,794.5787353515625,786.923095703125
759,801.025634765625,791.7582397460938,796.1904907226562,795.7875366210938
760,803.4432373046875,793.3699340820312,798.2051391601562,802.2344360351562
761,807.069580078125,793.3699340820312,795.7875366210938,800.6226806640625
762,807.4725341796875,793.3699340820312,794.1758422851562,796.5933837890625
763,803.4432373046875,795.7875366210938,794.5787353515625,800.2197875976562
764,796.5933837890625,790.1465454101562,792.967041015625,798.6080322265625
765,798.6080322265625,783.2966918945312,789.7435913085938,793.7728881835938
766,799.4139404296875,784.908447265625,791.3552856445312,796.5933837890625
767,790.952392578125,786.923095703125,788.5347900390625,787.7289428710938
768,788.1318969726562,786.923095703125,788.1318969726562,782.087890625
769,794.1758422851562,787.7289428710938,791.7582397460938,789.3406372070312
770,799.010986328125,793.7728881835938,793.7728881835938,786.923095703125
771,804.6520385742188,800.2197875976562,795.7875366210938,788.937744140625
772,802.2344360351562,797.8021850585938,795.3846435546875,788.937744140625
773,792.5640869140625,790.1465454101562,792.1611938476562,782.4908447265625
774,792.5640869140625,788.5347900390625,790.5494384765625,786.5201416015625
775,788.5347900390625,789.3406372070312,787.3259887695312,787.3259887695312
776,791.7582397460938,790.952392578125,786.923095703125,782.893798828125
777,801.025634765625,790.5494384765625,791.3552856445312,788.937744140625
778,801.8314819335938,790.1465454101562,792.1611938476562,792.967041015625
779,800.2197875976562,791.7582397460938,794.5787353515625,792.5640869140625
780,798.2051391601562,791.7582397460938,792.5640869140625,792.5640869140625
781,793.7728881835938,791.3552856445312,788.937744140625,789.3406372070312
782,786.5201416015625,787.3259887695312,790.1465454101562,786.5201416015625
783,785.7142944335938,785.3113403320312,793.3699340820312,788.5347900390625
784,788.5347900390625,786.5201416015625,796.996337890625,794.1758422851562
785,793.3699340820312,792.967041015625,798.6080322265625,799.010986328125
786,799.8168334960938,789.3406372070312,799.4139404296875,803.8461303710938
787,796.5933837890625,788.1318969726562,801.8314819335938,801.025634765625
788,793.3699340820312,791.7582397460938,801.4285888671875,799.4139404296875
789,795.3846435546875,791.7582397460938,801.4285888671875,811.5018310546875
790,793.7728881835938,792.967041015625,802.6373901367188,807.069580078125
791,795.3846435546875,790.1465454101562,801.4285888671875,801.8314819335938
792,797.8021850585938,790.1465454101562,806.2637329101562,808.2783813476562
793,794.981689453125,790.952392578125,807.069580078125,807.87548828125
794,792.967041015625,792.1611938476562,799.8168334960938,804.2490844726562
795,786.1171875,786.5201416015625,796.5933837890625,803.040283203125
796,788.5347900390625,781.6849975585938,796.996337890625,798.2051391601562
797,791.3552856445312,786.1171875,793.7728881835938,793.3699340820312
798,788.1318969726562,786.5201416015625,792.1611938476562,791.3552856445312
799,788.937744140625,784.908447265625,793.7728881835938,789.7435913085938
800,792.1611938476562,788.937744140625,793.7728881835938,788.5347900390625
801,791.7582397460938,787.7289428710938,793.7728881835938,782.4908447265625
802,793.3699340820312,785.7142944335938,794.1758422851562,780.4761962890625
803,797.3992919921875,791.3552856445312,794.1758422851562,782.893798828125
804,795.3846435546875,792.5640869140625,788.937744140625,780.0732421875
805,793.7728881835938,791.7582397460938,791.3552856445312,783.2966918945312
806,799.010986328125,792.5640869140625,796.5933837890625,784.908447265625
807,801.8314819335938,790.1465454101562,794.981689453125,780.879150390625
808,798.2051391601562,786.5201416015625,790.5494384765625,787.3259887695312
809,788.5347900390625,786.5201416015625,790.1465454101562,782.893798828125
810,790.1465454101562,788.937744140625,788.5347900390625,781.6849975585938
811,796.1904907226562,790.952392578125,789.3406372070312,795.3846435546875
812,792.1611938476562,791.7582397460938,787.7289428710938,794.981689453125
813,794.5787353515625,792.967041015625,789.3406372070312,796.996337890625
814,795.3846435546875,794.981689453125,790.5494384765625,797.8021850585938
815,788.937744140625,794.1758422851562,789.7435913085938,789.7435913085938
816,794.5787353515625,793.3699340820312,794.5787353515625,787.7289428710938
817,795.3846435546875,793.7728881835938,796.1904907226562,788.1318969726562
818,788.937744140625,793.7728881835938,793.7728881835938,791.7582397460938
819,786.1171875,789.3406372070312,793.3699340820312,792.5640869140625
820,787.7289428710938,787.7289428710938,792.967041015625,788.5347900390625
821,782.893798828125,783.2966918945312,792.5640869140625,784.908447265625
822,786.923095703125,784.1025390625,793.3699340820312,789.7435913085938
823,793.3699340820312,791.3552856445312,799.010986328125,799.010986328125
824,786.923095703125,793.7728881835938,800.6226806640625,790.952392578125
825,790.952392578125,796.5933837890625,797.8021850585938,782.087890625
826,796.996337890625,804.6520385742188,799.010986328125,782.893798828125
827,796.1904907226562,806.6666870117188,805.4578857421875,790.952392578125
828,796.5933837890625,805.4578857421875,802.2344360351562,800.2197875976562
829,798.2051391601562,803.040283203125,795.7875366210938,797.8021850585938
830,790.5494384765625,795.7875366210938,793.3699340820312,790.952392578125
831,782.4908447265625,792.5640869140625,790.952392578125,786.923095703125
832,786.1171875,796.1904907226562,790.952392578125,783.2966918945312
833,792.5640869140625,796.1904907226562,788.937744140625,784.908447265625
834,792.967041015625,794.1758422851562,788.5347900390625,785.7142944335938
835,786.1171875,792.967041015625,786.923095703125,785.3113403320312
836,784.908447265625,790.1465454101562,782.893798828125,784.5054931640625
837,789.3406372070312,786.5201416015625,782.893798828125,780.4761962890625
838,791.3552856445312,791.7582397460938,789.3406372070312,781.6849975585938
839,791.7582397460938,794.981689453125,790.952392578125,790.1465454101562
840,792.1611938476562,788.937744140625,788.937744140625,793.3699340820312
841,790.952392578125,790.952392578125,790.1465454101562,789.7435913085938
842,788.937744140625,793.3699340820312,788.5347900390625,791.3552856445312
843,790.1465454101562,788.937744140625,786.5201416015625,791.7582397460938
844,785.3113403320312,789.7435913085938,788.937744140625,785.7142944335938
845,784.5054931640625,791.3552856445312,785.7142944335938,784.908447265625
846,785.3113403320312,785.7142944335938,785.3113403320312,786.5201416015625
847,788.1318969726562,789.7435913085938,785.3113403320312,782.893798828125
848,793.3699340820312,792.5640869140625,785.3113403320312,782.893798828125
849,793.7728881835938,788.937744140625,788.937744140625,788.5347900390625
850,789.3406372070312,790.1465454101562,788.5347900390625,789.3406372070312
851,788.5347900390625,787.7289428710938,790.5494384765625,784.908447265625
852,796.1904907226562,788.1318969726562,794.981689453125,790.952392578125
853,803.040283203125,794.981689453125,796.1904907226562,797.8021850585938
854,805.8607788085938,794.981689453125,792.1611938476562,797.3992919921875
855,805.4578857421875,796.5933837890625,795.7875366210938,795.7875366210938
856,803.4432373046875,796.5933837890625,798.6080322265625,793.7728881835938
857,805.054931640625,792.967041015625,794.981689453125,796.996337890625
858,802.6373901367188,790.952392578125,795.7875366210938,801.4285888671875
859,799.4139404296875,791.7582397460938,792.5640869140625,802.2344360351562
860,801.4285888671875,791.3552856445312,791.7582397460938,792.5640869140625
861,799.8168334960938,793.3699340820312,790.952392578125,790.5494384765625
862,800.6226806640625,793.3699340820312,789.7435913085938,799.010986328125
863,803.4432373046875,792.1611938476562,789.3406372070312,788.937744140625
864,801.4285888671875,790.952392578125,790.952392578125,786.1171875
865,799.010986328125,788.5347900390625,796.5933837890625,794.1758422851562
866,792.967041015625,794.5787353515625,794.1758422851562,792.5640869140625
867,786.923095703125,795.7875366210938,793.3699340820312,789.7435913085938
868,792.1611938476562,790.5494384765625,794.981689453125,787.3259887695312
869,789.3406372070312,789.3406372070312,789.3406372070312,786.5201416015625
870,781.2820434570312,791.7582397460938,789.3406372070312,786.1171875
871,784.1025390625,789.7435913085938,792.1611938476562,780.4761962890625
872,790.952392578125,785.3113403320312,790.5494384765625,778.05859375
873,797.3992919921875,793.3699340820312,789.7435913085938,786.5201416015625
874,797.3992919921875,801.4285888671875,791.3552856445312,784.908447265625
875,791.7582397460938,799.010986328125,790.5494384765625,780.879150390625
876,786.923095703125,796.5933837890625,788.937744140625,781.2820434570312
877,794.981689453125,797.3992919921875,792.967041015625,782.893798828125
878,806.2637329101562,801.4285888671875,796.5933837890625,791.7582397460938
879,807.069580078125,805.4578857421875,799.8168334960938,794.981689453125
880,803.040283203125,805.4578857421875,798.2051391601562,792.1611938476562
881,799.8168334960938,803.040283203125,792.967041015625,787.7289428710938
882,797.8021850585938,799.8168334960938,793.3699340820312,791.3552856445312
883,794.5787353515625,797.3992919921875,791.7582397460938,788.1318969726562
884,791.3552856445312,790.952392578125,784.908447265625,785.7142944335938
885,788.5347900390625,788.5347900390625,789.3406372070312,794.5787353515625
886,788.937744140625,790.5494384765625,798.6080322265625,793.7728881835938
887,787.7289428710938,786.5201416015625,801.8314819335938,792.967041015625
888,784.1025390625,782.087890625,800.6226806640625,792.967041015625
889,787.3259887695312,781.6849975585938,797.8021850585938,792.1611938476562
890,788.5347900390625,782.4908447265625,794.1758422851562,788.1318969726562
891,784.1025390625,786.1171875,796.1904907226562,785.7142944335938
892,785.3113403320312,785.3113403320312,799.8168334960938,787.3259887695312
893,791.7582397460938,787.3259887695312,797.3992919921875,787.7289428710938
894,790.952392578125,787.7289428710938,796.996337890625,787.7289428710938
895,787.3259887695312,784.1025390625,796.1904907226562,784.1025390625
896,790.5494384765625,784.1025390625,796.5933837890625,785.3113403320312
897,790.952392578125,784.908447265625,794.981689453125,788.1318969726562
898,792.5640869140625,786.1171875,792.1611938476562,785.7142944335938
899,799.4139404296875,786.5201416015625,787.3259887695312,785.7142944335938
900,801.8314819335938,786.5201416015625,787.3259887695312,786.1171875
901,800.2197875976562,785.7142944335938,788.937744140625,789.7435913085938
902,801.4285888671875,790.5494384765625,790.1465454101562,791.7582397460938
903,802.2344360351562,793.3699340820312,793.3699340820312,792.5640869140625
904,806.6666870117188,793.7728881835938,792.967041015625,795.7875366210938
905,808.2783813476562,790.952392578125,790.5494384765625,796.996337890625
906,803.040283203125,790.1465454101562,788.5347900390625,794.5787353515625
907,798.6080322265625,792.967041015625,787.7289428710938,798.6080322265625
908,800.2197875976562,791.7582397460938,786.923095703125,809.084228515625
909,805.054931640625,790.5494384765625,786.1171875,800.6226806640625
910,807.4725341796875,792.1611938476562,791.3552856445312,798.2051391601562
911,808.2783813476562,798.2051391601562,798.2051391601562,802.2344360351562
912,805.4578857421875,797.3992919921875,796.5933837890625,798.6080322265625
913,799.010986328125,792.5640869140625,795.3846435546875,796.996337890625
914,799.8168334960938,792.5640869140625,796.5933837890625,794.1758422851562
915,796.5933837890625,788.937744140625,790.952392578125,787.7289428710938
916,788.5347900390625,787.3259887695312,790.1465454101562,788.5347900390625
917,791.3552856445312,790.952392578125,791.3552856445312,784.5054931640625
918,790.952392578125,792.1611938476562,787.3259887695312,782.893798828125
919,788.937744140625,791.7582397460938,787.3259887695312,786.1171875
920,790.5494384765625,790.952392578125,788.5347900390625,782.893798828125
921,793.3699340820312,791.7582397460938,788.1318969726562,780.0732421875
922,794.5787353515625,794.981689453125,788.5347900390625,782.087890625
923,794.981689453125,795.7875366210938,788.937744140625,785.7142944335938
924,794.1758422851562,793.3699340820312,785.3113403320312,785.3113403320312
925,793.7728881835938,793.3699340820312,790.1465454101562,784.1025390625
926,795.3846435546875,794.1758422851562,796.5933837890625,787.7289428710938
927,795.7875366210938,796.1904907226562,792.967041015625,789.3406372070312
928,794.5787353515625,798.6080322265625,791.3552856445312,792.1611938476562
929,798.2051391601562,796.996337890625,791.7582397460938,794.1758422851562
930,800.6226806640625,795.7875366210938,796.5933837890625,798.2051391601562
931,798.6080322265625,799.010986328125,801.025634765625,804.2490844726562
932,795.7875366210938,796.996337890625,799.010986328125,794.981689453125
933,794.1758422851562,796.996337890625,794.981689453125,788.937744140625
934,794.981689453125,801.4285888671875,795.3846435546875,798.6080322265625
935,789.7435913085938,798.2051391601562,793.3699340820312,794.981689453125
936,782.4908447265625,794.5787353515625,789.7435913085938,783.6996459960938
937,783.6996459960938,792.5640869140625,788.5347900390625,783.2966918945312
938,785.7142944335938,791.7582397460938,792.1611938476562,790.952392578125
939,784.1025390625,790.5494384765625,789.7435913085938,792.1611938476562
940,786.5201416015625,793.7728881835938,792.1611938476562,784.908447265625
941,790.5494384765625,803.040283203125,799.8168334960938,787.3259887695312
942,790.5494384765625,801.8314819335938,800.2197875976562,792.5640869140625
943,786.923095703125,794.1758422851562,797.8021850585938,786.923095703125
944,782.893798828125,791.3552856445312,796.996337890625,782.4908447265625
945,781.6849975585938,793.3699340820312,794.981689453125,784.908447265625
946,784.5054931640625,790.1465454101562,789.7435913085938,789.7435913085938
947,784.908447265625,786.5201416015625,789.7435913085938,782.893798828125
948,785.3113403320312,790.952392578125,789.7435913085938,777.2527465820312
949,788.1318969726562,792.1611938476562,788.937744140625,781.6849975585938
950,792.1611938476562,792.1611938476562,791.3552856445312,790.1465454101562
951,794.5787353515625,793.3699340820312,794.981689453125,800.2197875976562
952,795.7875366210938,793.3699340820312,790.952392578125,801.8314819335938
953,796.996337890625,795.3846435546875,789.3406372070312,794.5787353515625
954,798.6080322265625,794.981689453125,786.1171875,792.1611938476562
955,792.5640869140625,791.3552856445312,782.4908447265625,791.3552856445312
956,787.3259887695312,790.952392578125,785.3113403320312,789.3406372070312
957,792.1611938476562,790.952392578125,787.3259887695312,798.2051391601562
958,795.3846435546875,794.1758422851562,790.1465454101562,810.2930297851562
959,793.3699340820312,796.1904907226562,797.3992919921875,806.2637329101562
960,796.1904907226562,793.7728881835938,797.3992919921875,801.025634765625
961,802.2344360351562,791.3552856445312,794.981689453125,800.6226806640625
962,797.8021850585938,789.3406372070312,797.8021850585938,794.5787353515625
963,788.5347900390625,787.3259887695312,791.3552856445312,789.7435913085938
964,786.923095703125,788.1318969726562,786.923095703125,786.923095703125
965,792.5640869140625,793.3699340820312,789.7435913085938,788.1318969726562
966,794.981689453125,794.981689453125,793.7728881835938,786.5201416015625
967,794.1758422851562,793.7728881835938,794.981689453125,782.893798828125
968,791.3552856445312,789.7435913085938,793.7728881835938,784.1025390625
969,796.996337890625,791.3552856445312,795.7875366210938,789.7435913085938
970,801.025634765625,790.1465454101562,793.3699340820312,790.5494384765625
971,800.2197875976562,787.7289428710938,790.952392578125,786.923095703125
972,806.6666870117188,794.5787353515625,792.5640869140625,792.967041015625
973,807.87548828125,795.7875366210938,796.1904907226562,798.6080322265625
974,809.89013671875,797.3992919921875,795.3846435546875,800.6226806640625
975,811.098876953125,805.054931640625,796.5933837890625,804.6520385742188
976,806.2637329101562,796.996337890625,797.8021850585938,802.6373901367188
977,800.2197875976562,793.3699340820312,795.7875366210938,801.025634765625
978,796.996337890625,796.5933837890625,798.2051391601562,802.2344360351562
979,795.7875366210938,795.3846435546875,795.3846435546875,796.5933837890625
980,798.2051391601562,794.981689453125,794.1758422851562,796.5933837890625
981,801.025634765625,790.5494384765625,792.967041015625,806.6666870117188
982,801.8314819335938,787.7289428710938,792.5640869140625,807.069580078125
983,796.996337890625,789.7435913085938,793.3699340820312,802.6373901367188
984,789.7435913085938,785.7142944335938,796.996337890625,795.3846435546875
985,789.7435913085938,783.6996459960938,796.1904907226562,788.1318969726562
986,794.1758422851562,787.7289428710938,794.1758422851562,785.3113403320312
987,789.7435913085938,792.1611938476562,794.981689453125,779.2673950195312
988,785.7142944335938,792.1611938476562,792.1611938476562,775.2380981445312
989,785.7142944335938,784.908447265625,789.3406372070312,774.029296875
990,785.7142944335938,784.908447265625,783.6996459960938,775.2380981445312
991,791.7582397460938,785.7142944335938,781.6849975585938,772.8204956054688
992,790.5494384765625,785.7142944335938,780.879150390625,772.4176025390625
993,787.7289428710938,796.5933837890625,785.3113403320312,776.0439453125
994,788.5347900390625,802.2344360351562,794.981689453125,773.6264038085938
995,794.5787353515625,803.040283203125,801.025634765625,779.2673950195312
996,800.2197875976562,804.2490844726562,798.2051391601562,783.2966918945312
997,799.4139404296875,804.2490844726562,794.5787353515625,786.923095703125
998,801.4285888671875,805.8607788085938,799.4139404296875,796.5933837890625
999,803.4432373046875,804.2490844726562,799.8168334960938,794.1758422851562
1000,799.4139404296875,797.3992919921875,795.7875366210938,789.3406372070312
1001,793.7728881835938,793.3699340820312,791.7582397460938,783.2966918945312
1002,795.7875366210938,793.7728881835938,790.952392578125,776.4468994140625
1003,794.981689453125,794.5787353515625,790.5494384765625,780.879150390625
1004,791.7582397460938,790.952392578125,790.952392578125,790.5494384765625
1005,793.7728881835938,786.5201416015625,792.1611938476562,784.5054931640625
1006,801.8314819335938,790.5494384765625,793.3699340820312,788.5347900390625
1007,807.87548828125,794.5787353515625,801.8314819335938,796.996337890625
1008,808.6813354492188,796.5933837890625,809.084228515625,799.010986328125
1009,805.4578857421875,796.996337890625,802.2344360351562,802.2344360351562
1010,803.4432373046875,790.5494384765625,796.1904907226562,799.8168334960938
1011,807.87548828125,790.5494384765625,796.1904907226562,805.8607788085938
1012,803.8461303710938,789.7435913085938,792.5640869140625,805.054931640625
1013,799.4139404296875,787.7289428710938,789.7435913085938,801.8314819335938
1014,793.7728881835938,788.5347900390625,789.3406372070312,798.6080322265625
1015,794.981689453125,788.1318969726562,791.7582397460938,800.2197875976562
1016,799.010986328125,790.952392578125,794.5787353515625,807.069580078125
1017,797.3992919921875,790.1465454101562,790.952392578125,801.025634765625
1018,796.1904907226562,792.967041015625,788.937744140625,788.937744140625
1019,796.996337890625,791.7582397460938,792.967041015625,784.1025390625
1020,792.5640869140625,787.3259887695312,794.5787353515625,784.5054931640625
1021,794.981689453125,793.3699340820312,796.5933837890625,787.7289428710938
1022,799.4139404296875,794.5787353515625,793.3699340820312,786.5201416015625
1023,788.1318969726562,785.3113403320312,788.937744140625,780.879150390625
1024,777.6557006835938,780.879150390625,790.5494384765625,776.8497924804688
1025,781.2820434570312,786.1171875,791.7582397460938,778.05859375
1026,790.5494384765625,791.3552856445312,789.3406372070312,782.087890625
1027,788.1318969726562,788.937744140625,783.6996459960938,788.937744140625
1028,780.0732421875,786.923095703125,782.893798828125,785.3113403320312
1029,779.2673950195312,790.1465454101562,786.923095703125,782.4908447265625
1030,783.6996459960938,790.5494384765625,790.952392578125,790.5494384765625
1031,786.5201416015625,788.937744140625,792.967041015625,790.1465454101562
1032,789.7435913085938,793.7728881835938,791.7582397460938,786.1171875
1033,794.981689453125,795.7875366210938,788.937744140625,787.7289428710938
1034,794.1758422851562,794.1758422851562,791.3552856445312,793.3699340820312
1035,796.5933837890625,797.3992919921875,792.967041015625,796.996337890625
1036,804.2490844726562,798.2051391601562,791.7582397460938,788.937744140625
1037,795.7875366210938,793.7728881835938,790.1465454101562,779.6703491210938
1038,792.5640869140625,790.1465454101562,790.5494384765625,784.908447265625
1039,796.1904907226562,788.1318969726562,795.3846435546875,792.967041015625
1040,802.6373901367188,797.8021850585938,801.4285888671875,794.5787353515625
1041,808.6813354492188,801.8314819335938,802.6373901367188,797.3992919921875
1042,806.2637329101562,792.967041015625,799.8168334960938,801.4285888671875
1043,802.2344360351562,790.952392578125,799.010986328125,803.040283203125
1044,799.8168334960938,793.7728881835938,799.4139404296875,801.4285888671875
1045,798.2051391601562,789.7435913085938,801.8314819335938,803.4432373046875
1046,791.3552856445312,790.1465454101562,801.8314819335938,794.5787353515625
1047,786.1171875,791.3552856445312,800.2197875976562,787.3259887695312
1048,786.923095703125,790.1465454101562,796.1904907226562,779.6703491210938
1049,784.908447265625,790.952392578125,797.3992919921875,778.05859375
1050,775.6410522460938,789.7435913085938,792.967041015625,778.8644409179688
1051,770.4029541015625,786.1171875,788.5347900390625,772.8204956054688
1052,774.8351440429688,786.5201416015625,792.5640869140625,775.6410522460938
1053,782.087890625,788.1318969726562,795.3846435546875,781.2820434570312
1054,776.4468994140625,786.5201416015625,794.981689453125,782.4908447265625
1055,770.8058471679688,788.1318969726562,792.5640869140625,772.8204956054688
1056,778.05859375,786.923095703125,794.1758422851562,769.1941528320312
1057,777.6557006835938,785.3113403320312,791.3552856445312,770.4029541015625
1058,776.0439453125,787.7289428710938,788.937744140625,767.9853515625
1059,784.1025390625,789.7435913085938,794.1758422851562,770.4029541015625
1060,784.5054931640625,788.5347900390625,794.981689453125,771.6116943359375
1061,784.5054931640625,791.7582397460938,794.1758422851562,774.029296875
1062,787.7289428710938,790.5494384765625,792.1611938476562,779.2673950195312
1063,790.1465454101562,792.1611938476562,794.5787353515625,778.4615478515625
1064,794.981689453125,799.010986328125,797.8021850585938,780.0732421875
1065,796.1904907226562,801.4285888671875,798.2051391601562,797.3992919921875
1066,801.8314819335938,801.025634765625,799.010986328125,798.6080322265625
1067,801.4285888671875,796.5933837890625,792.5640869140625,783.6996459960938
1068,800.2197875976562,792.967041015625,789.3406372070312,786.923095703125
1069,795.3846435546875,792.1611938476562,787.7289428710938,787.3259887695312
1070,791.3552856445312,787.7289428710938,785.7142944335938,782.087890625
1071,793.3699340820312,790.1465454101562,789.7435913085938,785.7142944335938
1072,791.3552856445312,792.5640869140625,790.5494384765625,790.5494384765625
1073,788.1318969726562,784.5054931640625,783.6996459960938,788.5347900390625
1074,786.5201416015625,780.4761962890625,787.7289428710938,791.7582397460938
1075,784.5054931640625,786.1171875,790.1465454101562,796.996337890625
1076,778.4615478515625,788.937744140625,790.5494384765625,796.1904907226562
1077,785.7142944335938,789.7435913085938,801.025634765625,803.4432373046875
1078,794.1758422851562,791.7582397460938,803.040283203125,804.2490844726562
1079,788.1318969726562,786.923095703125,796.1904907226562,790.952392578125
1080,778.8644409179688,782.893798828125,792.967041015625,786.923095703125
1081,782.4908447265625,788.1318969726562,795.7875366210938,790.952392578125
1082,793.7728881835938,792.1611938476562,797.3992919921875,788.5347900390625
1083,796.5933837890625,795.3846435546875,797.3992919921875,786.1171875
1084,798.2051391601562,799.8168334960938,797.3992919921875,780.879150390625
1085,793.3699340820312,802.6373901367188,796.996337890625,776.4468994140625
1086,785.7142944335938,799.8168334960938,795.3846435546875,776.0439453125
1087,788.5347900390625,796.5933837890625,797.3992919921875,782.087890625
1088,796.996337890625,802.6373901367188,801.025634765625,796.5933837890625
1089,798.2051391601562,806.2637329101562,803.040283203125,796.1904907226562
1090,799.8168334960938,801.4285888671875,802.2344360351562,787.7289428710938
1091,800.2197875976562,799.010986328125,796.996337890625,785.3113403320312
1092,798.6080322265625,798.6080322265625,794.5787353515625,793.3699340820312
1093,799.8168334960938,794.5787353515625,793.7728881835938,794.1758422851562
1094,798.6080322265625,793.7728881835938,789.3406372070312,787.7289428710938
1095,797.3992919921875,795.3846435546875,784.908447265625,792.967041015625
1096,801.025634765625,799.8168334960938,788.1318969726562,799.4139404296875
1097,803.040283203125,797.8021850585938,792.5640869140625,802.6373901367188
1098,795.3846435546875,789.7435913085938,788.937744140625,800.2197875976562
1099,796.1904907226562,788.5347900390625,789.7435913085938,798.2051391601562
1100,793.3699340820312,792.1611938476562,787.7289428710938,795.7875366210938
1101,787.3259887695312,788.937744140625,785.7142944335938,782.893798828125
1102,787.3259887695312,787.3259887695312,787.3259887695312,784.5054931640625
1103,785.3113403320312,790.5494384765625,789.3406372070312,787.7289428710938
1104,789.3406372070312,792.5640869140625,790.952392578125,789.7435913085938
1105,786.1171875,789.3406372070312,789.7435913085938,785.3113403320312
1106,780.0732421875,787.3259887695312,790.5494384765625,780.0732421875
1107,781.6849975585938,788.1318969726562,790.5494384765625,780.4761962890625
1108,785.3113403320312,789.3406372070312,788.5347900390625,774.8351440429688
1109,786.1171875,785.7142944335938,784.5054931640625,774.8351440429688
1110,784.908447265625,785.3113403320312,785.7142944335938,778.8644409179688
1111,786.1171875,788.1318969726562,788.5347900390625,782.087890625
1112,791.3552856445312,786.923095703125,786.5201416015625,794.5787353515625
1113,795.3846435546875,785.3113403320312,785.7142944335938,789.7435913085938
1114,794.5787353515625,789.3406372070312,790.5494384765625,786.5201416015625
1115,788.937744140625,794.981689453125,794.981689453125,788.937744140625
1116,785.7142944335938,793.7728881835938,795.3846435546875,784.5054931640625
1117,790.5494384765625,793.7728881835938,799.010986328125,786.1171875
1118,792.5640869140625,794.5787353515625,797.8021850585938,785.3113403320312
1119,792.1611938476562,791.3552856445312,791.7582397460938,783.6996459960938
1120,792.1611938476562,791.3552856445312,792.1611938476562,785.3113403320312
1121,788.1318969726562,792.5640869140625,789.7435913085938,780.0732421875
1122,789.7435913085938,790.1465454101562,786.5201416015625,781.6849975585938
1123,794.1758422851562,792.1611938476562,788.937744140625,782.4908447265625
1124,795.7875366210938,794.5787353515625,789.7435913085938,778.8644409179688
1125,795.3846435546875,797.8021850585938,787.3259887695312,780.879150390625
1126,797.8021850585938,796.5933837890625,787.3259887695312,780.4761962890625
1127,798.6080322265625,797.8021850585938,791.7582397460938,782.087890625
1128,794.981689453125,801.8314819335938,797.3992919921875,778.4615478515625
1129,798.6080322265625,798.6080322265625,790.952392578125,772.0146484375
1130,797.8021850585938,795.7875366210938,792.1611938476562,777.2527465820312
1131,793.3699340820312,795.3846435546875,793.7728881835938,780.4761962890625
1132,795.7875366210938,800.2197875976562,791.3552856445312,788.5347900390625
1133,792.967041015625,799.010986328125,790.952392578125,787.3259887695312
1134,796.996337890625,793.3699340820312,787.7289428710938,782.4908447265625
1135,796.5933837890625,792.967041015625,788.5347900390625,782.4908447265625
1136,790.5494384765625,793.7728881835938,792.967041015625,781.6849975585938
1137,790.952392578125,790.952392578125,794.5787353515625,785.3113403320312
1138,787.7289428710938,787.3259887695312,793.3699340820312,790.952392578125
1139,788.1318969726562,790.1465454101562,795.3846435546875,794.1758422851562
1140,792.967041015625,792.5640869140625,799.010986328125,796.996337890625
1141,788.5347900390625,790.952392578125,798.2051391601562,791.7582397460938
1142,791.7582397460938,791.3552856445312,800.6226806640625,786.923095703125
1143,797.3992919921875,798.2051391601562,807.87548828125,781.6849975585938
1144,801.025634765625,803.040283203125,807.069580078125,781.2820434570312
1145,801.4285888671875,799.4139404296875,802.6373901367188,783.2966918945312
1146,793.3699340820312,794.981689453125,798.2051391601562,784.1025390625
1147,787.3259887695312,795.3846435546875,791.7582397460938,779.6703491210938
1148,784.1025390625,794.5787353515625,788.937744140625,774.8351440429688
1149,784.908447265625,789.3406372070312,790.1465454101562,774.8351440429688
1150,791.3552856445312,786.5201416015625,785.3113403320312,772.4176025390625
1151,792.5640869140625,786.923095703125,783.6996459960938,772.8204956054688
1152,790.952392578125,790.1465454101562,783.2966918945312,775.6410522460938
1153,789.3406372070312,790.5494384765625,774.8351440429688,776.8497924804688
1154,784.5054931640625,789.7435913085938,772.4176025390625,768.7911987304688
1155,786.923095703125,791.7582397460938,771.2088012695312,768.7911987304688
1156,788.1318969726562,795.3846435546875,772.8204956054688,772.8204956054688
1157,790.1465454101562,796.996337890625,776.4468994140625,785.7142944335938
1158,795.7875366210938,797.8021850585938,775.2380981445312,796.5933837890625
1159,796.996337890625,796.1904907226562,778.8644409179688,789.3406372070312
1160,799.4139404296875,792.5640869140625,784.1025390625,796.1904907226562
1161,800.6226806640625,793.3699340820312,786.5201416015625,804.2490844726562
1162,794.1758422851562,798.6080322265625,786.5201416015625,801.8314819335938
1163,788.937744140625,797.8021850585938,786.1171875,803.040283203125
1164,792.967041015625,790.5494384765625,787.7289428710938,808.2783813476562
1165,793.7728881835938,789.7435913085938,791.7582397460938,806.6666870117188
1166,793.3699340820312,788.1318969726562,795.3846435546875,801.8314819335938
1167,794.5787353515625,787.7289428710938,799.4139404296875,799.4139404296875
1168,795.3846435546875,792.1611938476562,802.2344360351562,801.8314819335938
1169,795.3846435546875,796.5933837890625,802.2344360351562,802.2344360351562
1170,792.5640869140625,795.7875366210938,803.4432373046875,803.040283203125
1171,788.1318969726562,788.937744140625,799.8168334960938,793.3699340820312
1172,779.6703491210938,790.952392578125,795.3846435546875,782.4908447265625
1173,773.6264038085938,793.3699340820312,794.981689453125,783.6996459960938
1174,772.8204956054688,788.937744140625,792.1611938476562,779.2673950195312
1175,775.6410522460938,787.7289428710938,790.952392578125,776.4468994140625
1176,781.6849975585938,788.5347900390625,795.7875366210938,781.6849975585938
1177,783.6996459960938,792.1611938476562,800.2197875976562,778.4615478515625
1178,784.1025390625,798.2051391601562,799.4139404296875,774.8351440429688
1179,792.1611938476562,796.996337890625,790.952392578125,780.0732421875
1180,795.3846435546875,792.1611938476562,791.3552856445312,783.2966918945312
1181,790.5494384765625,794.981689453125,794.5787353515625,784.5054931640625
1182,791.3552856445312,795.7875366210938,786.923095703125,785.3113403320312
1183,795.3846435546875,789.7435913085938,785.3113403320312,785.3113403320312
1184,795.3846435546875,790.5494384765625,790.1465454101562,783.6996459960938
1185,791.3552856445312,793.3699340820312,786.1171875,784.908447265625
1186,787.7289428710938,794.5787353515625,790.1465454101562,788.937744140625
1187,784.908447265625,795.3846435546875,793.3699340820312,796.5933837890625
1188,784.908447265625,790.1465454101562,796.996337890625,801.025634765625
1189,784.908447265625,790.1465454101562,799.010986328125,797.3992919921875
1190,792.5640869140625,793.3699340820312,799.4139404296875,800.6226806640625
1191,798.6080322265625,793.3699340820312,803.8461303710938,806.2637329101562
1192,797.8021850585938,794.981689453125,801.8314819335938,808.6813354492188
1193,792.967041015625,791.7582397460938,797.3992919921875,806.6666870117188
1194,785.7142944335938,784.5054931640625,796.5933837890625,794.981689453125
1195,788.1318969726562,781.6849975585938,796.1904907226562,796.996337890625
1196,790.952392578125,786.1171875,790.952392578125,805.4578857421875
1197,788.937744140625,784.5054931640625,789.3406372070312,793.3699340820312
1198,782.087890625,781.2820434570312,790.1465454101562,780.879150390625
1199,778.4615478515625,782.893798828125,790.1465454101562,772.0146484375
1200,784.5054931640625,784.1025390625,792.967041015625,771.6116943359375
1201,792.5640869140625,784.1025390625,797.3992919921875,779.6703491210938
1202,794.5787353515625,784.1025390625,793.7728881835938,784.5054931640625
1203,789.7435913085938,783.6996459960938,793.7728881835938,782.4908447265625
1204,787.7289428710938,787.3259887695312,799.8168334960938,774.029296875
1205,786.1171875,790.952392578125,795.7875366210938,770.4029541015625
1206,785.3113403320312,790.5494384765625,791.7582397460938,774.8351440429688
1207,786.923095703125,790.5494384765625,791.3552856445312,780.4761962890625
1208,782.893798828125,792.967041015625,794.5787353515625,775.6410522460938
1209,778.4615478515625,790.1465454101562,796.1904907226562,764.3589477539062
1210,782.087890625,782.4908447265625,792.5640869140625,772.4176025390625
1211,787.3259887695312,778.05859375,790.1465454101562,787.7289428710938
1212,783.2966918945312,778.05859375,789.7435913085938,783.6996459960938
1213,772.4176025390625,786.5201416015625,790.952392578125,775.2380981445312
1214,767.5823974609375,791.3552856445312,792.1611938476562,775.6410522460938
1215,774.8351440429688,792.1611938476562,796.996337890625,778.8644409179688
1216,779.2673950195312,792.967041015625,799.010986328125,773.2234497070312
1217,786.5201416015625,799.8168334960938,799.010986328125,774.8351440429688
1218,796.996337890625,807.4725341796875,801.025634765625,786.1171875
1219,799.4139404296875,808.6813354492188,801.4285888671875,791.7582397460938
1220,805.054931640625,803.8461303710938,801.8314819335938,793.3699340820312
1221,809.89013671875,797.3992919921875,796.996337890625,788.1318969726562
1222,804.2490844726562,795.7875366210938,792.5640869140625,780.4761962890625
1223,795.7875366210938,791.7582397460938,790.5494384765625,783.2966918945312
1224,792.967041015625,788.5347900390625,787.7289428710938,779.6703491210938
1225,795.7875366210938,788.1318969726562,787.3259887695312,778.8644409179688
1226,798.2051391601562,784.908447265625,786.5201416015625,778.8644409179688
1227,791.7582397460938,787.7289428710938,787.3259887695312,774.8351440429688
1228,789.3406372070312,792.967041015625,790.5494384765625,775.2380981445312
1229,790.952392578125,794.5787353515625,794.1758422851562,776.8497924804688
1230,788.1318969726562,790.1465454101562,794.5787353515625,776.0439453125
1231,786.1171875,789.3406372070312,796.5933837890625,780.4761962890625
1232,788.1318969726562,791.3552856445312,802.6373901367188,788.937744140625
1233,788.937744140625,789.3406372070312,797.8021850585938,791.3552856445312
1234,789.7435913085938,784.5054931640625,790.952392578125,798.2051391601562
1235,795.7875366210938,783.6996459960938,793.7728881835938,801.8314819335938
1236,794.1758422851562,783.6996459960938,795.3846435546875,791.7582397460938
1237,793.3699340820312,784.908447265625,791.3552856445312,789.7435913085938
1238,796.996337890625,783.6996459960938,796.996337890625,796.1904907226562
1239,792.967041015625,787.3259887695312,803.040283203125,791.7582397460938
1240,797.3992919921875,794.1758422851562,807.069580078125,790.1465454101562
1241,796.996337890625,789.3406372070312,804.2490844726562,794.5787353515625
1242,794.1758422851562,784.908447265625,799.010986328125,795.3846435546875
1243,791.7582397460938,783.2966918945312,798.2051391601562,792.1611938476562
1244,789.3406372070312,786.1171875,792.1611938476562,786.5201416015625
1245,791.3552856445312,789.3406372070312,789.7435913085938,786.923095703125
1246,796.5933837890625,788.1318969726562,792.1611938476562,798.2051391601562
1247,803.8461303710938,786.923095703125,791.3552856445312,796.5933837890625
1248,799.010986328125,786.5201416015625,792.1611938476562,790.5494384765625
1249,791.3552856445312,782.893798828125,792.5640869140625,789.7435913085938
1250,788.5347900390625,783.2966918945312,795.3846435546875,790.952392578125
1251,786.1171875,789.3406372070312,795.7875366210938,794.981689453125
1252,785.7142944335938,787.3259887695312,795.3846435546875,792.1611938476562
1253,782.4908447265625,788.1318969726562,792.967041015625,793.3699340820312
1254,782.087890625,785.7142944335938,794.5787353515625,790.952392578125
1255,786.1171875,784.1025390625,803.4432373046875,790.5494384765625
1256,788.1318969726562,789.7435913085938,798.2051391601562,793.7728881835938
1257,790.952392578125,791.7582397460938,795.3846435546875,795.3846435546875
1258,797.8021850585938,796.1904907226562,797.8021850585938,794.1758422851562
1259,796.1904907226562,792.967041015625,796.1904907226562,797.8021850585938
1260,794.981689453125,788.937744140625,795.7875366210938,799.010986328125
1261,797.8021850585938,791.3552856445312,796.1904907226562,791.7582397460938
1262,799.4139404296875,791.3552856445312,796.1904907226562,788.937744140625
1263,801.4285888671875,793.3699340820312,793.3699340820312,791.3552856445312
1264,799.010986328125,792.5640869140625,791.7582397460938,796.1904907226562
1265,796.1904907226562,792.967041015625,792.967041015625,796.5933837890625
1266,799.010986328125,793.7728881835938,788.937744140625,793.7728881835938
1267,800.2197875976562,791.7582397460938,792.967041015625,798.6080322265625
1268,795.3846435546875,796.5933837890625,794.981689453125,797.3992919921875
1269,794.981689453125,793.7728881835938,789.3406372070312,795.3846435546875
1270,791.3552856445312,787.3259887695312,786.923095703125,792.967041015625
1271,791.3552856445312,784.908447265625,792.1611938476562,790.5494384765625
1272,793.7728881835938,783.6996459960938,796.5933837890625,795.7875366210938
1273,792.1611938476562,786.923095703125,795.7875366210938,796.1904907226562
1274,788.5347900390625,785.7142944335938,796.1904907226562,794.1758422851562
1275,789.3406372070312,788.5347900390625,796.5933837890625,792.1611938476562
1276,792.1611938476562,792.5640869140625,790.1465454101562,785.7142944335938
1277,791.3552856445312,788.5347900390625,790.1465454101562,786.923095703125
1278,792.5640869140625,789.7435913085938,793.3699340820312,787.7289428710938
1279,787.3259887695312,788.5347900390625,794.981689453125,775.6410522460938
1280,792.5640869140625,788.937744140625,798.2051391601562,782.4908447265625
1281,801.025634765625,801.8314819335938,798.6080322265625,795.3846435546875
1282,801.8314819335938,805.4578857421875,799.4139404296875,793.3699340820312
1283,804.6520385742188,802.2344360351562,799.010986328125,792.1611938476562
1284,803.040283203125,802.2344360351562,795.3846435546875,790.1465454101562
1285,795.3846435546875,799.010986328125,794.5787353515625,789.3406372070312
1286,791.3552856445312,796.1904907226562,794.5787353515625,790.1465454101562
1287,788.937744140625,794.981689453125,791.3552856445312,787.7289428710938
1288,788.937744140625,788.5347900390625,787.7289428710938,783.6996459960938
1289,787.7289428710938,786.923095703125,786.923095703125,782.4908447265625
1290,782.087890625,790.5494384765625,788.937744140625,782.4908447265625
1291,784.5054931640625,791.7582397460938,790.1465454101562,786.5201416015625
1292,786.5201416015625,789.7435913085938,789.3406372070312,793.7728881835938
1293,784.5054931640625,788.1318969726562,789.7435913085938,784.908447265625
1294,786.5201416015625,789.7435913085938,786.1171875,779.6703491210938
1295,782.893798828125,788.937744140625,785.7142944335938,782.893798828125
1296,779.2673950195312,786.923095703125,788.937744140625,783.2966918945312
1297,786.1171875,790.5494384765625,789.7435913085938,777.2527465820312
1298,791.3552856445312,792.5640869140625,785.7142944335938,778.4615478515625
1299,787.3259887695312,791.3552856445312,784.5054931640625,783.6996459960938
1300,780.879150390625,789.7435913085938,785.3113403320312,790.1465454101562
1301,783.6996459960938,792.967041015625,783.6996459960938,792.5640869140625
1302,787.3259887695312,795.3846435546875,784.1025390625,782.4908447265625
1303,787.3259887695312,794.5787353515625,786.923095703125,781.6849975585938
1304,790.952392578125,794.5787353515625,788.5347900390625,782.4908447265625
1305,790.5494384765625,795.3846435546875,788.5347900390625,775.2380981445312
1306,792.5640869140625,800.2197875976562,793.7728881835938,780.879150390625
1307,797.3992919921875,807.87548828125,798.6080322265625,793.7728881835938
1308,801.025634765625,808.6813354492188,799.4139404296875,796.996337890625
1309,798.6080322265625,802.2344360351562,795.7875366210938,792.1611938476562
1310,792.1611938476562,798.2051391601562,787.7289428710938,793.7728881835938
1311,793.7728881835938,796.5933837890625,788.5347900390625,801.025634765625
1312,799.4139404296875,794.981689453125,792.1611938476562,794.5787353515625
1313,797.8021850585938,793.3699340820312,791.3552856445312,783.2966918945312
1314,794.1758422851562,791.7582397460938,790.1465454101562,785.7142944335938
1315,787.3259887695312,789.7435913085938,792.5640869140625,790.1465454101562
1316,784.1025390625,789.7435913085938,797.3992919921875,787.3259887695312
1317,784.908447265625,788.937744140625,799.4139404296875,778.8644409179688
1318,784.908447265625,788.1318969726562,796.996337890625,776.0439453125
1319,778.8644409179688,788.937744140625,792.967041015625,776.8497924804688
1320,778.05859375,790.952392578125,792.967041015625,779.2673950195312
1321,776.8497924804688,785.7142944335938,794.1758422851562,783.2966918945312
1322,773.2234497070312,782.4908447265625,796.5933837890625,784.5054931640625
1323,776.0439453125,786.923095703125,794.981689453125,783.6996459960938
1324,778.05859375,789.7435913085938,792.967041015625,782.893798828125
1325,781.6849975585938,794.5787353515625,796.996337890625,782.893798828125
1326,789.3406372070312,796.5933837890625,801.025634765625,787.3259887695312
1327,792.967041015625,797.3992919921875,805.054931640625,791.7582397460938
1328,791.3552856445312,795.7875366210938,802.6373901367188,792.1611938476562
1329,790.5494384765625,790.952392578125,794.5787353515625,790.5494384765625
1330,792.967041015625,792.967041015625,796.1904907226562,789.7435913085938
1331,790.952392578125,796.5933837890625,797.8021850585938,785.7142944335938
1332,787.3259887695312,796.1904907226562,795.7875366210938,783.6996459960938
1333,791.3552856445312,799.4139404296875,799.8168334960938,785.3113403320312
1334,797.3992919921875,800.6226806640625,804.6520385742188,792.1611938476562
1335,796.5933837890625,801.025634765625,804.2490844726562,788.937744140625
1336,792.5640869140625,799.8168334960938,794.981689453125,784.1025390625
1337,791.3552856445312,800.2197875976562,788.937744140625,788.937744140625
1338,785.7142944335938,792.5640869140625,790.952392578125,787.7289428710938
1339,784.5054931640625,790.5494384765625,790.1465454101562,786.1171875
1340,790.952392578125,794.5787353515625,788.937744140625,784.5054931640625
1341,786.923095703125,792.1611938476562,786.923095703125,782.087890625
1342,780.0732421875,793.3699340820312,786.5201416015625,785.3113403320312
1343,782.893798828125,791.3552856445312,786.1171875,780.4761962890625
1344,786.923095703125,788.937744140625,787.7289428710938,778.8644409179688
1345,786.1171875,793.7728881835938,790.952392578125,782.087890625
1346,782.4908447265625,790.952392578125,786.923095703125,778.8644409179688
1347,782.087890625,790.5494384765625,789.3406372070312,780.0732421875
1348,788.5347900390625,792.967041015625,791.3552856445312,784.1025390625
1349,796.1904907226562,792.1611938476562,793.7728881835938,788.937744140625
1350,796.1904907226562,788.937744140625,790.952392578125,788.5347900390625
1351,793.3699340820312,791.7582397460938,793.3699340820312,785.7142944335938
1352,791.3552856445312,797.8021850585938,796.1904907226562,784.908447265625
1353,796.5933837890625,794.5787353515625,793.3699340820312,794.1758422851562
1354,800.6226806640625,794.1758422851562,793.7728881835938,796.5933837890625
1355,801.025634765625,793.7728881835938,792.967041015625,786.923095703125
1356,796.5933837890625,790.1465454101562,795.3846435546875,782.087890625
1357,790.5494384765625,789.7435913085938,794.1758422851562,786.1171875
1358,801.025634765625,791.3552856445312,797.3992919921875,798.2051391601562
1359,809.4871826171875,797.8021850585938,801.4285888671875,805.4578857421875
1360,803.040283203125,800.2197875976562,796.1904907226562,803.8461303710938
1361,793.7728881835938,795.7875366210938,796.5933837890625,798.2051391601562
1362,785.7142944335938,793.7728881835938,793.3699340820312,794.5787353515625
1363,776.8497924804688,788.937744140625,786.923095703125,781.6849975585938
1364,779.2673950195312,789.7435913085938,784.5054931640625,777.2527465820312
1365,782.087890625,790.5494384765625,789.7435913085938,780.879150390625
1366,777.2527465820312,785.7142944335938,791.7582397460938,779.6703491210938
1367,780.4761962890625,783.6996459960938,787.3259887695312,784.5054931640625
1368,787.7289428710938,784.908447265625,792.5640869140625,784.908447265625
1369,789.3406372070312,786.5201416015625,795.3846435546875,780.0732421875
1370,791.3552856445312,785.7142944335938,791.3552856445312,782.087890625
1371,792.967041015625,788.1318969726562,792.967041015625,778.8644409179688
1372,784.5054931640625,786.5201416015625,794.5787353515625,776.8497924804688
1373,783.2966918945312,784.908447265625,791.7582397460938,784.1025390625
1374,792.5640869140625,788.5347900390625,793.7728881835938,784.908447265625
1375,793.3699340820312,792.967041015625,795.7875366210938,780.879150390625
1376,784.5054931640625,795.7875366210938,794.1758422851562,784.1025390625
1377,790.5494384765625,798.2051391601562,792.5640869140625,787.3259887695312
1378,799.010986328125,798.6080322265625,797.3992919921875,787.7289428710938
1379,796.5933837890625,799.010986328125,799.4139404296875,785.3113403320312
1380,795.7875366210938,799.010986328125,791.7582397460938,786.923095703125
1381,792.1611938476562,799.010986328125,793.3699340820312,785.3113403320312
1382,796.996337890625,799.8168334960938,798.2051391601562,788.5347900390625
1383,800.6226806640625,801.025634765625,792.5640869140625,790.5494384765625
1384,809.084228515625,806.6666870117188,787.7289428710938,794.981689453125
1385,808.6813354492188,801.8314819335938,788.5347900390625,802.6373901367188
1386,792.967041015625,790.952392578125,794.1758422851562,799.8168334960938
1387,789.3406372070312,788.5347900390625,790.1465454101562,796.5933837890625
1388,791.3552856445312,787.7289428710938,785.3113403320312,797.8021850585938
1389,790.5494384765625,788.5347900390625,778.8644409179688,788.1318969726562
1390,786.5201416015625,786.1171875,774.8351440429688,781.2820434570312
1391,780.4761962890625,787.7289428710938,778.8644409179688,778.8644409179688
1392,783.6996459960938,791.3552856445312,780.4761962890625,782.893798828125
1393,786.5201416015625,792.967041015625,782.893798828125,787.7289428710938
1394,786.923095703125,790.5494384765625,785.3113403320312,782.893798828125
1395,787.3259887695312,784.1025390625,788.1318969726562,787.7289428710938
1396,789.3406372070312,782.087890625,790.1465454101562,795.3846435546875
1397,788.5347900390625,786.1171875,792.5640869140625,789.7435913085938
1398,789.3406372070312,785.3113403320312,786.1171875,782.087890625
1399,788.5347900390625,780.4761962890625,780.0732421875,780.879150390625
1400,788.5347900390625,785.7142944335938,788.1318969726562,787.7289428710938
1401,790.952392578125,785.7142944335938,790.952392578125,792.1611938476562
1402,792.967041015625,788.937744140625,785.7142944335938,792.967041015625
1403,791.7582397460938,788.5347900390625,783.2966918945312,790.1465454101562
1404,787.7289428710938,784.5054931640625,786.923095703125,789.3406372070312
1405,788.1318969726562,788.1318969726562,790.952392578125,792.1611938476562
1406,789.7435913085938,791.3552856445312,792.1611938476562,790.1465454101562
1407,790.952392578125,794.5787353515625,792.967041015625,788.1318969726562
1408,799.010986328125,798.2051391601562,796.5933837890625,789.7435913085938
1409,805.8607788085938,799.8168334960938,797.8021850585938,793.7728881835938
1410,801.4285888671875,797.3992919921875,791.3552856445312,795.7875366210938
1411,789.7435913085938,791.7582397460938,784.908447265625,793.7728881835938
1412,787.3259887695312,790.1465454101562,782.4908447265625,793.7728881835938
1413,791.7582397460938,792.1611938476562,784.5054931640625,796.5933837890625
1414,796.5933837890625,791.7582397460938,785.7142944335938,794.981689453125
1415,799.4139404296875,793.3699340820312,782.4908447265625,800.2197875976562
1416,792.967041015625,787.3259887695312,778.05859375,794.981689453125
1417,786.5201416015625,784.1025390625,774.8351440429688,781.6849975585938
1418,785.7142944335938,789.7435913085938,774.8351440429688,780.0732421875
1419,783.2966918945312,791.7582397460938,778.05859375,780.879150390625
1420,786.923095703125,790.1465454101562,780.0732421875,784.908447265625
1421,789.7435913085938,787.7289428710938,782.4908447265625,783.6996459960938
1422,783.2966918945312,787.7289428710938,784.908447265625,784.908447265625
1423,780.879150390625,791.3552856445312,783.6996459960938,786.923095703125
1424,787.3259887695312,790.952392578125,780.879150390625,788.937744140625
1425,796.1904907226562,788.1318969726562,784.1025390625,796.996337890625
1426,799.4139404296875,785.3113403320312,785.7142944335938,798.2051391601562
1427,791.7582397460938,783.6996459960938,782.893798828125,790.5494384765625
1428,784.1025390625,782.4908447265625,781.2820434570312,788.5347900390625
1429,787.3259887695312,784.1025390625,784.5054931640625,786.1171875
1430,790.1465454101562,786.923095703125,789.3406372070312,782.4908447265625
1431,787.7289428710938,786.1171875,790.952392578125,786.5201416015625
1432,788.1318969726562,786.5201416015625,794.5787353515625,790.952392578125
1433,787.7289428710938,785.3113403320312,795.7875366210938,789.7435913085938
1434,788.937744140625,785.7142944335938,793.7728881835938,793.7728881835938
1435,794.5787353515625,789.7435913085938,794.981689453125,799.8168334960938
1436,798.6080322265625,791.7582397460938,798.2051391601562,796.5933837890625
1437,796.996337890625,792.967041015625,796.996337890625,792.967041015625
1438,794.981689453125,793.3699340820312,794.1758422851562,798.2051391601562
1439,799.4139404296875,796.996337890625,794.981689453125,794.5787353515625
1440,803.4432373046875,801.025634765625,800.6226806640625,790.5494384765625
1441,803.8461303710938,800.6226806640625,802.6373901367188,795.7875366210938
1442,805.054931640625,799.8168334960938,799.8168334960938,795.7875366210938
1443,803.4432373046875,797.8021850585938,799.4139404296875,785.3113403320312
1444,798.6080322265625,791.3552856445312,796.1904907226562,780.879150390625
1445,793.7728881835938,787.3259887695312,793.3699340820312,783.6996459960938
1446,788.937744140625,788.1318969726562,794.981689453125,787.7289428710938
1447,784.908447265625,786.5201416015625,792.5640869140625,785.7142944335938
1448,783.2966918945312,789.7435913085938,786.923095703125,777.6557006835938
1449,784.908447265625,791.7582397460938,787.7289428710938,779.2673950195312
1450,786.5201416015625,794.1758422851562,787.7289428710938,786.1171875
1451,788.1318969726562,792.967041015625,786.923095703125,780.0732421875
1452,783.6996459960938,785.7142944335938,787.7289428710938,773.2234497070312
1453,781.2820434570312,788.937744140625,790.1465454101562,775.6410522460938
1454,787.7289428710938,795.3846435546875,792.5640869140625,779.2673950195312
1455,791.3552856445312,790.952392578125,789.3406372070312,782.4908447265625
1456,795.3846435546875,786.5201416015625,786.5201416015625,787.3259887695312
1457,794.1758422851562,791.3552856445312,785.3113403320312,788.1318969726562
1458,796.5933837890625,792.967041015625,784.1025390625,786.1171875
1459,799.010986328125,794.1758422851562,786.1171875,790.952392578125
1460,799.8168334960938,794.5787353515625,791.7582397460938,799.8168334960938
1461,802.2344360351562,794.1758422851562,794.5787353515625,805.4578857421875
1462,802.6373901367188,798.2051391601562,791.3552856445312,800.2197875976562
1463,801.025634765625,797.8021850585938,790.1465454101562,793.7728881835938
1464,800.2197875976562,796.1904907226562,788.1318969726562,792.1611938476562
1465,805.054931640625,796.996337890625,788.937744140625,796.1904907226562
1466,810.2930297851562,795.3846435546875,792.5640869140625,796.5933837890625
1467,804.6520385742188,794.5787353515625,797.8021850585938,787.3259887695312
1468,798.2051391601562,799.4139404296875,793.3699340820312,786.923095703125
1469,792.5640869140625,802.6373901367188,789.3406372070312,788.5347900390625
1470,792.1611938476562,795.3846435546875,790.5494384765625,783.6996459960938
1471,798.2051391601562,795.3846435546875,788.5347900390625,784.1025390625
1472,803.8461303710938,796.996337890625,791.7582397460938,794.981689453125
1473,808.2783813476562,800.2197875976562,801.4285888671875,796.996337890625
1474,805.054931640625,808.6813354492188,807.87548828125,793.7728881835938
1475,801.8314819335938,807.069580078125,807.87548828125,797.3992919921875
1476,802.6373901367188,801.8314819335938,804.2490844726562,795.3846435546875
1477,803.040283203125,797.8021850585938,800.2197875976562,788.937744140625
1478,795.7875366210938,790.5494384765625,794.5787353515625,787.7289428710938
1479,786.5201416015625,789.7435913085938,794.1758422851562,782.087890625
1480,783.2966918945312,791.3552856445312,799.010986328125,781.6849975585938
1481,782.893798828125,787.3259887695312,797.8021850585938,782.4908447265625
1482,785.3113403320312,791.3552856445312,795.3846435546875,785.3113403320312
1483,786.5201416015625,796.996337890625,794.981689453125,791.7582397460938
1484,783.2966918945312,794.1758422851562,794.981689453125,797.8021850585938
1485,784.908447265625,791.7582397460938,795.7875366210938,791.7582397460938
1486,790.952392578125,790.952392578125,793.7728881835938,789.7435913085938
1487,794.1758422851562,792.5640869140625,792.5640869140625,794.981689453125
1488,794.1758422851562,792.5640869140625,794.5787353515625,788.5347900390625
1489,790.5494384765625,790.5494384765625,798.2051391601562,781.6849975585938
1490,789.3406372070312,790.1465454101562,796.1904907226562,784.1025390625
1491,791.3552856445312,794.981689453125,795.7875366210938,780.0732421875
1492,799.010986328125,803.8461303710938,798.6080322265625,782.087890625
1493,796.5933837890625,802.2344360351562,800.6226806640625,780.4761962890625
1494,784.908447265625,792.1611938476562,799.4139404296875,768.3883056640625
1495,782.087890625,791.7582397460938,798.6080322265625,767.5823974609375
1496,773.6264038085938,787.7289428710938,798.6080322265625,763.9560546875
1497,769.5970458984375,789.3406372070312,794.1758422851562,762.3442993164062
1498,763.9560546875,790.5494384765625,807.4725341796875,759.5238037109375
1499,756.3003540039062,786.923095703125,828.8278198242188,755.091552734375
1500,744.6153564453125,782.893798828125,823.5897216796875,741.7948608398438
1501,734.1392211914062,775.6410522460938,817.5457763671875,720.4395751953125
1502,729.7069702148438,793.3699340820312,826.4102783203125,711.5750732421875
1503,709.5604248046875,803.8461303710938,833.6630249023438,695.054931640625
1504,682.967041015625,804.2490844726562,833.6630249023438,675.3113403320312
1505,675.7142944335938,807.87548828125,838.09521484375,680.952392578125
1506,683.3699340820312,805.4578857421875,844.5421142578125,695.4578857421875
1507,681.7582397460938,806.6666870117188,846.1538696289062,695.4578857421875
1508,663.2234497070312,807.87548828125,840.5128173828125,677.7289428710938
1509,653.5531005859375,809.89013671875,841.3186645507812,660.8058471679688
1510,650.7326049804688,806.6666870117188,843.7362670898438,651.5384521484375
1511,647.5091552734375,799.4139404296875,842.12451171875,643.8828125
1512,647.5091552734375,801.025634765625,845.7509155273438,647.912109375
1513,647.106201171875,803.4432373046875,849.3773193359375,658.7911987304688
1514,650.7326049804688,799.010986328125,846.5567626953125,655.970703125
1515,653.1502075195312,798.6080322265625,844.1392211914062,652.7472534179688
1516,657.5823974609375,799.8168334960938,846.5567626953125,658.3883056640625
1517,662.8204956054688,799.4139404296875,842.930419921875,666.8497924804688
1518,665.2380981445312,798.2051391601562,836.08056640625,674.1025390625
1519,669.6703491210938,798.6080322265625,833.2600708007812,678.1318969726562
1520,671.2820434570312,803.040283203125,834.4688720703125,682.5640869140625
1521,681.7582397460938,798.6080322265625,837.6923217773438,696.2637329101562
1522,695.4578857421875,794.1758422851562,838.901123046875,711.5750732421875
1523,707.1428833007812,794.5787353515625,838.901123046875,711.5750732421875
1524,718.4249267578125,796.1904907226562,836.886474609375,713.5897216796875
1525,731.3186645507812,801.025634765625,834.4688720703125,737.3626098632812
1526,743.003662109375,802.6373901367188,835.2747192382812,757.912109375
1527,753.4798583984375,803.4432373046875,828.8278198242188,761.5384521484375
1528,763.9560546875,800.2197875976562,819.1575317382812,766.7765502929688
1529,774.4322509765625,792.967041015625,814.3223266601562,779.2673950195312
1530,777.6557006835938,788.1318969726562,803.040283203125,780.4761962890625
1531,785.3113403320312,789.3406372070312,791.7582397460938,780.0732421875
1532,792.5640869140625,792.1611938476562,787.7289428710938,784.1025390625
1533,795.7875366210938,786.5201416015625,786.1171875,791.3552856445312
1534,805.8607788085938,788.1318969726562,781.6849975585938,808.2783813476562
1535,814.7252807617188,787.7289428710938,782.893798828125,816.3369750976562
1536,823.99267578125,786.923095703125,783.2966918945312,821.5750732421875
1537,825.2014770507812,792.967041015625,778.4615478515625,815.5311279296875
1538,822.3809814453125,795.7875366210938,777.6557006835938,809.4871826171875
1539,829.6337280273438,795.3846435546875,776.8497924804688,817.94873046875
1540,834.06591796875,793.3699340820312,775.6410522460938,821.97802734375
1541,833.2600708007812,795.7875366210938,778.4615478515625,828.4249267578125
1542,845.7509155273438,795.7875366210938,780.879150390625,836.886474609375
1543,851.3919677734375,794.1758422851562,782.4908447265625,840.10986328125
1544,844.5421142578125,791.7582397460938,784.1025390625,837.2893676757812
1545,846.1538696289062,791.3552856445312,780.879150390625,837.2893676757812
1546,848.5714111328125,788.1318969726562,777.6557006835938,836.4835205078125
1547,855.4212646484375,784.5054931640625,780.4761962890625,837.6923217773438
1548,847.7655639648438,785.7142944335938,775.6410522460938,832.8571166992188
1549,842.930419921875,788.5347900390625,772.8204956054688,828.4249267578125
1550,846.1538696289062,788.1318969726562,772.8204956054688,835.6776733398438
1551,842.930419921875,784.1025390625,768.7911987304688,836.4835205078125
1552,840.915771484375,777.2527465820312,765.970703125,827.2161254882812
1553,846.959716796875,776.8497924804688,761.94140625,826.00732421875
1554,850.5860595703125,783.2966918945312,761.1355590820312,832.8571166992188
1555,842.930419921875,781.6849975585938,760.7326049804688,828.8278198242188
1556,838.901123046875,774.4322509765625,762.3442993164062,832.4542236328125
1557,843.7362670898438,776.4468994140625,769.5970458984375,850.989013671875
1558,847.7655639648438,780.879150390625,774.4322509765625,844.5421142578125
1559,849.7802124023438,787.7289428710938,778.4615478515625,835.6776733398438
1560,854.2124633789062,792.1611938476562,784.1025390625,840.10986328125
1561,850.5860595703125,788.5347900390625,775.2380981445312,844.5421142578125
1562,843.3333129882812,786.923095703125,764.7619018554688,840.10986328125
1563,849.7802124023438,789.7435913085938,771.6116943359375,843.3333129882812
1564,850.5860595703125,791.7582397460938,774.029296875,845.3479614257812
1565,836.08056640625,788.937744140625,771.2088012695312,838.09521484375
1566,831.2454223632812,786.1171875,769.5970458984375,836.08056640625
1567,828.8278198242188,785.7142944335938,767.5823974609375,834.4688720703125
1568,828.02197265625,784.1025390625,766.7765502929688,832.8571166992188
1569,829.6337280273438,786.1171875,763.5531005859375,828.8278198242188
1570,833.2600708007812,794.1758422851562,765.5677490234375,822.7838745117188
1571,830.8424682617188,795.3846435546875,768.3883056640625,824.3956298828125
1572,827.6190185546875,792.5640869140625,768.3883056640625,824.3956298828125
1573,837.2893676757812,792.967041015625,771.6116943359375,823.1868286132812
1574,836.08056640625,790.5494384765625,771.2088012695312,823.1868286132812
1575,832.8571166992188,792.1611938476562,773.6264038085938,826.8131713867188
1576,834.8717651367188,799.010986328125,778.4615478515625,828.02197265625
1577,837.2893676757812,799.010986328125,782.087890625,830.8424682617188
1578,841.7216186523438,798.2051391601562,784.5054931640625,831.6483764648438
1579,841.3186645507812,797.8021850585938,782.4908447265625,833.2600708007812
1580,833.2600708007812,791.7582397460938,777.6557006835938,832.4542236328125
1581,826.00732421875,786.923095703125,774.8351440429688,815.93408203125
1582,828.4249267578125,790.5494384765625,776.4468994140625,813.91943359375
1583,825.6043701171875,791.3552856445312,780.0732421875,821.1721801757812
1584,817.94873046875,787.7289428710938,782.893798828125,819.96337890625
1585,817.5457763671875,786.1171875,782.893798828125,817.94873046875
1586,811.90478515625,783.6996459960938,783.2966918945312,810.2930297851562
1587,802.6373901367188,784.1025390625,782.087890625,801.4285888671875
1588,800.2197875976562,786.1171875,779.2673950195312,799.010986328125
