timestamp,RAW_TP9,RAW_AF7,RAW_AF8,RAW_TP10
1,717.2161254882812,818.3516235351562,828.8278198242188,712.3809814453125
2,722.05126953125,818.7545776367188,826.8131713867188,710.3662719726562
3,728.09521484375,819.5604248046875,823.99267578125,712.7838745117188
4,732.12451171875,813.91943359375,825.2014770507812,724.06591796875
5,737.3626098632812,810.6959838867188,817.94873046875,733.3333129882812
6,749.047607421875,819.1575317382812,811.098876953125,742.6007080078125
7,749.8534545898438,820.3662719726562,815.93408203125,741.3919677734375
8,750.6593627929688,815.93408203125,815.93408203125,747.8388061523438
9,763.5531005859375,813.5164794921875,812.3076782226562,769.1941528320312
10,765.970703125,807.069580078125,811.098876953125,777.2527465820312
11,765.970703125,799.4139404296875,802.6373901367188,778.05859375
12,780.4761962890625,797.8021850585938,795.3846435546875,788.5347900390625
13,792.5640869140625,792.967041015625,795.3846435546875,800.2197875976562
14,795.3846435546875,790.952392578125,798.6080322265625,806.2637329101562
15,804.6520385742188,794.1758422851562,793.7728881835938,810.2930297851562
16,812.7106323242188,787.3259887695312,779.6703491210938,816.7399291992188
17,810.2930297851562,782.087890625,776.0439453125,822.7838745117188
18,810.2930297851562,776.8497924804688,776.0439453125,821.5750732421875
19,816.3369750976562,776.0439453125,776.4468994140625,824.3956298828125
20,821.1721801757812,780.879150390625,773.6264038085938,835.2747192382812
21,828.8278198242188,781.2820434570312,767.5823974609375,844.945068359375
22,837.2893676757812,782.087890625,767.9853515625,843.7362670898438
23,838.901123046875,779.6703491210938,770.4029541015625,836.886474609375
24,842.12451171875,778.8644409179688,769.1941528320312,830.03662109375
25,843.3333129882812,777.2527465820312,767.9853515625,835.6776733398438
26,846.1538696289062,772.4176025390625,767.9853515625,844.5421142578125
27,851.3919677734375,775.6410522460938,762.3442993164062,844.945068359375
28,854.2124633789062,776.8497924804688,763.1502075195312,849.3773193359375
29,852.1978149414062,771.2088012695312,767.1795043945312,846.1538696289062
30,851.3919677734375,771.6116943359375,771.6116943359375,849.7802124023438
31,857.032958984375,778.05859375,775.6410522460938,859.4505615234375
32,860.2564086914062,776.8497924804688,773.6264038085938,864.6886596679688
33,861.4652099609375,775.2380981445312,772.4176025390625,868.7179565429688
34,857.4359130859375,775.6410522460938,773.6264038085938,855.018310546875
35,854.2124633789062,773.6264038085938,769.5970458984375,849.3773193359375
36,852.1978149414062,774.4322509765625,764.3589477539062,852.6007080078125
37,857.8388061523438,773.6264038085938,770.0,854.2124633789062
38,861.062255859375,776.8497924804688,773.2234497070312,855.8241577148438
39,853.8095092773438,774.8351440429688,769.5970458984375,848.5714111328125
40,849.3773193359375,771.2088012695312,771.2088012695312,843.3333129882812
41,845.3479614257812,772.8204956054688,779.2673950195312,847.3626098632812
42,851.3919677734375,772.8204956054688,781.2820434570312,853.4066162109375
43,856.2271118164062,776.4468994140625,780.879150390625,849.7802124023438
44,852.6007080078125,777.2527465820312,772.8204956054688,848.974365234375
45,844.5421142578125,782.893798828125,772.8204956054688,848.1685180664062
46,840.915771484375,786.5201416015625,783.2966918945312,843.3333129882812
47,845.3479614257812,783.6996459960938,784.908447265625,841.7216186523438
48,845.3479614257812,780.879150390625,779.2673950195312,842.5274658203125
49,837.2893676757812,778.8644409179688,774.029296875,840.915771484375
50,831.6483764648438,779.2673950195312,774.8351440429688,838.09521484375
51,838.4981689453125,778.05859375,777.6557006835938,839.3040161132812
52,840.915771484375,779.2673950195312,778.4615478515625,838.4981689453125
53,837.6923217773438,779.2673950195312,779.2673950195312,836.08056640625
54,839.7069702148438,778.4615478515625,782.087890625,838.4981689453125
55,829.2307739257812,780.4761962890625,781.6849975585938,831.2454223632812
56,822.3809814453125,779.6703491210938,775.6410522460938,825.6043701171875
57,831.2454223632812,778.4615478515625,780.4761962890625,831.6483764648438
58,832.05126953125,783.2966918945312,785.7142944335938,824.3956298828125
59,830.4395751953125,791.3552856445312,777.2527465820312,817.1428833007812
60,823.1868286132812,792.967041015625,779.2673950195312,818.3516235351562
61,815.5311279296875,784.5054931640625,788.5347900390625,818.3516235351562
62,813.91943359375,782.087890625,786.923095703125,818.7545776367188
63,817.5457763671875,779.6703491210938,784.1025390625,826.8131713867188
64,815.93408203125,778.8644409179688,787.7289428710938,832.05126953125
65,809.084228515625,783.6996459960938,789.7435913085938,824.7985229492188
66,810.6959838867188,781.6849975585938,786.923095703125,820.3662719726562
67,818.7545776367188,783.2966918945312,786.5201416015625,831.2454223632812
68,819.96337890625,786.923095703125,789.3406372070312,828.02197265625
69,820.3662719726562,785.3113403320312,789.7435913085938,813.113525390625
70,821.5750732421875,784.908447265625,785.3113403320312,817.5457763671875
71,817.5457763671875,786.1171875,785.3113403320312,820.3662719726562
72,816.3369750976562,781.2820434570312,783.2966918945312,815.1282348632812
73,819.1575317382812,784.5054931640625,784.1025390625,811.90478515625
74,823.99267578125,792.1611938476562,786.1171875,815.5311279296875
75,822.3809814453125,794.1758422851562,786.923095703125,814.7252807617188
76,815.5311279296875,791.3552856445312,793.3699340820312,813.113525390625
77,817.5457763671875,789.7435913085938,791.3552856445312,809.4871826171875
78,818.3516235351562,794.1758422851562,786.1171875,805.8607788085938
79,817.94873046875,786.923095703125,789.7435913085938,812.7106323242188
80,815.1282348632812,781.2820434570312,792.5640869140625,806.6666870117188
81,811.098876953125,790.5494384765625,789.7435913085938,801.8314819335938
82,812.3076782226562,795.3846435546875,788.937744140625,802.2344360351562
83,809.084228515625,789.7435913085938,786.923095703125,801.025634765625
84,805.8607788085938,788.5347900390625,789.7435913085938,803.8461303710938
85,803.8461303710938,792.5640869140625,789.3406372070312,799.010986328125
86,802.6373901367188,792.5640869140625,790.5494384765625,792.967041015625
87,805.054931640625,792.967041015625,791.3552856445312,796.1904907226562
88,801.025634765625,792.1611938476562,784.5054931640625,795.3846435546875
89,799.010986328125,788.937744140625,784.908447265625,794.981689453125
90,798.2051391601562,784.5054931640625,786.5201416015625,803.4432373046875
91,796.1904907226562,782.893798828125,788.937744140625,801.025634765625
92,796.996337890625,782.087890625,786.1171875,788.5347900390625
93,796.5933837890625,783.2966918945312,782.893798828125,781.6849975585938
94,804.2490844726562,790.1465454101562,789.3406372070312,795.7875366210938
95,801.025634765625,790.952392578125,794.981689453125,799.010986328125
96,799.4139404296875,790.1465454101562,796.5933837890625,796.5933837890625
97,798.6080322265625,792.1611938476562,793.7728881835938,798.6080322265625
98,793.3699340820312,790.5494384765625,795.3846435546875,796.996337890625
99,796.996337890625,791.3552856445312,794.981689453125,790.1465454101562
100,804.2490844726562,794.5787353515625,792.1611938476562,791.3552856445312
101,805.054931640625,788.5347900390625,790.1465454101562,799.4139404296875
102,796.5933837890625,786.1171875,786.5201416015625,796.1904907226562
103,794.5787353515625,793.3699340820312,787.3259887695312,786.5201416015625
104,796.5933837890625,794.1758422851562,787.7289428710938,781.2820434570312
105,795.3846435546875,792.1611938476562,788.5347900390625,785.7142944335938
106,795.3846435546875,794.1758422851562,789.7435913085938,790.952392578125
107,796.996337890625,788.937744140625,788.937744140625,787.7289428710938
108,802.6373901367188,784.1025390625,788.937744140625,784.5054931640625
109,803.8461303710938,782.4908447265625,797.3992919921875,789.7435913085938
110,802.6373901367188,781.2820434570312,799.8168334960938,790.1465454101562
111,797.8021850585938,784.908447265625,793.3699340820312,779.6703491210938
112,794.5787353515625,790.1465454101562,794.981689453125,783.2966918945312
113,801.025634765625,793.3699340820312,792.5640869140625,794.5787353515625
114,803.040283203125,800.2197875976562,792.1611938476562,799.4139404296875
115,799.8168334960938,794.981689453125,797.3992919921875,801.4285888671875
116,803.4432373046875,797.8021850585938,796.5933837890625,801.025634765625
117,807.4725341796875,797.3992919921875,794.5787353515625,807.069580078125
118,803.040283203125,789.3406372070312,788.937744140625,799.8168334960938
119,794.5787353515625,789.7435913085938,789.7435913085938,790.952392578125
120,794.5787353515625,795.7875366210938,793.7728881835938,796.996337890625
121,802.6373901367188,794.5787353515625,792.5640869140625,803.4432373046875
122,797.3992919921875,792.5640869140625,788.937744140625,802.2344360351562
123,794.981689453125,796.5933837890625,787.7289428710938,801.4285888671875
124,798.6080322265625,796.1904907226562,790.1465454101562,798.2051391601562
125,798.6080322265625,791.7582397460938,793.7728881835938,793.7728881835938
126,794.1758422851562,789.7435913085938,794.5787353515625,796.996337890625
127,795.3846435546875,788.1318969726562,793.7728881835938,800.2197875976562
128,794.1758422851562,790.1465454101562,797.3992919921875,802.6373901367188
129,786.923095703125,792.967041015625,792.1611938476562,803.4432373046875
130,788.5347900390625,793.7728881835938,786.923095703125,796.1904907226562
131,789.7435913085938,794.981689453125,790.5494384765625,795.7875366210938
132,795.7875366210938,799.010986328125,787.3259887695312,795.7875366210938
133,803.040283203125,798.2051391601562,789.3406372070312,796.996337890625
134,799.010986328125,790.1465454101562,793.7728881835938,791.7582397460938
135,796.5933837890625,790.1465454101562,792.5640869140625,785.7142944335938
136,797.8021850585938,796.996337890625,789.3406372070312,792.5640869140625
137,790.952392578125,801.4285888671875,790.1465454101562,794.1758422851562
138,789.7435913085938,795.7875366210938,793.3699340820312,791.7582397460938
139,793.7728881835938,795.7875366210938,794.1758422851562,791.7582397460938
140,792.967041015625,801.8314819335938,794.5787353515625,799.010986328125
141,793.3699340820312,795.3846435546875,794.981689453125,800.2197875976562
142,786.923095703125,787.3259887695312,792.967041015625,796.5933837890625
143,782.087890625,792.5640869140625,791.3552856445312,798.6080322265625
144,788.937744140625,797.3992919921875,788.1318969726562,794.5787353515625
145,790.952392578125,791.7582397460938,782.087890625,792.967041015625
146,782.893798828125,790.952392578125,787.3259887695312,792.5640869140625
147,776.0439453125,799.8168334960938,793.7728881835938,790.952392578125
148,775.2380981445312,799.8168334960938,789.3406372070312,793.3699340820312
149,776.8497924804688,794.5787353515625,793.7728881835938,793.7728881835938
150,784.1025390625,788.5347900390625,792.967041015625,787.3259887695312
151,793.3699340820312,789.7435913085938,788.5347900390625,794.5787353515625
152,791.3552856445312,793.7728881835938,790.952392578125,803.8461303710938
153,790.1465454101562,797.3992919921875,789.7435913085938,792.967041015625
154,795.7875366210938,796.5933837890625,788.1318969726562,799.010986328125
155,796.5933837890625,789.3406372070312,790.952392578125,807.4725341796875
156,796.996337890625,788.5347900390625,793.7728881835938,801.8314819335938
157,790.952392578125,796.1904907226562,792.5640869140625,793.3699340820312
158,780.4761962890625,796.5933837890625,793.7728881835938,783.2966918945312
159,780.0732421875,789.7435913085938,796.996337890625,780.4761962890625
160,786.1171875,791.3552856445312,793.3699340820312,779.6703491210938
161,790.952392578125,796.996337890625,790.5494384765625,783.2966918945312
162,791.7582397460938,799.010986328125,789.3406372070312,781.2820434570312
163,790.5494384765625,793.3699340820312,789.7435913085938,781.2820434570312
164,791.3552856445312,790.1465454101562,796.5933837890625,785.3113403320312
165,797.8021850585938,789.3406372070312,798.2051391601562,781.6849975585938
166,798.2051391601562,790.952392578125,791.7582397460938,781.2820434570312
167,796.5933837890625,796.5933837890625,795.7875366210938,788.1318969726562
168,796.1904907226562,797.8021850585938,797.8021850585938,790.5494384765625
169,792.967041015625,794.5787353515625,792.5640869140625,788.5347900390625
170,788.5347900390625,796.1904907226562,795.3846435546875,787.7289428710938
171,791.3552856445312,799.4139404296875,794.5787353515625,784.1025390625
172,788.937744140625,794.981689453125,792.1611938476562,782.4908447265625
173,786.5201416015625,793.7728881835938,794.981689453125,786.923095703125
174,787.7289428710938,794.1758422851562,791.3552856445312,786.1171875
175,785.3113403320312,793.3699340820312,790.1465454101562,786.923095703125
176,785.7142944335938,794.1758422851562,794.1758422851562,782.4908447265625
177,783.2966918945312,796.996337890625,791.3552856445312,780.4761962890625
178,784.5054931640625,797.8021850585938,789.3406372070312,786.5201416015625
179,785.3113403320312,795.7875366210938,787.7289428710938,786.1171875
180,784.908447265625,798.6080322265625,785.7142944335938,785.3113403320312
181,790.1465454101562,799.8168334960938,786.5201416015625,789.7435913085938
182,794.1758422851562,799.8168334960938,788.5347900390625,795.7875366210938
183,794.5787353515625,801.025634765625,796.1904907226562,801.4285888671875
184,793.3699340820312,801.4285888671875,795.3846435546875,796.996337890625
185,790.5494384765625,794.1758422851562,790.1465454101562,792.1611938476562
186,791.3552856445312,791.3552856445312,793.3699340820312,794.5787353515625
187,796.996337890625,799.4139404296875,793.3699340820312,790.1465454101562
188,796.996337890625,794.5787353515625,789.3406372070312,787.7289428710938
189,791.7582397460938,791.3552856445312,792.5640869140625,786.923095703125
190,792.5640869140625,796.996337890625,796.5933837890625,786.5201416015625
191,795.7875366210938,789.7435913085938,797.3992919921875,787.7289428710938
192,795.7875366210938,789.7435913085938,797.3992919921875,788.5347900390625
193,791.7582397460938,795.7875366210938,796.996337890625,786.1171875
194,788.5347900390625,790.1465454101562,796.996337890625,780.4761962890625
195,788.5347900390625,793.7728881835938,800.2197875976562,781.6849975585938
196,785.3113403320312,796.5933837890625,796.1904907226562,778.4615478515625
197,778.8644409179688,788.1318969726562,786.5201416015625,775.2380981445312
198,777.2527465820312,787.7289428710938,788.1318969726562,780.879150390625
199,777.6557006835938,796.5933837890625,795.3846435546875,777.6557006835938
200,776.4468994140625,790.1465454101562,790.1465454101562,775.6410522460938
201,780.879150390625,782.087890625,791.3552856445312,782.4908447265625
202,788.937744140625,791.7582397460938,797.3992919921875,786.5201416015625
203,788.5347900390625,794.981689453125,795.7875366210938,790.5494384765625
204,789.3406372070312,791.7582397460938,795.3846435546875,792.5640869140625
205,793.7728881835938,792.967041015625,798.2051391601562,790.5494384765625
206,792.5640869140625,788.1318969726562,797.3992919921875,786.1171875
207,795.3846435546875,783.6996459960938,792.967041015625,782.087890625
208,799.4139404296875,782.087890625,790.1465454101562,784.5054931640625
209,799.010986328125,780.4761962890625,790.5494384765625,792.1611938476562
210,794.981689453125,783.6996459960938,795.3846435546875,798.2051391601562
211,791.3552856445312,782.4908447265625,798.2051391601562,794.5787353515625
212,791.7582397460938,786.5201416015625,802.2344360351562,794.1758422851562
213,790.952392578125,790.5494384765625,799.4139404296875,802.2344360351562
214,784.1025390625,784.5054931640625,796.5933837890625,800.2197875976562
215,786.1171875,781.2820434570312,799.010986328125,798.6080322265625
216,793.3699340820312,788.1318969726562,801.8314819335938,801.4285888671875
217,790.1465454101562,792.967041015625,801.025634765625,798.2051391601562
218,794.1758422851562,794.1758422851562,796.996337890625,794.5787353515625
219,790.1465454101562,791.7582397460938,792.967041015625,793.3699340820312
220,787.3259887695312,787.3259887695312,794.981689453125,794.5787353515625
221,793.3699340820312,787.3259887695312,796.1904907226562,792.5640869140625
222,789.7435913085938,790.952392578125,795.3846435546875,790.952392578125
223,781.6849975585938,786.923095703125,799.010986328125,790.5494384765625
224,781.6849975585938,782.893798828125,796.5933837890625,791.7582397460938
225,786.923095703125,778.05859375,785.7142944335938,799.4139404296875
226,790.952392578125,778.4615478515625,788.5347900390625,797.8021850585938
227,786.5201416015625,790.1465454101562,796.996337890625,788.937744140625
228,785.7142944335938,791.7582397460938,795.3846435546875,787.3259887695312
229,786.5201416015625,790.1465454101562,795.3846435546875,790.1465454101562
230,778.8644409179688,796.1904907226562,799.010986328125,787.3259887695312
231,783.6996459960938,796.996337890625,799.8168334960938,787.3259887695312
232,788.1318969726562,791.3552856445312,797.8021850585938,790.5494384765625
233,786.5201416015625,789.7435913085938,798.2051391601562,790.1465454101562
234,786.1171875,790.1465454101562,798.6080322265625,792.5640869140625
235,789.3406372070312,790.952392578125,797.8021850585938,795.3846435546875
236,792.967041015625,789.3406372070312,796.996337890625,801.4285888671875
237,789.3406372070312,786.5201416015625,794.981689453125,803.4432373046875
238,795.7875366210938,786.1171875,797.3992919921875,799.010986328125
239,799.010986328125,783.2966918945312,795.7875366210938,798.6080322265625
240,786.923095703125,783.2966918945312,793.7728881835938,793.7728881835938
241,778.8644409179688,783.2966918945312,794.1758422851562,788.1318969726562
242,784.908447265625,790.952392578125,792.967041015625,789.3406372070312
243,792.1611938476562,793.3699340820312,794.981689453125,790.1465454101562
244,796.996337890625,791.7582397460938,799.4139404296875,789.7435913085938
245,794.981689453125,794.981689453125,800.6226806640625,791.3552856445312
246,790.1465454101562,794.981689453125,793.7728881835938,795.7875366210938
247,794.981689453125,793.3699340820312,790.952392578125,800.2197875976562
248,796.996337890625,794.1758422851562,791.3552856445312,804.2490844726562
249,795.3846435546875,800.2197875976562,795.3846435546875,798.6080322265625
250,796.996337890625,797.3992919921875,795.7875366210938,796.5933837890625
251,799.8168334960938,787.7289428710938,792.5640869140625,799.8168334960938
252,802.6373901367188,796.996337890625,795.3846435546875,797.8021850585938
253,801.8314819335938,805.4578857421875,800.2197875976562,796.996337890625
254,801.4285888671875,801.4285888671875,798.2051391601562,798.6080322265625
255,803.4432373046875,799.8168334960938,793.7728881835938,802.2344360351562
256,801.025634765625,801.025634765625,793.7728881835938,804.2490844726562
257,803.4432373046875,803.4432373046875,793.3699340820312,800.2197875976562
258,803.8461303710938,797.8021850585938,792.5640869140625,797.8021850585938
259,801.8314819335938,794.5787353515625,791.3552856445312,804.6520385742188
260,796.996337890625,794.981689453125,792.967041015625,803.4432373046875
261,792.1611938476562,790.5494384765625,795.3846435546875,799.4139404296875
262,793.7728881835938,792.5640869140625,794.1758422851562,801.8314819335938
263,797.3992919921875,796.996337890625,796.5933837890625,799.4139404296875
264,794.981689453125,794.1758422851562,796.5933837890625,794.981689453125
265,790.1465454101562,798.6080322265625,796.5933837890625,791.3552856445312
266,788.5347900390625,799.8168334960938,794.981689453125,787.7289428710938
267,786.1171875,794.5787353515625,791.3552856445312,790.952392578125
268,788.5347900390625,791.3552856445312,792.967041015625,796.5933837890625
269,791.7582397460938,793.3699340820312,791.7582397460938,797.3992919921875
270,790.952392578125,796.5933837890625,793.3699340820312,799.4139404296875
271,791.3552856445312,794.5787353515625,796.996337890625,800.2197875976562
272,788.5347900390625,789.7435913085938,792.1611938476562,798.6080322265625
273,790.952392578125,793.3699340820312,792.967041015625,799.8168334960938
274,802.2344360351562,799.8168334960938,796.996337890625,804.6520385742188
275,808.2783813476562,802.6373901367188,798.6080322265625,805.4578857421875
276,802.6373901367188,804.2490844726562,802.2344360351562,802.6373901367188
277,798.6080322265625,798.2051391601562,798.6080322265625,796.5933837890625
278,803.8461303710938,792.5640869140625,790.952392578125,796.1904907226562
279,803.4432373046875,796.5933837890625,791.7582397460938,804.2490844726562
280,797.8021850585938,803.4432373046875,794.5787353515625,796.996337890625
281,796.996337890625,797.3992919921875,791.7582397460938,786.5201416015625
282,799.8168334960938,794.5787353515625,790.1465454101562,793.7728881835938
283,793.3699340820312,798.2051391601562,789.3406372070312,796.5933837890625
284,785.3113403320312,796.996337890625,790.5494384765625,786.923095703125
285,786.5201416015625,794.5787353515625,789.7435913085938,782.4908447265625
286,787.7289428710938,790.952392578125,784.5054931640625,790.952392578125
287,786.5201416015625,794.1758422851562,785.3113403320312,790.952392578125
288,786.923095703125,793.3699340820312,788.937744140625,787.7289428710938
289,788.5347900390625,787.3259887695312,790.952392578125,790.952392578125
290,787.7289428710938,793.3699340820312,794.1758422851562,793.7728881835938
291,785.7142944335938,790.1465454101562,795.3846435546875,798.2051391601562
292,786.923095703125,788.5347900390625,796.5933837890625,797.3992919921875
293,783.6996459960938,793.7728881835938,792.1611938476562,792.5640869140625
294,780.879150390625,792.1611938476562,795.3846435546875,795.7875366210938
295,779.6703491210938,791.3552856445312,796.1904907226562,791.7582397460938
296,772.8204956054688,794.5787353515625,797.8021850585938,789.3406372070312
297,771.6116943359375,793.3699340820312,799.8168334960938,797.8021850585938
298,778.05859375,792.1611938476562,799.8168334960938,797.8021850585938
299,784.1025390625,794.981689453125,800.6226806640625,792.1611938476562
300,788.937744140625,799.010986328125,799.010986328125,796.1904907226562
301,789.3406372070312,799.4139404296875,799.010986328125,797.8021850585938
302,786.923095703125,790.952392578125,797.3992919921875,788.1318969726562
303,788.1318969726562,788.1318969726562,789.7435913085938,784.5054931640625
304,786.1171875,787.3259887695312,788.937744140625,785.7142944335938
305,786.1171875,791.7582397460938,795.7875366210938,786.5201416015625
306,788.937744140625,796.1904907226562,796.996337890625,790.1465454101562
307,784.908447265625,797.8021850585938,792.5640869140625,788.5347900390625
308,781.6849975585938,795.7875366210938,790.1465454101562,784.5054931640625
309,786.923095703125,793.3699340820312,791.7582397460938,791.7582397460938
310,789.7435913085938,792.5640869140625,798.2051391601562,795.7875366210938
311,790.5494384765625,789.3406372070312,796.996337890625,795.3846435546875
312,791.7582397460938,790.5494384765625,790.952392578125,800.2197875976562
313,792.1611938476562,793.7728881835938,796.1904907226562,801.8314819335938
314,788.5347900390625,791.3552856445312,797.3992919921875,799.010986328125
315,788.5347900390625,797.3992919921875,794.5787353515625,798.6080322265625
316,784.5054931640625,790.952392578125,794.1758422851562,799.4139404296875
317,783.6996459960938,780.0732421875,794.1758422851562,797.3992919921875
318,781.6849975585938,785.7142944335938,788.5347900390625,789.7435913085938
319,776.8497924804688,792.1611938476562,782.4908447265625,780.4761962890625
320,780.879150390625,791.3552856445312,784.1025390625,784.1025390625
321,783.2966918945312,788.1318969726562,786.5201416015625,794.1758422851562
322,782.4908447265625,788.5347900390625,790.952392578125,787.7289428710938
323,785.3113403320312,789.3406372070312,794.5787353515625,783.2966918945312
324,793.3699340820312,791.3552856445312,793.3699340820312,790.5494384765625
325,799.8168334960938,794.981689453125,790.952392578125,793.3699340820312
326,803.040283203125,798.6080322265625,791.3552856445312,792.5640869140625
327,801.025634765625,796.5933837890625,794.5787353515625,792.5640869140625
328,802.6373901367188,786.923095703125,793.7728881835938,792.5640869140625
329,812.7106323242188,790.5494384765625,795.3846435546875,802.2344360351562
330,817.1428833007812,803.8461303710938,796.996337890625,804.6520385742188
331,806.2637329101562,801.025634765625,794.981689453125,791.3552856445312
332,790.1465454101562,794.981689453125,796.5933837890625,790.1465454101562
333,790.1465454101562,794.5787353515625,798.2051391601562,791.7582397460938
334,793.7728881835938,794.981689453125,796.5933837890625,792.1611938476562
335,793.3699340820312,797.3992919921875,794.981689453125,794.5787353515625
336,787.3259887695312,798.2051391601562,794.981689453125,790.5494384765625
337,785.7142944335938,795.7875366210938,798.6080322265625,786.1171875
338,787.3259887695312,791.7582397460938,797.8021850585938,786.1171875
339,784.908447265625,793.7728881835938,794.1758422851562,784.5054931640625
340,786.5201416015625,797.8021850585938,795.3846435546875,788.5347900390625
341,790.1465454101562,792.967041015625,794.5787353515625,790.952392578125
342,787.3259887695312,788.1318969726562,792.1611938476562,788.937744140625
343,781.6849975585938,788.1318969726562,790.1465454101562,789.7435913085938
344,783.2966918945312,795.3846435546875,786.1171875,791.3552856445312
345,786.1171875,796.996337890625,788.937744140625,788.1318969726562
346,779.2673950195312,788.5347900390625,790.5494384765625,785.7142944335938
347,774.8351440429688,791.3552856445312,782.893798828125,787.3259887695312
348,778.05859375,794.981689453125,782.4908447265625,784.5054931640625
349,784.5054931640625,792.1611938476562,789.7435913085938,784.1025390625
350,789.3406372070312,788.1318969726562,790.952392578125,786.923095703125
351,794.5787353515625,787.3259887695312,792.1611938476562,790.1465454101562
352,798.6080322265625,790.1465454101562,790.952392578125,790.5494384765625
353,797.8021850585938,791.3552856445312,786.923095703125,789.7435913085938
354,798.6080322265625,791.3552856445312,788.5347900390625,794.1758422851562
355,796.1904907226562,786.923095703125,792.1611938476562,801.025634765625
356,794.5787353515625,788.937744140625,793.3699340820312,796.5933837890625
357,796.1904907226562,796.5933837890625,797.3992919921875,794.5787353515625
358,791.7582397460938,798.6080322265625,795.7875366210938,791.7582397460938
359,786.1171875,799.010986328125,788.1318969726562,786.1171875
360,786.5201416015625,799.8168334960938,791.3552856445312,794.1758422851562
361,791.3552856445312,799.4139404296875,799.4139404296875,798.2051391601562
362,792.967041015625,796.5933837890625,797.3992919921875,792.5640869140625
363,792.5640869140625,796.5933837890625,795.3846435546875,793.3699340820312
364,797.3992919921875,795.3846435546875,793.3699340820312,795.7875366210938
365,796.996337890625,788.937744140625,790.952392578125,796.996337890625
366,794.981689453125,788.5347900390625,794.981689453125,801.4285888671875
367,796.996337890625,786.5201416015625,798.6080322265625,805.4578857421875
368,795.7875366210938,788.5347900390625,803.040283203125,800.2197875976562
369,794.5787353515625,799.4139404296875,804.2490844726562,794.5787353515625
370,796.1904907226562,799.8168334960938,801.4285888671875,793.7728881835938
371,800.2197875976562,794.1758422851562,803.040283203125,798.6080322265625
372,800.6226806640625,790.952392578125,803.8461303710938,801.4285888671875
373,795.7875366210938,792.1611938476562,800.2197875976562,801.4285888671875
374,795.3846435546875,793.7728881835938,797.3992919921875,803.4432373046875
375,801.025634765625,794.5787353515625,798.6080322265625,800.2197875976562
376,798.6080322265625,788.5347900390625,793.3699340820312,793.3699340820312
377,796.996337890625,788.1318969726562,785.7142944335938,790.952392578125
378,799.010986328125,797.3992919921875,787.3259887695312,792.967041015625
379,795.7875366210938,796.1904907226562,792.967041015625,792.5640869140625
380,796.1904907226562,788.5347900390625,795.7875366210938,790.5494384765625
381,795.7875366210938,792.5640869140625,795.7875366210938,796.996337890625
382,791.3552856445312,789.7435913085938,790.5494384765625,798.6080322265625
383,790.952392578125,786.5201416015625,792.967041015625,791.3552856445312
384,786.5201416015625,789.7435913085938,804.2490844726562,787.3259887695312
385,784.5054931640625,793.7728881835938,801.4285888671875,785.7142944335938
386,790.1465454101562,798.2051391601562,793.7728881835938,789.3406372070312
387,789.3406372070312,800.2197875976562,798.2051391601562,788.5347900390625
388,786.5201416015625,800.6226806640625,802.6373901367188,788.1318969726562
389,790.1465454101562,798.2051391601562,803.8461303710938,796.996337890625
390,786.5201416015625,793.3699340820312,798.6080322265625,794.1758422851562
391,786.1171875,790.5494384765625,793.7728881835938,790.1465454101562
392,789.7435913085938,789.3406372070312,791.3552856445312,791.3552856445312
393,790.1465454101562,785.7142944335938,791.3552856445312,795.7875366210938
394,785.3113403320312,785.7142944335938,791.3552856445312,794.981689453125
395,785.7142944335938,790.1465454101562,795.3846435546875,794.1758422851562
396,792.5640869140625,792.1611938476562,794.981689453125,795.7875366210938
397,790.1465454101562,792.5640869140625,784.5054931640625,791.3552856445312
398,786.923095703125,794.1758422851562,781.6849975585938,786.1171875
399,781.2820434570312,789.3406372070312,789.7435913085938,785.3113403320312
400,777.6557006835938,787.3259887695312,795.7875366210938,786.923095703125
401,783.6996459960938,794.5787353515625,792.5640869140625,785.3113403320312
402,785.7142944335938,795.7875366210938,795.7875366210938,788.937744140625
403,787.7289428710938,788.1318969726562,800.2197875976562,790.5494384765625
404,794.981689453125,786.5201416015625,792.5640869140625,788.937744140625
405,790.5494384765625,792.967041015625,786.5201416015625,796.1904907226562
406,784.5054931640625,797.8021850585938,793.3699340820312,796.1904907226562
407,788.937744140625,798.6080322265625,798.2051391601562,792.967041015625
408,791.3552856445312,794.1758422851562,791.3552856445312,796.5933837890625
409,788.937744140625,792.5640869140625,792.5640869140625,796.5933837890625
410,785.3113403320312,794.5787353515625,799.010986328125,792.5640869140625
411,783.6996459960938,792.1611938476562,797.3992919921875,789.3406372070312
412,787.3259887695312,792.5640869140625,793.3699340820312,790.952392578125
413,787.3259887695312,792.1611938476562,790.952392578125,794.1758422851562
414,785.7142944335938,788.1318969726562,796.1904907226562,792.1611938476562
415,785.7142944335938,788.5347900390625,798.6080322265625,787.3259887695312
416,782.4908447265625,788.937744140625,792.5640869140625,787.3259887695312
417,780.4761962890625,789.7435913085938,795.3846435546875,792.967041015625
418,785.3113403320312,794.981689453125,804.6520385742188,788.937744140625
419,791.7582397460938,796.996337890625,803.8461303710938,784.908447265625
420,790.5494384765625,791.7582397460938,795.3846435546875,784.1025390625
421,786.923095703125,789.7435913085938,796.5933837890625,785.7142944335938
422,786.5201416015625,786.5201416015625,799.8168334960938,791.7582397460938
423,786.5201416015625,788.5347900390625,799.010986328125,796.996337890625
424,783.2966918945312,788.1318969726562,798.6080322265625,793.7728881835938
425,784.908447265625,779.2673950195312,799.010986328125,799.8168334960938
426,785.7142944335938,782.087890625,800.2197875976562,803.040283203125
427,784.1025390625,791.3552856445312,791.3552856445312,798.2051391601562
428,789.7435913085938,786.5201416015625,791.3552856445312,801.4285888671875
429,788.5347900390625,787.7289428710938,796.5933837890625,796.996337890625
430,786.923095703125,793.7728881835938,794.981689453125,792.1611938476562
431,787.7289428710938,794.1758422851562,796.996337890625,790.5494384765625
432,789.3406372070312,797.3992919921875,801.4285888671875,790.1465454101562
433,789.7435913085938,796.5933837890625,799.4139404296875,797.3992919921875
434,786.923095703125,794.5787353515625,796.996337890625,799.010986328125
435,784.1025390625,790.5494384765625,796.996337890625,793.3699340820312
436,789.3406372070312,786.5201416015625,798.6080322265625,794.981689453125
437,792.1611938476562,791.7582397460938,796.1904907226562,798.2051391601562
438,785.3113403320312,792.1611938476562,793.3699340820312,792.967041015625
439,784.1025390625,793.3699340820312,790.952392578125,786.1171875
440,787.7289428710938,790.952392578125,786.923095703125,782.893798828125
441,790.5494384765625,788.1318969726562,790.1465454101562,784.5054931640625
442,793.3699340820312,790.5494384765625,790.1465454101562,789.3406372070312
443,790.1465454101562,791.3552856445312,785.7142944335938,790.1465454101562
444,785.3113403320312,792.5640869140625,787.3259887695312,786.1171875
445,787.7289428710938,792.967041015625,790.5494384765625,792.5640869140625
446,790.952392578125,797.3992919921875,791.7582397460938,797.8021850585938
447,788.5347900390625,795.7875366210938,792.967041015625,793.3699340820312
448,790.5494384765625,793.3699340820312,791.3552856445312,796.5933837890625
449,790.1465454101562,791.3552856445312,794.981689453125,796.1904907226562
450,784.1025390625,790.1465454101562,796.996337890625,792.967041015625
451,780.4761962890625,786.1171875,789.3406372070312,790.952392578125
452,780.0732421875,784.5054931640625,790.1465454101562,790.1465454101562
453,782.087890625,784.1025390625,793.3699340820312,787.7289428710938
454,783.6996459960938,780.879150390625,790.5494384765625,788.937744140625
455,782.087890625,789.3406372070312,788.937744140625,786.1171875
456,783.2966918945312,792.1611938476562,792.967041015625,782.4908447265625
457,784.908447265625,792.967041015625,793.3699340820312,787.7289428710938
458,787.3259887695312,795.3846435546875,786.5201416015625,785.3113403320312
459,790.1465454101562,794.5787353515625,789.3406372070312,785.3113403320312
460,790.1465454101562,793.7728881835938,792.5640869140625,794.981689453125
461,794.981689453125,789.7435913085938,790.952392578125,797.8021850585938
462,794.5787353515625,788.937744140625,789.3406372070312,793.3699340820312
463,791.3552856445312,791.7582397460938,791.7582397460938,789.3406372070312
464,794.1758422851562,787.7289428710938,795.7875366210938,789.3406372070312
465,796.996337890625,788.937744140625,796.996337890625,788.937744140625
466,791.3552856445312,795.7875366210938,797.8021850585938,788.5347900390625
467,789.7435913085938,796.996337890625,796.996337890625,792.967041015625
468,788.1318969726562,796.996337890625,792.967041015625,793.7728881835938
469,790.5494384765625,799.4139404296875,793.3699340820312,798.2051391601562
470,798.6080322265625,797.8021850585938,794.981689453125,805.8607788085938
471,796.996337890625,794.1758422851562,798.6080322265625,810.6959838867188
472,793.3699340820312,794.1758422851562,800.2197875976562,806.6666870117188
473,793.3699340820312,794.5787353515625,791.7582397460938,803.4432373046875
474,795.3846435546875,793.7728881835938,789.7435913085938,809.89013671875
475,792.1611938476562,793.3699340820312,791.7582397460938,809.084228515625
476,788.937744140625,785.3113403320312,790.952392578125,795.7875366210938
477,793.3699340820312,783.6996459960938,788.1318969726562,787.7289428710938
478,791.7582397460938,785.7142944335938,785.3113403320312,788.5347900390625
479,793.7728881835938,784.5054931640625,787.3259887695312,795.7875366210938
480,798.2051391601562,789.3406372070312,792.5640869140625,804.2490844726562
481,794.981689453125,792.5640869140625,793.3699340820312,807.069580078125
482,792.5640869140625,795.7875366210938,795.3846435546875,807.069580078125
483,794.5787353515625,800.6226806640625,803.040283203125,801.025634765625
484,798.6080322265625,799.4139404296875,804.2490844726562,803.8461303710938
485,800.2197875976562,797.3992919921875,799.010986328125,807.87548828125
486,795.7875366210938,794.5787353515625,796.5933837890625,806.6666870117188
487,792.1611938476562,792.5640869140625,797.3992919921875,799.8168334960938
488,789.3406372070312,792.5640869140625,795.7875366210938,797.3992919921875
489,794.981689453125,790.5494384765625,792.967041015625,802.6373901367188
490,793.3699340820312,787.3259887695312,795.7875366210938,801.4285888671875
491,783.6996459960938,786.5201416015625,798.6080322265625,799.4139404296875
492,785.7142944335938,785.3113403320312,796.996337890625,802.2344360351562
493,790.1465454101562,785.7142944335938,794.981689453125,803.040283203125
494,788.937744140625,795.3846435546875,794.5787353515625,796.1904907226562
495,789.7435913085938,797.8021850585938,794.981689453125,792.5640869140625
496,789.7435913085938,795.3846435546875,794.5787353515625,787.7289428710938
497,788.5347900390625,794.1758422851562,792.1611938476562,790.5494384765625
498,784.5054931640625,790.952392578125,794.5787353515625,790.5494384765625
499,780.879150390625,786.923095703125,795.7875366210938,784.5054931640625
500,786.923095703125,784.1025390625,796.5933837890625,792.1611938476562
501,788.937744140625,786.5201416015625,796.1904907226562,798.6080322265625
502,781.6849975585938,790.952392578125,792.967041015625,790.952392578125
503,787.7289428710938,791.7582397460938,794.1758422851562,789.3406372070312
504,794.1758422851562,791.7582397460938,795.7875366210938,794.1758422851562
505,784.908447265625,794.981689453125,795.3846435546875,784.908447265625
506,787.3259887695312,790.5494384765625,792.967041015625,784.908447265625
507,795.3846435546875,792.5640869140625,793.3699340820312,795.3846435546875
508,788.5347900390625,802.2344360351562,798.6080322265625,794.5787353515625
509,785.3113403320312,802.6373901367188,796.996337890625,792.5640869140625
510,789.7435913085938,798.2051391601562,795.7875366210938,792.967041015625
511,788.1318969726562,795.7875366210938,798.2051391601562,789.7435913085938
512,790.952392578125,788.937744140625,794.981689453125,787.3259887695312
513,795.7875366210938,790.952392578125,794.5787353515625,784.908447265625
514,796.996337890625,799.010986328125,801.025634765625,779.6703491210938
515,799.4139404296875,795.7875366210938,797.8021850585938,780.0732421875
516,794.981689453125,789.7435913085938,791.3552856445312,784.1025390625
517,785.3113403320312,791.3552856445312,796.5933837890625,789.3406372070312
518,782.4908447265625,794.1758422851562,799.4139404296875,790.952392578125
519,786.5201416015625,793.3699340820312,797.8021850585938,791.3552856445312
520,785.7142944335938,790.952392578125,791.7582397460938,782.4908447265625
521,784.908447265625,791.7582397460938,792.1611938476562,778.4615478515625
522,787.3259887695312,791.7582397460938,796.5933837890625,781.2820434570312
523,788.5347900390625,790.1465454101562,796.996337890625,781.2820434570312
524,791.7582397460938,787.3259887695312,794.1758422851562,788.937744140625
525,788.937744140625,790.5494384765625,790.952392578125,788.5347900390625
526,784.5054931640625,793.3699340820312,792.5640869140625,783.2966918945312
527,793.3699340820312,790.952392578125,796.5933837890625,792.1611938476562
528,787.3259887695312,793.7728881835938,799.4139404296875,789.3406372070312
529,778.8644409179688,790.1465454101562,797.8021850585938,779.6703491210938
530,782.087890625,778.4615478515625,792.5640869140625,778.05859375
531,781.2820434570312,784.1025390625,793.7728881835938,787.3259887695312
532,778.8644409179688,791.7582397460938,795.7875366210938,793.7728881835938
533,782.893798828125,788.1318969726562,793.3699340820312,793.7728881835938
534,786.1171875,785.7142944335938,791.7582397460938,791.7582397460938
535,786.1171875,787.3259887695312,788.5347900390625,786.923095703125
536,784.1025390625,790.952392578125,792.5640869140625,796.1904907226562
537,776.8497924804688,789.7435913085938,794.981689453125,793.7728881835938
538,774.4322509765625,786.923095703125,788.1318969726562,783.6996459960938
539,773.2234497070312,781.6849975585938,784.1025390625,782.087890625
540,776.4468994140625,784.1025390625,787.7289428710938,779.2673950195312
541,778.8644409179688,785.3113403320312,790.5494384765625,774.8351440429688
542,777.2527465820312,783.6996459960938,789.7435913085938,782.893798828125
543,778.8644409179688,784.5054931640625,792.5640869140625,786.5201416015625
544,787.3259887695312,781.6849975585938,794.981689453125,789.3406372070312
545,792.967041015625,785.7142944335938,793.7728881835938,795.7875366210938
546,789.3406372070312,788.937744140625,791.7582397460938,794.981689453125
547,790.1465454101562,787.7289428710938,789.3406372070312,799.4139404296875
548,789.3406372070312,788.937744140625,794.5787353515625,799.010986328125
549,784.5054931640625,787.7289428710938,796.5933837890625,792.5640869140625
550,789.7435913085938,781.6849975585938,792.5640869140625,799.010986328125
551,794.1758422851562,782.893798828125,795.3846435546875,802.6373901367188
552,786.1171875,786.1171875,793.3699340820312,793.3699340820312
553,786.5201416015625,783.2966918945312,787.3259887695312,795.3846435546875
554,787.7289428710938,786.923095703125,790.5494384765625,799.4139404296875
555,784.1025390625,790.1465454101562,797.8021850585938,796.5933837890625
556,787.7289428710938,788.5347900390625,795.3846435546875,790.5494384765625
557,789.7435913085938,787.3259887695312,789.7435913085938,783.6996459960938
558,786.5201416015625,786.5201416015625,789.7435913085938,784.5054931640625
559,788.937744140625,790.1465454101562,792.1611938476562,793.7728881835938
560,794.1758422851562,791.7582397460938,794.1758422851562,793.3699340820312
561,796.996337890625,788.1318969726562,790.1465454101562,787.3259887695312
562,791.3552856445312,787.3259887695312,787.3259887695312,786.5201416015625
563,783.2966918945312,792.967041015625,790.5494384765625,785.3113403320312
564,785.7142944335938,789.3406372070312,790.952392578125,780.0732421875
565,786.5201416015625,785.7142944335938,784.5054931640625,783.2966918945312
566,789.7435913085938,789.7435913085938,787.3259887695312,797.8021850585938
567,786.923095703125,791.3552856445312,791.3552856445312,793.3699340820312
568,777.6557006835938,788.937744140625,789.7435913085938,778.05859375
569,780.0732421875,786.1171875,791.7582397460938,779.2673950195312
570,780.4761962890625,779.2673950195312,792.1611938476562,785.7142944335938
571,780.0732421875,781.6849975585938,794.1758422851562,784.5054931640625
572,786.1171875,788.937744140625,792.967041015625,778.8644409179688
573,788.5347900390625,790.1465454101562,792.1611938476562,787.7289428710938
574,785.3113403320312,786.923095703125,795.7875366210938,792.1611938476562
575,784.5054931640625,791.7582397460938,796.996337890625,788.937744140625
576,790.952392578125,790.1465454101562,796.996337890625,794.5787353515625
577,794.1758422851562,781.2820434570312,793.3699340820312,791.3552856445312
578,792.967041015625,790.1465454101562,787.3259887695312,790.5494384765625
579,792.5640869140625,796.1904907226562,789.3406372070312,794.981689453125
580,788.1318969726562,796.1904907226562,794.1758422851562,792.5640869140625
581,790.952392578125,796.996337890625,792.967041015625,796.1904907226562
582,796.5933837890625,789.3406372070312,790.1465454101562,805.4578857421875
583,788.937744140625,789.3406372070312,794.5787353515625,796.996337890625
584,788.937744140625,800.2197875976562,799.010986328125,794.981689453125
585,793.7728881835938,803.4432373046875,800.2197875976562,805.8607788085938
586,794.981689453125,799.8168334960938,799.4139404296875,808.6813354492188
587,798.2051391601562,796.996337890625,798.6080322265625,800.2197875976562
588,796.996337890625,795.3846435546875,796.1904907226562,789.7435913085938
589,798.2051391601562,796.5933837890625,795.3846435546875,789.7435913085938
590,796.5933837890625,791.3552856445312,792.1611938476562,786.1171875
591,793.3699340820312,787.3259887695312,792.1611938476562,784.1025390625
592,796.1904907226562,788.5347900390625,790.1465454101562,783.2966918945312
593,791.3552856445312,784.5054931640625,783.6996459960938,782.893798828125
594,785.7142944335938,784.908447265625,788.1318969726562,783.2966918945312
595,787.3259887695312,788.5347900390625,796.5933837890625,786.1171875
596,788.5347900390625,789.7435913085938,800.2197875976562,792.967041015625
597,791.7582397460938,786.923095703125,794.981689453125,805.8607788085938
598,788.937744140625,793.7728881835938,794.5787353515625,802.6373901367188
599,786.1171875,796.996337890625,799.010986328125,796.1904907226562
600,789.3406372070312,790.5494384765625,798.2051391601562,801.025634765625
601,788.1318969726562,787.3259887695312,796.1904907226562,796.1904907226562
602,791.7582397460938,789.7435913085938,794.981689453125,795.3846435546875
603,793.3699340820312,787.3259887695312,795.3846435546875,796.1904907226562
604,792.1611938476562,790.5494384765625,796.1904907226562,794.981689453125
605,792.5640869140625,798.2051391601562,795.7875366210938,794.981689453125
606,794.5787353515625,795.7875366210938,792.967041015625,799.8168334960938
607,792.967041015625,793.3699340820312,793.7728881835938,804.2490844726562
608,792.967041015625,792.967041015625,793.7728881835938,803.4432373046875
609,796.5933837890625,788.5347900390625,789.3406372070312,803.040283203125
610,794.1758422851562,788.937744140625,792.1611938476562,792.967041015625
611,789.3406372070312,788.5347900390625,791.7582397460938,790.1465454101562
612,790.952392578125,783.6996459960938,790.5494384765625,794.981689453125
613,796.1904907226562,784.5054931640625,794.1758422851562,796.1904907226562
614,790.5494384765625,786.923095703125,794.1758422851562,796.996337890625
615,788.5347900390625,791.3552856445312,796.1904907226562,793.3699340820312
616,790.5494384765625,791.7582397460938,796.996337890625,792.5640869140625
617,790.1465454101562,785.3113403320312,793.7728881835938,790.952392578125
618,788.5347900390625,790.952392578125,795.3846435546875,788.937744140625
619,786.5201416015625,797.3992919921875,795.7875366210938,791.3552856445312
620,789.3406372070312,794.5787353515625,789.7435913085938,788.5347900390625
621,793.7728881835938,790.1465454101562,791.7582397460938,790.952392578125
622,793.3699340820312,786.5201416015625,795.7875366210938,795.3846435546875
623,792.967041015625,788.1318969726562,792.1611938476562,796.996337890625
624,794.981689453125,796.996337890625,786.923095703125,798.2051391601562
625,794.981689453125,800.6226806640625,792.5640869140625,793.3699340820312
626,791.7582397460938,794.981689453125,794.5787353515625,788.5347900390625
627,793.3699340820312,794.1758422851562,787.3259887695312,790.952392578125
628,793.7728881835938,792.967041015625,789.7435913085938,797.3992919921875
629,787.3259887695312,787.3259887695312,794.981689453125,793.7728881835938
630,789.3406372070312,793.3699340820312,790.952392578125,788.1318969726562
631,792.5640869140625,797.3992919921875,789.3406372070312,790.1465454101562
632,796.5933837890625,790.5494384765625,792.967041015625,800.2197875976562
633,802.2344360351562,794.5787353515625,794.1758422851562,798.2051391601562
634,799.4139404296875,804.6520385742188,792.1611938476562,790.5494384765625
635,796.5933837890625,805.4578857421875,794.5787353515625,793.3699340820312
636,799.010986328125,799.8168334960938,798.2051391601562,794.5787353515625
637,802.6373901367188,791.7582397460938,797.3992919921875,795.3846435546875
638,797.8021850585938,792.5640869140625,798.2051391601562,792.1611938476562
639,796.1904907226562,796.996337890625,794.1758422851562,794.5787353515625
640,800.2197875976562,795.3846435546875,792.1611938476562,795.7875366210938
641,799.8168334960938,787.3259887695312,797.3992919921875,789.3406372070312
642,795.7875366210938,792.1611938476562,797.8021850585938,790.1465454101562
643,799.010986328125,799.4139404296875,795.7875366210938,806.2637329101562
644,800.6226806640625,796.996337890625,793.7728881835938,810.6959838867188
645,786.5201416015625,794.5787353515625,788.937744140625,796.5933837890625
646,785.3113403320312,799.010986328125,792.1611938476562,792.5640869140625
647,795.7875366210938,800.6226806640625,793.7728881835938,794.5787353515625
648,795.3846435546875,797.3992919921875,796.996337890625,798.6080322265625
649,795.7875366210938,793.7728881835938,801.025634765625,799.010986328125
650,801.8314819335938,793.3699340820312,795.7875366210938,793.3699340820312
651,794.1758422851562,792.967041015625,793.7728881835938,792.5640869140625
652,780.879150390625,790.952392578125,793.7728881835938,787.7289428710938
653,786.1171875,795.3846435546875,790.1465454101562,789.7435913085938
654,794.5787353515625,796.1904907226562,791.7582397460938,796.996337890625
655,794.1758422851562,791.7582397460938,792.967041015625,799.010986328125
656,789.3406372070312,794.1758422851562,788.5347900390625,794.1758422851562
657,786.5201416015625,794.981689453125,787.7289428710938,787.7289428710938
658,790.952392578125,796.1904907226562,788.5347900390625,792.967041015625
659,793.3699340820312,797.8021850585938,789.3406372070312,796.996337890625
660,787.7289428710938,789.3406372070312,791.3552856445312,793.7728881835938
661,785.3113403320312,784.908447265625,791.7582397460938,795.7875366210938
662,787.7289428710938,790.1465454101562,798.6080322265625,805.4578857421875
663,785.7142944335938,786.923095703125,800.2197875976562,802.2344360351562
664,784.908447265625,788.5347900390625,788.937744140625,790.1465454101562
665,786.1171875,793.3699340820312,787.7289428710938,788.1318969726562
666,789.7435913085938,784.5054931640625,794.1758422851562,806.2637329101562
667,790.1465454101562,784.908447265625,792.1611938476562,808.2783813476562
668,792.5640869140625,799.010986328125,792.5640869140625,793.3699340820312
669,788.5347900390625,798.6080322265625,793.7728881835938,793.3699340820312
670,783.6996459960938,792.5640869140625,790.1465454101562,792.5640869140625
671,783.2966918945312,791.7582397460938,792.5640869140625,786.1171875
672,785.3113403320312,798.6080322265625,794.5787353515625,780.4761962890625
673,785.3113403320312,796.996337890625,794.1758422851562,782.4908447265625
674,790.1465454101562,790.952392578125,791.3552856445312,788.937744140625
675,796.1904907226562,795.7875366210938,786.5201416015625,792.5640869140625
676,794.1758422851562,799.010986328125,788.5347900390625,790.952392578125
677,793.7728881835938,795.7875366210938,791.7582397460938,793.3699340820312
678,788.937744140625,792.5640869140625,792.5640869140625,799.4139404296875
679,787.7289428710938,790.952392578125,794.1758422851562,796.996337890625
680,790.952392578125,795.3846435546875,794.1758422851562,793.3699340820312
681,785.3113403320312,796.5933837890625,791.3552856445312,792.5640869140625
682,782.087890625,792.967041015625,790.952392578125,793.7728881835938
683,786.923095703125,795.3846435546875,795.7875366210938,789.3406372070312
684,789.3406372070312,798.6080322265625,797.8021850585938,789.3406372070312
685,786.5201416015625,795.3846435546875,792.967041015625,790.5494384765625
686,784.1025390625,787.7289428710938,788.937744140625,785.7142944335938
687,785.7142944335938,785.7142944335938,790.952392578125,786.5201416015625
688,789.3406372070312,788.937744140625,790.952392578125,788.5347900390625
689,791.3552856445312,791.3552856445312,788.937744140625,792.1611938476562
690,787.3259887695312,791.3552856445312,792.5640869140625,792.967041015625
691,779.2673950195312,788.937744140625,797.3992919921875,793.7728881835938
692,780.0732421875,784.908447265625,797.3992919921875,796.996337890625
693,786.5201416015625,788.937744140625,792.5640869140625,803.8461303710938
694,791.3552856445312,799.8168334960938,790.5494384765625,800.6226806640625
695,792.5640869140625,800.2197875976562,794.1758422851562,792.1611938476562
696,789.3406372070312,794.1758422851562,796.1904907226562,790.952392578125
697,786.923095703125,793.3699340820312,799.010986328125,791.3552856445312
698,790.952392578125,794.1758422851562,795.3846435546875,786.5201416015625
699,793.7728881835938,795.3846435546875,791.7582397460938,789.3406372070312
700,796.996337890625,794.1758422851562,798.2051391601562,799.8168334960938
701,796.996337890625,789.3406372070312,799.4139404296875,800.2197875976562
702,787.7289428710938,786.5201416015625,795.7875366210938,792.967041015625
703,788.1318969726562,788.5347900390625,795.3846435546875,790.1465454101562
704,790.5494384765625,791.3552856445312,792.5640869140625,794.1758422851562
705,787.7289428710938,784.5054931640625,790.952392578125,791.7582397460938
706,786.923095703125,783.6996459960938,791.7582397460938,783.6996459960938
707,782.087890625,789.3406372070312,791.7582397460938,780.4761962890625
708,785.3113403320312,792.1611938476562,793.3699340820312,785.7142944335938
709,790.1465454101562,789.7435913085938,795.3846435546875,782.087890625
710,790.5494384765625,792.1611938476562,799.010986328125,776.8497924804688
711,789.7435913085938,793.7728881835938,796.996337890625,786.5201416015625
712,788.937744140625,791.3552856445312,798.2051391601562,790.5494384765625
713,789.7435913085938,790.1465454101562,801.8314819335938,788.5347900390625
714,791.3552856445312,791.3552856445312,800.6226806640625,786.923095703125
715,792.1611938476562,792.1611938476562,796.1904907226562,784.1025390625
716,791.3552856445312,794.1758422851562,794.1758422851562,793.7728881835938
717,784.908447265625,793.3699340820312,799.010986328125,799.010986328125
718,786.5201416015625,786.1171875,800.2197875976562,792.967041015625
719,793.7728881835938,790.5494384765625,794.5787353515625,795.7875366210938
720,791.3552856445312,797.8021850585938,794.981689453125,796.5933837890625
721,786.923095703125,794.981689453125,793.7728881835938,789.3406372070312
722,786.923095703125,794.5787353515625,794.5787353515625,793.3699340820312
723,787.7289428710938,793.7728881835938,796.5933837890625,793.7728881835938
724,784.908447265625,791.7582397460938,795.3846435546875,784.1025390625
725,784.5054931640625,792.967041015625,795.3846435546875,789.7435913085938
726,790.1465454101562,787.7289428710938,795.3846435546875,790.952392578125
727,789.7435913085938,792.1611938476562,796.1904907226562,787.7289428710938
728,784.908447265625,796.1904907226562,798.2051391601562,790.5494384765625
729,788.5347900390625,793.7728881835938,798.2051391601562,790.952392578125
730,790.1465454101562,796.5933837890625,799.010986328125,792.5640869140625
731,786.5201416015625,793.3699340820312,796.5933837890625,792.967041015625
732,788.5347900390625,793.7728881835938,794.5787353515625,795.3846435546875
733,785.7142944335938,798.2051391601562,795.7875366210938,791.3552856445312
734,791.7582397460938,794.981689453125,792.5640869140625,792.1611938476562
735,795.3846435546875,787.3259887695312,792.967041015625,794.5787353515625
736,786.5201416015625,784.5054931640625,793.7728881835938,792.1611938476562
737,790.1465454101562,788.937744140625,792.1611938476562,798.2051391601562
738,798.2051391601562,790.1465454101562,797.8021850585938,799.8168334960938
739,800.2197875976562,784.5054931640625,796.5933837890625,802.2344360351562
740,796.1904907226562,790.5494384765625,795.3846435546875,798.2051391601562
741,796.1904907226562,794.981689453125,799.4139404296875,786.1171875
742,796.5933837890625,792.967041015625,791.7582397460938,784.5054931640625
743,801.025634765625,794.1758422851562,788.1318969726562,781.6849975585938
744,803.4432373046875,792.5640869140625,796.1904907226562,784.1025390625
745,800.2197875976562,794.5787353515625,801.025634765625,790.5494384765625
746,800.6226806640625,800.2197875976562,799.8168334960938,794.5787353515625
747,797.8021850585938,801.4285888671875,796.5933837890625,792.967041015625
748,796.1904907226562,796.5933837890625,797.3992919921875,791.3552856445312
749,798.2051391601562,794.1758422851562,796.1904907226562,792.5640869140625
750,801.4285888671875,792.5640869140625,799.4139404296875,795.3846435546875
751,799.8168334960938,790.952392578125,798.2051391601562,798.6080322265625
752,796.1904907226562,794.981689453125,800.2197875976562,796.996337890625
753,796.5933837890625,797.3992919921875,804.6520385742188,797.3992919921875
754,793.7728881835938,791.3552856445312,801.4285888671875,799.8168334960938
755,794.5787353515625,787.3259887695312,799.8168334960938,797.8021850585938
756,794.981689453125,791.7582397460938,799.010986328125,795.3846435546875
757,790.5494384765625,789.3406372070312,800.6226806640625,797.8021850585938
758,792.967041015625,790.1465454101562,799.8168334960938,799.4139404296875
759,795.7875366210938,796.5933837890625,799.4139404296875,800.6226806640625
760,794.1758422851562,798.2051391601562,796.1904907226562,795.3846435546875
761,786.923095703125,791.7582397460938,790.952392578125,788.5347900390625
762,790.1465454101562,790.5494384765625,793.3699340820312,794.981689453125
763,793.7728881835938,792.5640869140625,792.5640869140625,792.1611938476562
764,791.3552856445312,792.5640869140625,792.1611938476562,783.6996459960938
765,796.1904907226562,790.1465454101562,792.5640869140625,786.923095703125
766,796.5933837890625,791.7582397460938,795.3846435546875,793.7728881835938
767,790.952392578125,795.3846435546875,799.010986328125,793.3699340820312
768,791.3552856445312,796.1904907226562,797.8021850585938,786.1171875
769,792.1611938476562,798.2051391601562,795.3846435546875,786.923095703125
770,794.1758422851562,793.7728881835938,793.3699340820312,789.7435913085938
771,789.7435913085938,792.5640869140625,794.981689453125,789.7435913085938
772,786.923095703125,794.981689453125,792.1611938476562,788.1318969726562
773,795.3846435546875,795.3846435546875,789.3406372070312,788.1318969726562
774,799.010986328125,789.7435913085938,790.5494384765625,790.5494384765625
775,792.967041015625,785.7142944335938,793.3699340820312,786.923095703125
776,792.5640869140625,785.3113403320312,792.1611938476562,785.7142944335938
777,799.010986328125,790.5494384765625,789.7435913085938,788.937744140625
778,800.6226806640625,795.7875366210938,793.7728881835938,794.981689453125
779,788.5347900390625,798.6080322265625,794.1758422851562,786.1171875
780,781.6849975585938,796.996337890625,794.981689453125,784.5054931640625
781,782.4908447265625,792.5640869140625,796.1904907226562,788.5347900390625
782,783.6996459960938,796.1904907226562,789.3406372070312,785.7142944335938
783,788.5347900390625,798.6080322265625,789.3406372070312,785.7142944335938
784,793.3699340820312,796.996337890625,796.1904907226562,784.5054931640625
785,796.5933837890625,796.5933837890625,797.3992919921875,786.923095703125
786,801.025634765625,797.8021850585938,798.2051391601562,791.3552856445312
787,799.010986328125,789.7435913085938,794.1758422851562,785.3113403320312
788,796.996337890625,787.3259887695312,793.3699340820312,789.3406372070312
789,801.4285888671875,791.3552856445312,794.981689453125,800.6226806640625
790,799.010986328125,794.5787353515625,794.5787353515625,793.7728881835938
791,793.3699340820312,795.7875366210938,793.3699340820312,790.1465454101562
792,792.5640869140625,790.5494384765625,792.967041015625,792.1611938476562
793,787.7289428710938,786.5201416015625,791.7582397460938,789.7435913085938
794,784.908447265625,788.937744140625,788.1318969726562,791.7582397460938
795,782.087890625,785.7142944335938,790.1465454101562,786.5201416015625
796,785.7142944335938,787.7289428710938,792.1611938476562,785.7142944335938
797,790.952392578125,792.1611938476562,794.1758422851562,792.967041015625
798,785.7142944335938,787.3259887695312,794.5787353515625,793.7728881835938
799,784.1025390625,792.1611938476562,794.1758422851562,791.7582397460938
800,786.1171875,796.996337890625,788.937744140625,791.3552856445312
801,787.3259887695312,797.3992919921875,788.5347900390625,790.952392578125
802,787.7289428710938,800.2197875976562,792.967041015625,788.5347900390625
803,784.5054931640625,797.8021850585938,790.1465454101562,785.3113403320312
804,782.893798828125,796.996337890625,792.1611938476562,785.3113403320312
805,784.1025390625,793.3699340820312,794.1758422851562,784.1025390625
806,787.7289428710938,790.5494384765625,797.8021850585938,787.3259887695312
807,799.4139404296875,792.5640869140625,799.010986328125,803.040283203125
808,805.4578857421875,792.967041015625,793.3699340820312,810.2930297851562
809,795.7875366210938,790.952392578125,798.2051391601562,799.4139404296875
810,788.937744140625,789.3406372070312,798.6080322265625,790.952392578125
811,789.7435913085938,786.1171875,792.5640869140625,789.3406372070312
812,788.5347900390625,782.4908447265625,794.1758422851562,792.1611938476562
813,786.5201416015625,791.7582397460938,793.3699340820312,792.1611938476562
814,789.7435913085938,792.1611938476562,789.7435913085938,790.1465454101562
815,791.3552856445312,788.1318969726562,795.7875366210938,793.3699340820312
816,790.5494384765625,790.952392578125,796.5933837890625,796.1904907226562
817,791.7582397460938,789.7435913085938,794.981689453125,799.010986328125
818,793.7728881835938,784.908447265625,799.4139404296875,799.8168334960938
819,796.1904907226562,788.1318969726562,801.4285888671875,802.2344360351562
820,794.981689453125,792.5640869140625,800.2197875976562,803.8461303710938
821,787.3259887695312,784.5054931640625,796.1904907226562,794.5787353515625
822,794.1758422851562,785.3113403320312,797.3992919921875,795.7875366210938
823,796.996337890625,788.937744140625,799.8168334960938,799.010986328125
824,788.1318969726562,789.7435913085938,799.010986328125,799.010986328125
825,786.5201416015625,787.3259887695312,799.010986328125,799.8168334960938
826,792.1611938476562,782.4908447265625,796.1904907226562,794.1758422851562
827,794.1758422851562,795.7875366210938,794.1758422851562,797.3992919921875
828,789.3406372070312,798.2051391601562,793.3699340820312,799.8168334960938
829,790.1465454101562,791.7582397460938,794.981689453125,793.3699340820312
830,793.3699340820312,794.5787353515625,795.7875366210938,789.7435913085938
831,792.1611938476562,791.7582397460938,791.7582397460938,795.7875366210938
832,790.5494384765625,790.952392578125,791.3552856445312,804.6520385742188
833,792.1611938476562,794.5787353515625,793.3699340820312,794.1758422851562
834,793.3699340820312,799.010986328125,798.6080322265625,790.1465454101562
835,794.981689453125,797.3992919921875,794.981689453125,797.3992919921875
836,796.1904907226562,797.3992919921875,794.5787353515625,795.7875366210938
837,796.5933837890625,801.8314819335938,801.4285888671875,790.1465454101562
838,798.2051391601562,797.3992919921875,792.967041015625,793.3699340820312
839,800.6226806640625,798.2051391601562,787.3259887695312,797.3992919921875
840,803.8461303710938,805.054931640625,798.2051391601562,801.025634765625
841,800.2197875976562,803.040283203125,801.8314819335938,797.3992919921875
842,797.3992919921875,796.5933837890625,801.4285888671875,786.5201416015625
843,799.010986328125,793.7728881835938,798.2051391601562,784.1025390625
844,795.3846435546875,792.5640869140625,795.7875366210938,789.7435913085938
845,793.7728881835938,790.952392578125,794.1758422851562,794.1758422851562
846,793.3699340820312,788.5347900390625,788.5347900390625,795.3846435546875
847,788.5347900390625,793.7728881835938,786.5201416015625,789.3406372070312
848,788.5347900390625,798.6080322265625,783.2966918945312,786.923095703125
849,791.7582397460938,797.3992919921875,789.3406372070312,788.937744140625
850,791.7582397460938,794.1758422851562,792.967041015625,789.7435913085938
851,794.981689453125,796.1904907226562,789.7435913085938,789.7435913085938
852,798.2051391601562,801.025634765625,792.967041015625,785.7142944335938
853,801.4285888671875,799.8168334960938,794.5787353515625,785.3113403320312
854,799.8168334960938,798.6080322265625,794.981689453125,792.1611938476562
855,794.1758422851562,801.025634765625,792.967041015625,789.7435913085938
856,796.5933837890625,793.3699340820312,793.7728881835938,786.923095703125
857,796.1904907226562,791.7582397460938,794.5787353515625,790.5494384765625
858,792.967041015625,796.5933837890625,791.7582397460938,801.4285888671875
859,788.1318969726562,794.981689453125,797.3992919921875,805.8607788085938
860,786.5201416015625,796.5933837890625,799.8168334960938,801.025634765625
861,788.5347900390625,795.7875366210938,795.3846435546875,795.7875366210938
862,790.1465454101562,797.3992919921875,796.5933837890625,799.4139404296875
863,788.937744140625,796.5933837890625,796.996337890625,804.2490844726562
864,785.3113403320312,794.1758422851562,797.8021850585938,799.4139404296875
865,785.7142944335938,792.5640869140625,794.981689453125,796.5933837890625
866,793.7728881835938,792.5640869140625,794.981689453125,801.8314819335938
867,794.5787353515625,791.7582397460938,798.6080322265625,807.069580078125
868,793.3699340820312,793.3699340820312,794.981689453125,809.4871826171875
869,795.3846435546875,799.010986328125,794.5787353515625,811.5018310546875
870,795.3846435546875,796.1904907226562,797.3992919921875,812.7106323242188
871,794.1758422851562,788.5347900390625,794.5787353515625,807.069580078125
872,795.3846435546875,791.7582397460938,791.7582397460938,803.8461303710938
873,802.2344360351562,798.6080322265625,789.7435913085938,801.8314819335938
874,804.6520385742188,797.3992919921875,789.3406372070312,802.2344360351562
875,804.2490844726562,798.6080322265625,788.1318969726562,802.6373901367188
876,802.2344360351562,799.8168334960938,791.3552856445312,803.4432373046875
877,799.8168334960938,799.8168334960938,791.3552856445312,808.6813354492188
878,797.8021850585938,798.2051391601562,789.3406372070312,802.2344360351562
879,801.4285888671875,799.010986328125,798.6080322265625,796.5933837890625
880,801.8314819335938,797.3992919921875,797.8021850585938,794.1758422851562
881,799.010986328125,798.6080322265625,795.7875366210938,794.5787353515625
882,794.981689453125,798.2051391601562,799.010986328125,798.2051391601562
883,790.5494384765625,794.5787353515625,799.010986328125,796.5933837890625
884,785.7142944335938,791.7582397460938,796.5933837890625,795.7875366210938
885,785.3113403320312,788.5347900390625,796.1904907226562,805.054931640625
886,787.7289428710938,787.3259887695312,801.4285888671875,804.2490844726562
887,792.1611938476562,788.937744140625,796.996337890625,797.8021850585938
888,796.1904907226562,795.3846435546875,791.7582397460938,799.4139404296875
889,784.908447265625,794.981689453125,796.1904907226562,786.5201416015625
890,776.4468994140625,793.7728881835938,799.4139404296875,778.05859375
891,778.8644409179688,798.6080322265625,797.3992919921875,784.1025390625
892,784.5054931640625,797.8021850585938,795.3846435546875,785.7142944335938
893,785.7142944335938,789.7435913085938,792.5640869140625,782.087890625
894,788.937744140625,789.3406372070312,792.1611938476562,787.7289428710938
895,791.3552856445312,793.7728881835938,794.1758422851562,790.1465454101562
896,792.1611938476562,789.7435913085938,794.1758422851562,792.1611938476562
897,798.6080322265625,788.5347900390625,795.7875366210938,805.054931640625
898,798.6080322265625,793.3699340820312,792.967041015625,801.8314819335938
899,795.7875366210938,792.1611938476562,792.1611938476562,793.3699340820312
900,797.3992919921875,786.923095703125,793.3699340820312,797.3992919921875
901,798.2051391601562,790.1465454101562,794.981689453125,797.8021850585938
902,799.010986328125,795.7875366210938,804.6520385742188,796.1904907226562
903,799.4139404296875,792.5640869140625,801.025634765625,802.2344360351562
904,798.6080322265625,790.1465454101562,795.7875366210938,800.6226806640625
905,801.4285888671875,796.5933837890625,797.8021850585938,800.2197875976562
906,801.4285888671875,797.3992919921875,799.8168334960938,808.2783813476562
907,795.3846435546875,801.025634765625,801.025634765625,803.4432373046875
908,795.7875366210938,801.8314819335938,800.6226806640625,804.6520385742188
909,791.3552856445312,793.3699340820312,795.3846435546875,803.4432373046875
910,786.5201416015625,792.967041015625,792.967041015625,788.5347900390625
911,785.3113403320312,801.025634765625,792.5640869140625,786.5201416015625
912,775.2380981445312,799.8168334960938,789.7435913085938,776.4468994140625
913,770.8058471679688,796.5933837890625,788.937744140625,766.7765502929688
914,773.2234497070312,794.5787353515625,788.937744140625,766.7765502929688
915,771.2088012695312,785.7142944335938,789.7435913085938,766.3735961914062
916,768.7911987304688,785.7142944335938,790.952392578125,769.1941528320312
917,768.7911987304688,790.952392578125,786.923095703125,762.7472534179688
918,772.0146484375,783.6996459960938,782.893798828125,756.7033081054688
919,778.8644409179688,778.05859375,789.7435913085938,770.8058471679688
920,781.2820434570312,788.1318969726562,790.952392578125,781.2820434570312
921,790.5494384765625,800.2197875976562,788.937744140625,776.4468994140625
922,799.010986328125,803.4432373046875,790.952392578125,780.0732421875
923,800.6226806640625,804.2490844726562,793.3699340820312,788.937744140625
924,805.8607788085938,805.4578857421875,792.967041015625,796.996337890625
925,810.6959838867188,806.2637329101562,790.952392578125,801.025634765625
926,812.7106323242188,799.8168334960938,792.1611938476562,806.2637329101562
927,812.3076782226562,799.8168334960938,794.5787353515625,813.5164794921875
928,804.6520385742188,803.040283203125,798.2051391601562,816.3369750976562
929,803.4432373046875,799.010986328125,796.996337890625,819.5604248046875
930,802.6373901367188,794.981689453125,795.7875366210938,817.1428833007812
931,799.010986328125,799.8168334960938,799.010986328125,819.1575317382812
932,795.3846435546875,802.6373901367188,801.025634765625,817.1428833007812
933,790.1465454101562,795.3846435546875,800.6226806640625,805.054931640625
934,793.7728881835938,792.967041015625,801.8314819335938,804.6520385742188
935,795.3846435546875,792.5640869140625,801.8314819335938,805.054931640625
936,791.3552856445312,794.981689453125,801.4285888671875,799.4139404296875
937,787.7289428710938,796.1904907226562,796.996337890625,795.3846435546875
938,781.6849975585938,794.981689453125,794.981689453125,793.7728881835938
939,779.6703491210938,791.7582397460938,794.1758422851562,790.1465454101562
940,783.2966918945312,787.3259887695312,790.5494384765625,784.5054931640625
941,783.6996459960938,790.5494384765625,793.7728881835938,784.5054931640625
942,782.4908447265625,796.996337890625,796.5933837890625,786.1171875
943,783.6996459960938,795.3846435546875,792.1611938476562,785.7142944335938
944,784.908447265625,798.6080322265625,797.3992919921875,780.0732421875
945,787.7289428710938,796.5933837890625,798.2051391601562,782.893798828125
946,786.5201416015625,790.1465454101562,795.7875366210938,780.879150390625
947,784.1025390625,792.967041015625,792.5640869140625,770.0
948,786.5201416015625,793.3699340820312,787.3259887695312,771.6116943359375
949,790.952392578125,794.1758422851562,787.3259887695312,776.0439453125
950,796.1904907226562,794.1758422851562,792.5640869140625,796.996337890625
951,794.5787353515625,792.1611938476562,792.5640869140625,809.89013671875
952,790.1465454101562,790.5494384765625,790.952392578125,805.4578857421875
953,792.1611938476562,793.7728881835938,789.3406372070312,800.2197875976562
954,798.2051391601562,792.5640869140625,788.1318969726562,810.6959838867188
955,804.2490844726562,791.7582397460938,788.937744140625,818.3516235351562
956,804.6520385742188,797.3992919921875,791.7582397460938,809.4871826171875
957,803.4432373046875,798.6080322265625,792.1611938476562,812.3076782226562
958,796.996337890625,797.3992919921875,788.5347900390625,813.5164794921875
959,793.3699340820312,792.1611938476562,795.3846435546875,807.87548828125
960,798.2051391601562,795.7875366210938,801.4285888671875,807.069580078125
961,805.054931640625,799.010986328125,798.2051391601562,804.6520385742188
962,801.8314819335938,795.3846435546875,796.996337890625,800.6226806640625
963,785.7142944335938,792.967041015625,794.5787353515625,794.981689453125
964,781.6849975585938,791.3552856445312,790.5494384765625,781.6849975585938
965,782.087890625,791.7582397460938,791.3552856445312,768.7911987304688
966,779.6703491210938,794.981689453125,790.952392578125,770.4029541015625
967,776.0439453125,790.1465454101562,792.967041015625,763.9560546875
968,773.6264038085938,784.5054931640625,792.5640869140625,762.7472534179688
969,780.4761962890625,789.7435913085938,790.1465454101562,770.4029541015625
970,784.908447265625,796.1904907226562,796.1904907226562,771.6116943359375
971,784.5054931640625,795.3846435546875,799.4139404296875,772.8204956054688
972,789.3406372070312,793.7728881835938,796.1904907226562,776.0439453125
973,792.967041015625,787.7289428710938,798.6080322265625,774.8351440429688
974,792.5640869140625,787.7289428710938,794.5787353515625,775.2380981445312
975,791.3552856445312,788.1318969726562,786.5201416015625,778.8644409179688
976,793.7728881835938,786.1171875,790.1465454101562,782.893798828125
977,794.981689453125,788.937744140625,792.967041015625,794.5787353515625
978,786.1171875,788.1318969726562,791.3552856445312,794.981689453125
979,780.4761962890625,787.3259887695312,795.7875366210938,792.5640869140625
980,784.5054931640625,792.967041015625,795.3846435546875,801.8314819335938
981,789.7435913085938,796.5933837890625,794.5787353515625,807.069580078125
982,794.1758422851562,789.7435913085938,795.7875366210938,803.4432373046875
983,793.3699340820312,784.5054931640625,790.1465454101562,801.8314819335938
984,786.923095703125,788.5347900390625,788.1318969726562,800.6226806640625
985,780.4761962890625,787.7289428710938,791.7582397460938,795.7875366210938
986,783.6996459960938,789.7435913085938,792.5640869140625,792.5640869140625
987,790.952392578125,796.996337890625,792.1611938476562,792.967041015625
988,790.1465454101562,798.6080322265625,790.952392578125,793.3699340820312
989,785.7142944335938,793.7728881835938,787.7289428710938,784.1025390625
990,783.6996459960938,789.7435913085938,787.7289428710938,780.879150390625
991,791.3552856445312,789.7435913085938,789.3406372070312,787.7289428710938
992,794.1758422851562,787.3259887695312,790.5494384765625,787.7289428710938
993,795.3846435546875,788.937744140625,788.937744140625,790.5494384765625
994,794.1758422851562,792.5640869140625,789.7435913085938,788.5347900390625
995,796.996337890625,790.5494384765625,789.3406372070312,788.1318969726562
996,805.054931640625,791.3552856445312,790.1465454101562,792.967041015625
997,803.4432373046875,792.1611938476562,790.1465454101562,791.7582397460938
998,798.2051391601562,787.3259887695312,788.1318969726562,791.3552856445312
999,793.3699340820312,782.893798828125,785.3113403320312,788.1318969726562
1000,796.996337890625,786.1171875,788.5347900390625,789.3406372070312
1001,794.5787353515625,794.1758422851562,792.1611938476562,796.5933837890625
1002,791.7582397460938,801.025634765625,793.7728881835938,797.3992919921875
1003,795.3846435546875,794.981689453125,792.967041015625,792.5640869140625
1004,796.1904907226562,786.923095703125,794.981689453125,797.8021850585938
1005,788.1318969726562,788.5347900390625,799.8168334960938,801.025634765625
1006,782.4908447265625,792.967041015625,799.4139404296875,794.1758422851562
1007,784.1025390625,789.7435913085938,799.8168334960938,794.1758422851562
1008,788.5347900390625,784.908447265625,801.8314819335938,801.025634765625
1009,793.3699340820312,795.3846435546875,799.4139404296875,801.8314819335938
1010,794.1758422851562,803.4432373046875,797.8021850585938,794.5787353515625
1011,787.7289428710938,800.2197875976562,798.6080322265625,780.0732421875
1012,779.2673950195312,794.1758422851562,790.5494384765625,781.2820434570312
1013,773.6264038085938,791.3552856445312,791.3552856445312,782.087890625
1014,778.05859375,798.2051391601562,793.7728881835938,780.4761962890625
1015,786.5201416015625,800.6226806640625,789.3406372070312,785.7142944335938
1016,789.3406372070312,794.981689453125,791.3552856445312,792.1611938476562
1017,791.7582397460938,799.4139404296875,792.5640869140625,792.1611938476562
1018,787.3259887695312,800.2197875976562,787.3259887695312,790.5494384765625
1019,784.5054931640625,799.8168334960938,788.1318969726562,791.3552856445312
1020,785.3113403320312,803.8461303710938,792.967041015625,788.5347900390625
1021,788.937744140625,803.4432373046875,792.967041015625,783.2966918945312
1022,792.5640869140625,800.2197875976562,794.981689453125,784.5054931640625
1023,792.967041015625,800.2197875976562,796.1904907226562,787.7289428710938
1024,790.5494384765625,798.6080322265625,796.1904907226562,790.952392578125
1025,791.7582397460938,796.996337890625,799.010986328125,793.7728881835938
1026,798.6080322265625,798.6080322265625,800.6226806640625,799.4139404296875
1027,795.7875366210938,789.3406372070312,794.981689453125,806.2637329101562
1028,789.7435913085938,783.6996459960938,796.1904907226562,804.2490844726562
1029,791.3552856445312,794.1758422851562,798.6080322265625,799.010986328125
1030,794.1758422851562,799.4139404296875,799.8168334960938,802.6373901367188
1031,793.3699340820312,796.996337890625,797.8021850585938,797.8021850585938
1032,791.7582397460938,796.996337890625,797.3992919921875,793.7728881835938
1033,788.1318969726562,793.3699340820312,796.5933837890625,789.7435913085938
1034,786.923095703125,782.893798828125,794.981689453125,791.3552856445312
1035,786.5201416015625,782.087890625,791.3552856445312,794.981689453125
1036,779.2673950195312,786.5201416015625,788.937744140625,785.7142944335938
1037,777.2527465820312,787.7289428710938,790.1465454101562,782.4908447265625
1038,780.879150390625,780.879150390625,793.3699340820312,789.7435913085938
1039,783.2966918945312,786.5201416015625,792.1611938476562,796.5933837890625
1040,779.6703491210938,799.4139404296875,792.967041015625,790.1465454101562
1041,784.5054931640625,798.6080322265625,798.6080322265625,789.3406372070312
1042,797.3992919921875,796.5933837890625,796.1904907226562,800.2197875976562
1043,800.2197875976562,793.3699340820312,789.7435913085938,793.7728881835938
1044,799.4139404296875,793.3699340820312,790.1465454101562,787.7289428710938
1045,800.6226806640625,794.981689453125,792.1611938476562,793.7728881835938
1046,799.8168334960938,791.3552856445312,792.5640869140625,796.5933837890625
1047,792.5640869140625,792.967041015625,791.7582397460938,794.1758422851562
1048,789.7435913085938,797.3992919921875,790.1465454101562,797.8021850585938
1049,791.3552856445312,796.1904907226562,789.3406372070312,801.8314819335938
1050,795.7875366210938,792.1611938476562,791.7582397460938,803.4432373046875
1051,795.7875366210938,793.7728881835938,791.3552856445312,804.6520385742188
1052,792.5640869140625,799.8168334960938,781.6849975585938,788.1318969726562
1053,796.1904907226562,795.3846435546875,781.6849975585938,780.0732421875
1054,790.952392578125,793.7728881835938,788.1318969726562,780.879150390625
1055,791.7582397460938,795.7875366210938,790.952392578125,778.05859375
1056,797.8021850585938,790.5494384765625,790.952392578125,784.1025390625
1057,797.3992919921875,784.1025390625,794.1758422851562,792.967041015625
1058,796.5933837890625,788.937744140625,796.996337890625,795.3846435546875
1059,790.5494384765625,796.1904907226562,794.1758422851562,795.3846435546875
1060,786.5201416015625,797.3992919921875,793.7728881835938,798.6080322265625
1061,785.3113403320312,788.937744140625,794.1758422851562,799.010986328125
1062,787.3259887695312,784.908447265625,792.967041015625,796.5933837890625
1063,784.908447265625,792.1611938476562,793.7728881835938,796.5933837890625
1064,786.5201416015625,792.1611938476562,796.996337890625,801.025634765625
1065,789.3406372070312,790.952392578125,798.2051391601562,805.8607788085938
1066,785.7142944335938,786.1171875,792.967041015625,806.2637329101562
1067,782.4908447265625,780.4761962890625,792.967041015625,799.010986328125
1068,779.6703491210938,785.3113403320312,796.1904907226562,792.967041015625
1069,779.6703491210938,792.5640869140625,794.981689453125,793.3699340820312
1070,776.4468994140625,790.952392578125,795.7875366210938,790.1465454101562
1071,774.029296875,790.952392578125,794.1758422851562,784.5054931640625
1072,779.2673950195312,793.3699340820312,789.3406372070312,788.937744140625
1073,784.5054931640625,787.7289428710938,790.1465454101562,793.3699340820312
1074,784.5054931640625,786.923095703125,794.1758422851562,790.1465454101562
1075,786.1171875,796.996337890625,795.3846435546875,788.5347900390625
1076,782.893798828125,797.3992919921875,792.967041015625,791.7582397460938
1077,780.879150390625,790.1465454101562,792.1611938476562,799.8168334960938
1078,783.2966918945312,794.5787353515625,791.7582397460938,796.996337890625
1079,786.1171875,797.8021850585938,790.952392578125,796.5933837890625
1080,792.1611938476562,796.1904907226562,793.7728881835938,795.7875366210938
1081,786.923095703125,792.967041015625,792.1611938476562,787.3259887695312
1082,784.5054931640625,791.3552856445312,785.3113403320312,787.7289428710938
1083,792.5640869140625,796.1904907226562,788.937744140625,792.5640869140625
1084,790.1465454101562,799.010986328125,792.967041015625,787.7289428710938
1085,788.1318969726562,792.1611938476562,789.3406372070312,789.3406372070312
1086,788.5347900390625,786.923095703125,788.937744140625,797.3992919921875
1087,783.6996459960938,791.3552856445312,793.7728881835938,789.3406372070312
1088,780.4761962890625,790.1465454101562,787.7289428710938,782.893798828125
1089,784.5054931640625,788.5347900390625,785.7142944335938,794.5787353515625
1090,788.1318969726562,794.981689453125,799.010986328125,802.6373901367188
1091,784.5054931640625,799.4139404296875,802.2344360351562,799.4139404296875
1092,782.087890625,793.3699340820312,796.1904907226562,794.5787353515625
1093,783.2966918945312,790.952392578125,797.3992919921875,788.5347900390625
1094,780.879150390625,792.967041015625,796.5933837890625,785.3113403320312
1095,778.8644409179688,789.7435913085938,792.967041015625,786.1171875
1096,778.8644409179688,788.1318969726562,795.3846435546875,791.3552856445312
1097,786.1171875,790.952392578125,796.5933837890625,797.8021850585938
1098,795.7875366210938,793.3699340820312,796.996337890625,793.3699340820312
1099,795.7875366210938,797.8021850585938,794.1758422851562,786.5201416015625
1100,796.5933837890625,793.3699340820312,791.3552856445312,790.952392578125
1101,796.5933837890625,790.952392578125,789.7435913085938,787.3259887695312
1102,792.1611938476562,793.7728881835938,789.7435913085938,783.6996459960938
1103,797.8021850585938,793.3699340820312,793.3699340820312,794.1758422851562
1104,801.8314819335938,792.967041015625,799.010986328125,801.025634765625
1105,799.010986328125,793.3699340820312,795.3846435546875,799.010986328125
1106,798.2051391601562,795.3846435546875,792.5640869140625,797.8021850585938
1107,801.4285888671875,804.2490844726562,793.3699340820312,804.6520385742188
1108,801.4285888671875,802.2344360351562,792.5640869140625,802.2344360351562
1109,796.5933837890625,793.7728881835938,793.7728881835938,795.3846435546875
1110,794.981689453125,795.7875366210938,795.3846435546875,791.3552856445312
1111,796.1904907226562,788.1318969726562,797.3992919921875,791.3552856445312
1112,795.7875366210938,784.5054931640625,798.2051391601562,795.3846435546875
1113,793.3699340820312,791.3552856445312,800.2197875976562,799.010986328125
1114,794.5787353515625,786.1171875,798.2051391601562,797.3992919921875
1115,790.5494384765625,786.1171875,795.3846435546875,796.1904907226562
1116,785.7142944335938,792.5640869140625,795.3846435546875,796.996337890625
1117,785.7142944335938,795.7875366210938,792.967041015625,788.5347900390625
1118,781.2820434570312,791.7582397460938,792.1611938476562,781.2820434570312
1119,782.4908447265625,785.3113403320312,789.3406372070312,784.5054931640625
1120,789.7435913085938,787.7289428710938,792.1611938476562,789.3406372070312
1121,789.3406372070312,784.1025390625,798.2051391601562,790.5494384765625
1122,789.7435913085938,782.4908447265625,796.5933837890625,797.8021850585938
1123,793.3699340820312,788.1318969726562,791.3552856445312,799.8168334960938
1124,788.937744140625,789.3406372070312,789.7435913085938,792.5640869140625
1125,784.908447265625,787.3259887695312,790.5494384765625,794.981689453125
1126,786.923095703125,791.3552856445312,791.7582397460938,799.4139404296875
1127,787.3259887695312,797.3992919921875,793.3699340820312,796.996337890625
1128,793.7728881835938,797.8021850585938,794.1758422851562,794.5787353515625
1129,789.7435913085938,795.3846435546875,796.5933837890625,788.937744140625
1130,784.1025390625,794.1758422851562,800.2197875976562,794.5787353515625
1131,785.7142944335938,788.5347900390625,801.025634765625,798.2051391601562
1132,784.908447265625,789.3406372070312,800.2197875976562,791.7582397460938
1133,781.6849975585938,794.5787353515625,799.010986328125,788.937744140625
1134,783.6996459960938,790.952392578125,795.7875366210938,794.5787353515625
1135,791.3552856445312,786.923095703125,797.3992919921875,800.6226806640625
1136,793.7728881835938,788.937744140625,796.1904907226562,797.8021850585938
1137,787.7289428710938,792.967041015625,793.3699340820312,791.7582397460938
1138,786.5201416015625,790.5494384765625,799.010986328125,790.1465454101562
1139,790.952392578125,788.5347900390625,802.2344360351562,796.996337890625
1140,792.5640869140625,792.967041015625,796.5933837890625,799.8168334960938
1141,794.981689453125,794.5787353515625,790.5494384765625,789.3406372070312
1142,788.5347900390625,788.1318969726562,789.7435913085938,787.3259887695312
1143,784.908447265625,790.1465454101562,787.7289428710938,788.1318969726562
1144,786.5201416015625,793.3699340820312,785.7142944335938,782.4908447265625
1145,784.5054931640625,790.1465454101562,783.6996459960938,783.2966918945312
1146,788.5347900390625,790.952392578125,786.1171875,791.3552856445312
1147,790.1465454101562,790.5494384765625,788.1318969726562,790.1465454101562
1148,787.7289428710938,789.7435913085938,786.5201416015625,782.4908447265625
1149,786.1171875,789.7435913085938,786.1171875,781.6849975585938
1150,788.1318969726562,792.5640869140625,787.3259887695312,791.7582397460938
1151,783.2966918945312,791.3552856445312,787.7289428710938,788.5347900390625
1152,783.6996459960938,786.923095703125,789.7435913085938,788.1318969726562
1153,786.5201416015625,787.3259887695312,788.1318969726562,790.1465454101562
1154,789.3406372070312,789.7435913085938,791.7582397460938,786.5201416015625
1155,789.7435913085938,787.7289428710938,797.8021850585938,787.3259887695312
1156,784.5054931640625,785.7142944335938,792.1611938476562,784.5054931640625
1157,785.3113403320312,788.937744140625,790.5494384765625,792.1611938476562
1158,787.7289428710938,792.967041015625,790.5494384765625,798.2051391601562
1159,790.1465454101562,797.8021850585938,792.967041015625,791.7582397460938
1160,795.3846435546875,801.025634765625,793.7728881835938,792.1611938476562
1161,795.3846435546875,794.981689453125,795.3846435546875,796.5933837890625
1162,794.981689453125,793.3699340820312,803.4432373046875,798.6080322265625
1163,793.7728881835938,799.010986328125,801.025634765625,792.967041015625
1164,792.967041015625,794.1758422851562,795.3846435546875,791.3552856445312
1165,790.952392578125,788.937744140625,793.7728881835938,789.7435913085938
1166,792.1611938476562,796.5933837890625,792.5640869140625,792.5640869140625
1167,796.996337890625,801.4285888671875,796.5933837890625,794.1758422851562
1168,796.1904907226562,799.8168334960938,794.5787353515625,791.7582397460938
1169,792.967041015625,794.981689453125,792.1611938476562,796.5933837890625
1170,797.8021850585938,793.3699340820312,799.010986328125,797.8021850585938
1171,797.8021850585938,793.3699340820312,797.3992919921875,789.3406372070312
1172,798.2051391601562,793.7728881835938,794.5787353515625,792.1611938476562
1173,795.7875366210938,787.3259887695312,790.1465454101562,796.996337890625
1174,788.937744140625,784.1025390625,792.1611938476562,792.1611938476562
1175,790.1465454101562,794.1758422851562,799.010986328125,794.5787353515625
1176,794.5787353515625,799.010986328125,799.4139404296875,796.5933837890625
1177,789.3406372070312,797.8021850585938,797.8021850585938,792.967041015625
1178,784.908447265625,794.981689453125,799.4139404296875,783.2966918945312
1179,783.6996459960938,794.981689453125,794.1758422851562,782.087890625
1180,786.5201416015625,795.3846435546875,793.3699340820312,790.1465454101562
1181,793.7728881835938,791.7582397460938,794.5787353515625,792.5640869140625
1182,790.952392578125,788.937744140625,789.3406372070312,792.5640869140625
1183,784.5054931640625,788.5347900390625,790.1465454101562,785.3113403320312
1184,785.3113403320312,787.3259887695312,788.937744140625,784.908447265625
1185,787.3259887695312,791.7582397460938,788.1318969726562,792.1611938476562
1186,788.1318969726562,796.996337890625,797.3992919921875,787.3259887695312
1187,788.5347900390625,797.3992919921875,799.010986328125,787.3259887695312
1188,785.3113403320312,792.1611938476562,796.1904907226562,788.1318969726562
1189,786.923095703125,790.1465454101562,795.3846435546875,784.5054931640625
1190,790.952392578125,791.3552856445312,793.7728881835938,786.1171875
1191,798.2051391601562,791.3552856445312,795.3846435546875,786.5201416015625
1192,802.2344360351562,786.1171875,792.967041015625,786.923095703125
1193,801.8314819335938,790.5494384765625,793.7728881835938,786.1171875
1194,803.4432373046875,800.2197875976562,796.996337890625,790.5494384765625
1195,799.4139404296875,794.5787353515625,796.5933837890625,796.996337890625
1196,792.967041015625,785.7142944335938,793.7728881835938,801.025634765625
1197,786.5201416015625,784.908447265625,794.5787353515625,792.967041015625
1198,782.4908447265625,790.5494384765625,798.6080322265625,792.1611938476562
1199,783.2966918945312,798.6080322265625,799.4139404296875,798.6080322265625
1200,788.937744140625,798.2051391601562,803.4432373046875,799.8168334960938
1201,793.7728881835938,793.7728881835938,796.5933837890625,799.010986328125
1202,790.952392578125,792.5640869140625,791.7582397460938,791.7582397460938
1203,790.5494384765625,794.1758422851562,794.1758422851562,787.3259887695312
1204,792.1611938476562,791.7582397460938,794.1758422851562,787.7289428710938
1205,792.5640869140625,785.3113403320312,792.5640869140625,787.3259887695312
1206,792.5640869140625,788.5347900390625,788.937744140625,786.5201416015625
1207,788.1318969726562,793.3699340820312,791.7582397460938,790.952392578125
1208,783.2966918945312,787.3259887695312,793.3699340820312,795.3846435546875
1209,780.4761962890625,792.1611938476562,796.996337890625,787.3259887695312
1210,781.6849975585938,790.952392578125,797.3992919921875,786.1171875
1211,788.5347900390625,791.7582397460938,796.5933837890625,795.7875366210938
1212,796.996337890625,796.996337890625,799.010986328125,796.5933837890625
1213,796.996337890625,799.8168334960938,799.8168334960938,791.7582397460938
1214,792.5640869140625,802.2344360351562,795.7875366210938,786.5201416015625
1215,793.7728881835938,797.3992919921875,792.5640869140625,788.5347900390625
1216,790.1465454101562,793.7728881835938,795.3846435546875,794.5787353515625
1217,791.3552856445312,794.1758422851562,791.7582397460938,792.5640869140625
1218,790.5494384765625,791.3552856445312,788.5347900390625,789.3406372070312
1219,786.1171875,794.1758422851562,791.7582397460938,795.7875366210938
1220,789.7435913085938,792.5640869140625,785.7142944335938,799.010986328125
1221,790.1465454101562,786.5201416015625,787.7289428710938,794.5787353515625
1222,795.3846435546875,789.7435913085938,795.3846435546875,796.996337890625
1223,794.1758422851562,792.1611938476562,790.952392578125,794.1758422851562
1224,788.1318969726562,791.3552856445312,791.7582397460938,792.967041015625
1225,789.3406372070312,790.952392578125,796.1904907226562,796.5933837890625
1226,793.3699340820312,788.1318969726562,796.5933837890625,796.996337890625
1227,795.3846435546875,786.1171875,793.7728881835938,801.025634765625
1228,798.6080322265625,787.7289428710938,795.3846435546875,801.8314819335938
1229,792.1611938476562,791.3552856445312,796.5933837890625,791.7582397460938
1230,785.7142944335938,797.3992919921875,797.8021850585938,792.1611938476562
1231,784.1025390625,795.3846435546875,790.1465454101562,802.6373901367188
1232,788.1318969726562,797.8021850585938,788.1318969726562,796.5933837890625
1233,793.3699340820312,796.996337890625,796.1904907226562,789.3406372070312
1234,790.952392578125,788.937744140625,800.6226806640625,790.952392578125
1235,790.1465454101562,792.5640869140625,798.2051391601562,792.5640869140625
1236,792.5640869140625,796.1904907226562,800.6226806640625,793.3699340820312
1237,792.1611938476562,792.967041015625,798.2051391601562,790.5494384765625
1238,791.3552856445312,783.6996459960938,791.3552856445312,794.1758422851562
1239,792.1611938476562,780.879150390625,795.7875366210938,794.981689453125
1240,799.8168334960938,794.1758422851562,794.981689453125,796.996337890625
1241,798.6080322265625,799.8168334960938,793.3699340820312,796.1904907226562
1242,794.5787353515625,799.4139404296875,796.5933837890625,795.3846435546875
1243,794.981689453125,799.8168334960938,798.2051391601562,798.2051391601562
1244,794.1758422851562,798.2051391601562,796.5933837890625,789.7435913085938
1245,800.6226806640625,795.3846435546875,799.010986328125,794.1758422851562
1246,803.4432373046875,796.5933837890625,802.6373901367188,802.6373901367188
1247,802.2344360351562,800.6226806640625,796.5933837890625,795.7875366210938
1248,805.054931640625,799.8168334960938,793.3699340820312,790.952392578125
1249,808.6813354492188,794.981689453125,800.6226806640625,797.3992919921875
1250,803.8461303710938,796.1904907226562,800.2197875976562,801.025634765625
1251,795.7875366210938,796.5933837890625,798.6080322265625,795.3846435546875
1252,800.6226806640625,796.1904907226562,801.8314819335938,798.6080322265625
1253,805.054931640625,794.981689453125,800.2197875976562,799.010986328125
1254,796.5933837890625,793.3699340820312,797.8021850585938,789.7435913085938
1255,788.937744140625,793.3699340820312,794.5787353515625,787.3259887695312
1256,793.7728881835938,790.1465454101562,788.937744140625,787.3259887695312
1257,796.5933837890625,795.7875366210938,792.1611938476562,792.5640869140625
1258,784.908447265625,792.5640869140625,796.5933837890625,796.5933837890625
1259,780.4761962890625,790.1465454101562,792.1611938476562,791.7582397460938
1260,785.3113403320312,790.5494384765625,793.7728881835938,784.1025390625
1261,781.2820434570312,786.923095703125,791.7582397460938,782.087890625
1262,783.2966918945312,789.3406372070312,791.7582397460938,784.908447265625
1263,790.952392578125,791.7582397460938,798.2051391601562,790.952392578125
1264,799.010986328125,787.7289428710938,798.6080322265625,798.2051391601562
1265,801.4285888671875,785.7142944335938,797.3992919921875,794.1758422851562
1266,792.967041015625,787.7289428710938,796.1904907226562,783.6996459960938
1267,783.2966918945312,792.967041015625,792.967041015625,775.6410522460938
1268,789.3406372070312,794.5787353515625,791.7582397460938,785.7142944335938
1269,792.967041015625,791.3552856445312,790.952392578125,796.996337890625
1270,783.6996459960938,789.3406372070312,791.7582397460938,786.1171875
1271,784.908447265625,788.937744140625,793.7728881835938,788.1318969726562
1272,792.967041015625,795.3846435546875,790.952392578125,796.996337890625
1273,796.5933837890625,795.3846435546875,792.1611938476562,793.7728881835938
1274,797.3992919921875,792.967041015625,792.967041015625,796.996337890625
1275,796.996337890625,789.7435913085938,792.5640869140625,798.2051391601562
1276,800.6226806640625,786.5201416015625,792.967041015625,798.6080322265625
1277,804.2490844726562,787.7289428710938,787.7289428710938,802.2344360351562
1278,802.2344360351562,789.3406372070312,789.3406372070312,798.6080322265625
1279,794.5787353515625,790.5494384765625,796.5933837890625,800.2197875976562
1280,794.5787353515625,785.7142944335938,794.1758422851562,802.2344360351562
1281,796.5933837890625,788.1318969726562,792.5640869140625,804.6520385742188
1282,792.5640869140625,792.967041015625,795.3846435546875,796.1904907226562
1283,794.1758422851562,794.5787353515625,793.3699340820312,790.5494384765625
1284,798.2051391601562,796.5933837890625,792.967041015625,793.3699340820312
1285,796.5933837890625,794.5787353515625,791.7582397460938,790.5494384765625
1286,791.3552856445312,785.3113403320312,791.3552856445312,786.1171875
1287,786.5201416015625,782.087890625,787.7289428710938,781.6849975585938
1288,792.1611938476562,783.6996459960938,785.7142944335938,791.7582397460938
1289,794.981689453125,782.893798828125,788.1318969726562,801.8314819335938
1290,800.2197875976562,789.3406372070312,789.7435913085938,798.6080322265625
1291,801.4285888671875,792.5640869140625,791.3552856445312,790.1465454101562
1292,792.967041015625,791.3552856445312,791.7582397460938,794.5787353515625
1293,793.3699340820312,794.5787353515625,792.967041015625,800.6226806640625
1294,799.4139404296875,796.5933837890625,791.7582397460938,792.967041015625
1295,803.040283203125,790.1465454101562,798.2051391601562,794.1758422851562
1296,798.6080322265625,790.5494384765625,804.2490844726562,794.5787353515625
1297,797.8021850585938,796.1904907226562,807.069580078125,794.1758422851562
1298,792.967041015625,795.7875366210938,805.4578857421875,792.5640869140625
1299,791.7582397460938,792.5640869140625,794.1758422851562,791.3552856445312
1300,794.5787353515625,789.3406372070312,791.3552856445312,789.7435913085938
1301,793.7728881835938,787.7289428710938,797.3992919921875,791.3552856445312
1302,798.6080322265625,792.5640869140625,801.8314819335938,800.2197875976562
1303,792.1611938476562,793.7728881835938,796.996337890625,799.010986328125
1304,790.5494384765625,785.7142944335938,788.1318969726562,797.8021850585938
1305,789.7435913085938,786.923095703125,787.3259887695312,789.3406372070312
1306,789.7435913085938,796.996337890625,790.5494384765625,776.8497924804688
1307,791.3552856445312,797.3992919921875,793.3699340820312,778.05859375
1308,783.2966918945312,792.5640869140625,790.1465454101562,774.4322509765625
1309,781.2820434570312,797.8021850585938,788.937744140625,774.029296875
1310,788.1318969726562,799.4139404296875,791.3552856445312,782.087890625
1311,788.937744140625,799.4139404296875,788.5347900390625,786.1171875
1312,787.7289428710938,800.2197875976562,792.5640869140625,787.7289428710938
1313,792.967041015625,796.996337890625,794.981689453125,787.3259887695312
1314,797.8021850585938,794.1758422851562,795.3846435546875,791.3552856445312
1315,800.2197875976562,791.7582397460938,795.3846435546875,800.6226806640625
1316,797.8021850585938,787.3259887695312,791.3552856445312,801.8314819335938
1317,794.1758422851562,789.3406372070312,788.937744140625,790.952392578125
1318,796.5933837890625,792.1611938476562,786.1171875,787.3259887695312
1319,796.1904907226562,787.7289428710938,789.3406372070312,789.3406372070312
1320,790.5494384765625,784.5054931640625,791.7582397460938,786.5201416015625
1321,787.3259887695312,785.7142944335938,790.5494384765625,788.5347900390625
1322,791.3552856445312,789.3406372070312,794.981689453125,799.4139404296875
1323,792.1611938476562,792.1611938476562,797.3992919921875,801.8314819335938
1324,793.7728881835938,788.5347900390625,793.7728881835938,794.5787353515625
1325,799.8168334960938,789.3406372070312,791.7582397460938,795.7875366210938
1326,794.5787353515625,789.7435913085938,793.7728881835938,796.996337890625
1327,786.923095703125,786.5201416015625,793.3699340820312,793.3699340820312
1328,784.5054931640625,790.1465454101562,795.7875366210938,786.1171875
1329,781.6849975585938,788.5347900390625,788.937744140625,781.6849975585938
1330,777.2527465820312,783.2966918945312,785.7142944335938,781.6849975585938
1331,775.2380981445312,788.937744140625,789.3406372070312,784.908447265625
1332,776.8497924804688,789.3406372070312,790.952392578125,787.7289428710938
1333,770.0,780.879150390625,788.937744140625,779.6703491210938
1334,770.8058471679688,782.4908447265625,786.5201416015625,772.8204956054688
1335,780.0732421875,792.5640869140625,790.5494384765625,775.6410522460938
1336,779.2673950195312,796.996337890625,791.7582397460938,780.4761962890625
1337,780.0732421875,796.5933837890625,790.1465454101562,788.1318969726562
1338,783.6996459960938,793.7728881835938,788.937744140625,794.981689453125
1339,784.1025390625,783.6996459960938,788.5347900390625,790.5494384765625
1340,779.6703491210938,786.5201416015625,789.3406372070312,784.5054931640625
1341,780.879150390625,796.996337890625,788.937744140625,787.7289428710938
1342,780.4761962890625,795.3846435546875,790.5494384765625,787.7289428710938
1343,778.4615478515625,794.1758422851562,792.1611938476562,789.3406372070312
1344,784.1025390625,792.1611938476562,793.3699340820312,796.1904907226562
1345,786.1171875,792.1611938476562,791.3552856445312,793.3699340820312
1346,781.6849975585938,793.3699340820312,790.1465454101562,792.967041015625
1347,787.3259887695312,799.4139404296875,794.1758422851562,794.981689453125
1348,791.3552856445312,801.8314819335938,792.5640869140625,795.7875366210938
1349,787.7289428710938,793.7728881835938,791.7582397460938,796.1904907226562
1350,784.5054931640625,790.952392578125,796.1904907226562,793.7728881835938
1351,779.6703491210938,794.981689453125,793.3699340820312,792.5640869140625
1352,777.2527465820312,791.7582397460938,786.5201416015625,784.5054931640625
1353,777.6557006835938,788.937744140625,788.5347900390625,778.8644409179688
1354,776.4468994140625,790.5494384765625,800.6226806640625,783.2966918945312
1355,776.8497924804688,792.967041015625,801.4285888671875,777.2527465820312
1356,778.05859375,794.981689453125,795.3846435546875,777.2527465820312
1357,783.6996459960938,794.1758422851562,794.5787353515625,785.7142944335938
1358,786.1171875,793.7728881835938,796.996337890625,787.3259887695312
1359,789.3406372070312,796.5933837890625,799.4139404296875,789.3406372070312
1360,794.1758422851562,797.8021850585938,797.8021850585938,790.1465454101562
1361,792.5640869140625,788.5347900390625,790.952392578125,794.5787353515625
1362,792.1611938476562,791.3552856445312,792.967041015625,799.010986328125
1363,787.7289428710938,797.8021850585938,795.7875366210938,785.7142944335938
1364,781.2820434570312,792.5640869140625,795.7875366210938,777.6557006835938
1365,784.1025390625,789.3406372070312,796.1904907226562,785.3113403320312
1366,791.3552856445312,796.5933837890625,793.7728881835938,783.2966918945312
1367,791.3552856445312,800.6226806640625,796.996337890625,786.5201416015625
1368,790.5494384765625,801.8314819335938,796.996337890625,799.010986328125
1369,793.3699340820312,799.010986328125,801.4285888671875,806.6666870117188
1370,798.2051391601562,797.8021850585938,806.2637329101562,807.87548828125
1371,801.4285888671875,794.981689453125,801.8314819335938,808.2783813476562
1372,796.5933837890625,788.937744140625,801.4285888671875,808.6813354492188
1373,788.1318969726562,790.952392578125,799.4139404296875,801.8314819335938
1374,787.3259887695312,794.5787353515625,795.7875366210938,794.1758422851562
1375,790.1465454101562,790.952392578125,798.6080322265625,796.5933837890625
1376,787.7289428710938,788.1318969726562,801.4285888671875,795.7875366210938
1377,785.7142944335938,788.937744140625,799.8168334960938,792.5640869140625
1378,790.1465454101562,793.3699340820312,799.4139404296875,795.7875366210938
1379,794.1758422851562,794.5787353515625,801.4285888671875,795.7875366210938
1380,786.923095703125,793.3699340820312,801.4285888671875,792.1611938476562
1381,783.6996459960938,788.1318969726562,799.4139404296875,792.5640869140625
1382,789.3406372070312,789.3406372070312,797.8021850585938,792.967041015625
1383,789.7435913085938,801.025634765625,795.3846435546875,794.5787353515625
1384,789.3406372070312,795.7875366210938,785.3113403320312,794.981689453125
1385,786.5201416015625,786.5201416015625,789.7435913085938,787.7289428710938
1386,785.3113403320312,790.1465454101562,794.5787353515625,780.0732421875
1387,788.1318969726562,792.1611938476562,791.7582397460938,782.4908447265625
1388,794.1758422851562,793.3699340820312,791.3552856445312,787.7289428710938
1389,790.1465454101562,791.7582397460938,791.3552856445312,788.937744140625
1390,788.1318969726562,789.7435913085938,796.5933837890625,788.937744140625
1391,796.5933837890625,794.1758422851562,799.8168334960938,791.7582397460938
1392,800.2197875976562,799.4139404296875,796.1904907226562,800.2197875976562
1393,791.3552856445312,795.3846435546875,794.1758422851562,796.5933837890625
1394,791.3552856445312,786.1171875,794.981689453125,792.1611938476562
1395,794.1758422851562,790.952392578125,794.981689453125,796.5933837890625
1396,792.5640869140625,799.8168334960938,788.5347900390625,797.8021850585938
1397,801.025634765625,801.025634765625,793.7728881835938,794.1758422851562
1398,799.8168334960938,793.7728881835938,797.3992919921875,790.1465454101562
1399,796.1904907226562,791.7582397460938,795.7875366210938,792.5640869140625
1400,796.1904907226562,791.3552856445312,793.3699340820312,794.5787353515625
1401,790.5494384765625,796.5933837890625,794.1758422851562,786.1171875
1402,789.7435913085938,798.6080322265625,798.2051391601562,780.4761962890625
1403,791.3552856445312,786.5201416015625,796.996337890625,782.4908447265625
1404,780.0732421875,784.908447265625,797.3992919921875,786.923095703125
1405,769.5970458984375,787.3259887695312,797.3992919921875,786.923095703125
1406,772.8204956054688,784.908447265625,792.967041015625,786.5201416015625
1407,781.2820434570312,788.937744140625,789.3406372070312,791.3552856445312
1408,780.879150390625,792.1611938476562,790.952392578125,792.5640869140625
1409,776.4468994140625,789.7435913085938,792.1611938476562,792.1611938476562
1410,782.893798828125,783.6996459960938,789.3406372070312,790.5494384765625
1411,787.7289428710938,778.8644409179688,790.5494384765625,796.1904907226562
1412,787.3259887695312,784.5054931640625,792.967041015625,794.981689453125
1413,786.923095703125,789.3406372070312,793.7728881835938,790.1465454101562
1414,784.1025390625,786.1171875,796.1904907226562,798.6080322265625
1415,787.7289428710938,786.923095703125,796.5933837890625,799.010986328125
1416,789.3406372070312,791.7582397460938,796.5933837890625,796.996337890625
1417,787.7289428710938,795.7875366210938,794.1758422851562,794.5787353515625
1418,792.5640869140625,795.3846435546875,795.7875366210938,799.4139404296875
1419,788.937744140625,793.3699340820312,798.2051391601562,799.8168334960938
1420,783.2966918945312,792.5640869140625,792.5640869140625,789.7435913085938
1421,799.010986328125,794.981689453125,793.7728881835938,790.1465454101562
1422,798.2051391601562,795.3846435546875,796.1904907226562,791.7582397460938
1423,786.1171875,793.7728881835938,796.5933837890625,802.2344360351562
1424,786.1171875,801.025634765625,799.8168334960938,801.025634765625
1425,778.4615478515625,796.996337890625,795.7875366210938,791.3552856445312
1426,778.05859375,792.967041015625,793.3699340820312,795.3846435546875
1427,785.7142944335938,796.1904907226562,802.2344360351562,801.4285888671875
1428,786.923095703125,797.8021850585938,803.040283203125,802.2344360351562
1429,790.1465454101562,794.5787353515625,794.5787353515625,799.8168334960938
1430,789.3406372070312,786.5201416015625,791.7582397460938,795.7875366210938
1431,789.7435913085938,792.1611938476562,791.7582397460938,790.952392578125
1432,787.3259887695312,794.981689453125,788.5347900390625,782.893798828125
1433,787.7289428710938,790.1465454101562,790.1465454101562,783.2966918945312
1434,790.5494384765625,788.5347900390625,788.937744140625,794.1758422851562
1435,783.2966918945312,790.1465454101562,783.6996459960938,792.1611938476562
1436,786.1171875,792.5640869140625,790.1465454101562,786.923095703125
1437,794.1758422851562,794.1758422851562,798.6080322265625,796.996337890625
1438,792.967041015625,796.1904907226562,795.3846435546875,801.8314819335938
1439,792.5640869140625,800.2197875976562,795.3846435546875,797.3992919921875
1440,786.923095703125,796.996337890625,794.1758422851562,792.967041015625
1441,784.908447265625,796.996337890625,790.952392578125,791.3552856445312
1442,786.1171875,796.1904907226562,790.5494384765625,790.952392578125
1443,786.923095703125,784.908447265625,791.7582397460938,793.7728881835938
1444,784.1025390625,784.1025390625,794.5787353515625,792.5640869140625
1445,776.8497924804688,790.1465454101562,792.967041015625,784.908447265625
1446,779.2673950195312,793.7728881835938,788.1318969726562,790.1465454101562
1447,786.1171875,797.8021850585938,788.5347900390625,795.7875366210938
1448,788.1318969726562,797.3992919921875,792.1611938476562,792.967041015625
1449,785.7142944335938,790.5494384765625,796.5933837890625,796.996337890625
1450,790.952392578125,792.5640869140625,800.2197875976562,798.2051391601562
1451,796.5933837890625,799.010986328125,794.5787353515625,802.2344360351562
1452,796.5933837890625,789.7435913085938,787.7289428710938,802.2344360351562
1453,795.3846435546875,785.7142944335938,786.1171875,796.996337890625
1454,788.1318969726562,787.3259887695312,783.2966918945312,793.3699340820312
1455,790.1465454101562,784.1025390625,785.7142944335938,794.5787353515625
1456,796.5933837890625,792.5640869140625,794.5787353515625,795.3846435546875
1457,796.1904907226562,798.6080322265625,794.981689453125,789.7435913085938
1458,794.1758422851562,793.7728881835938,792.967041015625,789.7435913085938
1459,794.1758422851562,795.7875366210938,795.3846435546875,796.996337890625
1460,796.996337890625,797.3992919921875,796.996337890625,794.1758422851562
1461,796.5933837890625,794.5787353515625,793.7728881835938,800.6226806640625
1462,789.3406372070312,795.3846435546875,792.1611938476562,804.6520385742188
1463,786.923095703125,797.3992919921875,796.1904907226562,796.5933837890625
1464,791.3552856445312,797.3992919921875,796.5933837890625,795.7875366210938
1465,791.3552856445312,797.3992919921875,795.3846435546875,794.981689453125
1466,790.5494384765625,797.3992919921875,797.3992919921875,789.7435913085938
1467,792.5640869140625,798.6080322265625,801.025634765625,788.1318969726562
1468,792.1611938476562,797.3992919921875,804.6520385742188,792.967041015625
1469,790.5494384765625,796.1904907226562,801.8314819335938,796.1904907226562
1470,785.3113403320312,801.025634765625,798.2051391601562,792.967041015625
1471,786.1171875,805.8607788085938,801.025634765625,790.5494384765625
1472,785.7142944335938,792.967041015625,801.4285888671875,789.7435913085938
1473,783.6996459960938,789.3406372070312,797.8021850585938,798.2051391601562
1474,782.087890625,795.7875366210938,796.996337890625,792.1611938476562
1475,778.4615478515625,789.7435913085938,796.996337890625,782.893798828125
1476,780.4761962890625,790.952392578125,790.1465454101562,792.1611938476562
1477,784.908447265625,792.5640869140625,789.7435913085938,789.7435913085938
1478,785.3113403320312,787.7289428710938,792.1611938476562,785.7142944335938
1479,790.5494384765625,789.3406372070312,792.967041015625,790.1465454101562
1480,795.3846435546875,790.952392578125,796.996337890625,794.981689453125
1481,795.7875366210938,790.5494384765625,798.2051391601562,798.2051391601562
1482,791.3552856445312,790.1465454101562,795.7875366210938,796.996337890625
1483,792.5640869140625,796.1904907226562,786.923095703125,791.7582397460938
1484,792.5640869140625,799.8168334960938,787.7289428710938,796.1904907226562
1485,788.1318969726562,799.8168334960938,794.981689453125,797.3992919921875
1486,788.937744140625,796.996337890625,794.981689453125,796.5933837890625
1487,788.937744140625,788.937744140625,792.5640869140625,799.8168334960938
1488,786.923095703125,789.7435913085938,794.1758422851562,795.3846435546875
1489,792.967041015625,793.7728881835938,799.8168334960938,793.7728881835938
1490,795.7875366210938,795.3846435546875,801.025634765625,796.1904907226562
1491,785.7142944335938,791.3552856445312,798.6080322265625,795.7875366210938
1492,787.3259887695312,792.1611938476562,797.8021850585938,794.1758422851562
1493,793.3699340820312,790.1465454101562,798.6080322265625,792.967041015625
1494,792.5640869140625,791.3552856445312,796.1904907226562,790.5494384765625
1495,786.1171875,799.010986328125,794.1758422851562,791.3552856445312
1496,785.7142944335938,797.3992919921875,798.2051391601562,801.4285888671875
1497,791.7582397460938,797.3992919921875,798.2051391601562,793.7728881835938
1498,792.5640869140625,797.8021850585938,795.3846435546875,785.3113403320312
1499,791.7582397460938,794.1758422851562,792.5640869140625,791.3552856445312
1500,796.1904907226562,791.7582397460938,796.996337890625,796.5933837890625
1501,795.7875366210938,792.967041015625,796.996337890625,800.2197875976562
1502,795.7875366210938,794.5787353515625,797.8021850585938,801.8314819335938
1503,795.7875366210938,791.7582397460938,799.010986328125,801.4285888671875
1504,790.1465454101562,791.7582397460938,793.7728881835938,796.1904907226562
1505,787.3259887695312,789.7435913085938,794.1758422851562,794.981689453125
1506,786.5201416015625,787.7289428710938,791.7582397460938,800.6226806640625
1507,790.1465454101562,796.1904907226562,784.908447265625,803.8461303710938
1508,790.952392578125,801.025634765625,789.3406372070312,800.2197875976562
1509,789.7435913085938,800.6226806640625,797.3992919921875,798.2051391601562
1510,791.3552856445312,800.2197875976562,797.3992919921875,797.8021850585938
1511,792.5640869140625,793.7728881835938,796.5933837890625,792.1611938476562
1512,792.1611938476562,792.5640869140625,799.4139404296875,795.3846435546875
1513,790.5494384765625,791.7582397460938,800.2197875976562,797.3992919921875
1514,794.5787353515625,785.3113403320312,796.996337890625,800.2197875976562
1515,790.952392578125,787.7289428710938,796.5933837890625,802.6373901367188
1516,782.087890625,792.1611938476562,798.2051391601562,796.1904907226562
1517,782.4908447265625,785.3113403320312,794.5787353515625,791.3552856445312
1518,784.5054931640625,780.879150390625,790.952392578125,792.5640869140625
1519,782.893798828125,782.087890625,792.967041015625,795.7875366210938
1520,781.6849975585938,793.7728881835938,792.5640869140625,784.908447265625
1521,782.893798828125,799.4139404296875,789.3406372070312,781.2820434570312
1522,777.6557006835938,792.5640869140625,789.3406372070312,784.1025390625
1523,780.4761962890625,784.1025390625,787.7289428710938,778.4615478515625
1524,787.7289428710938,788.5347900390625,786.923095703125,780.0732421875
1525,784.5054931640625,795.7875366210938,791.3552856445312,784.5054931640625
1526,784.5054931640625,790.952392578125,794.1758422851562,787.7289428710938
1527,785.3113403320312,794.1758422851562,794.981689453125,788.937744140625
1528,782.4908447265625,795.3846435546875,795.3846435546875,786.1171875
1529,782.4908447265625,788.937744140625,796.1904907226562,783.2966918945312
1530,784.5054931640625,786.5201416015625,796.1904907226562,784.1025390625
1531,782.4908447265625,785.7142944335938,796.1904907226562,785.3113403320312
1532,775.6410522460938,788.1318969726562,801.8314819335938,786.5201416015625
1533,777.6557006835938,794.981689453125,801.025634765625,790.5494384765625
1534,786.5201416015625,796.5933837890625,793.7728881835938,792.967041015625
1535,785.7142944335938,790.5494384765625,795.7875366210938,788.1318969726562
1536,776.8497924804688,792.5640869140625,796.996337890625,780.4761962890625
1537,772.0146484375,794.5787353515625,790.952392578125,776.8497924804688
1538,776.8497924804688,789.7435913085938,792.967041015625,781.2820434570312
1539,784.908447265625,796.1904907226562,794.1758422851562,786.923095703125
1540,787.7289428710938,801.8314819335938,792.1611938476562,785.3113403320312
1541,788.937744140625,792.5640869140625,788.937744140625,785.3113403320312
1542,784.908447265625,790.1465454101562,788.937744140625,789.7435913085938
1543,784.1025390625,792.5640869140625,790.5494384765625,790.1465454101562
1544,789.3406372070312,790.5494384765625,788.1318969726562,784.908447265625
1545,790.1465454101562,781.2820434570312,789.7435913085938,786.923095703125
1546,789.3406372070312,786.923095703125,788.1318969726562,794.1758422851562
1547,788.5347900390625,803.4432373046875,789.7435913085938,792.5640869140625
1548,789.3406372070312,806.2637329101562,796.1904907226562,793.3699340820312
1549,789.3406372070312,799.010986328125,791.7582397460938,792.1611938476562
1550,787.7289428710938,792.5640869140625,790.952392578125,790.1465454101562
1551,784.5054931640625,792.967041015625,793.7728881835938,784.908447265625
1552,780.879150390625,795.7875366210938,792.1611938476562,782.087890625
1553,783.6996459960938,794.981689453125,789.3406372070312,792.1611938476562
1554,786.5201416015625,789.7435913085938,785.3113403320312,794.1758422851562
1555,784.1025390625,790.5494384765625,794.1758422851562,792.967041015625
1556,785.7142944335938,796.1904907226562,798.6080322265625,798.2051391601562
1557,791.3552856445312,794.5787353515625,795.7875366210938,809.4871826171875
1558,794.1758422851562,786.1171875,799.4139404296875,811.098876953125
1559,793.3699340820312,792.5640869140625,799.8168334960938,803.4432373046875
1560,797.8021850585938,796.5933837890625,800.6226806640625,803.4432373046875
1561,799.8168334960938,797.3992919921875,801.4285888671875,809.89013671875
1562,792.1611938476562,799.8168334960938,794.1758422851562,806.2637329101562
1563,789.3406372070312,794.981689453125,794.1758422851562,800.6226806640625
1564,790.1465454101562,787.7289428710938,795.7875366210938,795.7875366210938
1565,790.1465454101562,784.908447265625,793.3699340820312,794.5787353515625
1566,790.952392578125,786.923095703125,791.7582397460938,796.1904907226562
1567,789.7435913085938,788.937744140625,791.7582397460938,791.7582397460938
1568,792.967041015625,794.1758422851562,792.967041015625,792.5640869140625
1569,796.5933837890625,798.6080322265625,797.3992919921875,797.8021850585938
1570,794.1758422851562,787.3259887695312,795.3846435546875,792.1611938476562
1571,796.1904907226562,785.3113403320312,796.5933837890625,794.5787353515625
1572,796.1904907226562,797.3992919921875,797.8021850585938,796.5933837890625
1573,788.1318969726562,794.981689453125,792.1611938476562,793.3699340820312
1574,787.3259887695312,792.5640869140625,795.3846435546875,799.4139404296875
1575,789.3406372070312,791.7582397460938,798.2051391601562,799.4139404296875
1576,791.3552856445312,793.7728881835938,793.3699340820312,799.8168334960938
1577,787.7289428710938,791.3552856445312,794.1758422851562,803.040283203125
1578,786.1171875,790.952392578125,796.1904907226562,794.1758422851562
1579,790.1465454101562,788.937744140625,795.7875366210938,793.3699340820312
1580,789.7435913085938,789.7435913085938,795.7875366210938,801.8314819335938
