timestamp,RAW_TP9,RAW_AF7,RAW_AF8,RAW_TP10
1,793.7728881835938,790.5494384765625,804.2490844726562,781.2820434570312
2,799.8168334960938,789.7435913085938,803.040283203125,790.1465454101562
3,806.6666870117188,786.5201416015625,803.040283203125,805.4578857421875
4,811.90478515625,788.5347900390625,800.2197875976562,807.87548828125
5,807.4725341796875,791.7582397460938,798.6080322265625,796.996337890625
6,807.87548828125,792.5640869140625,798.6080322265625,800.2197875976562
7,807.87548828125,787.3259887695312,798.6080322265625,803.040283203125
8,799.010986328125,785.3113403320312,797.3992919921875,801.025634765625
9,789.7435913085938,786.1171875,794.1758422851562,798.2051391601562
10,793.7728881835938,782.893798828125,794.981689453125,809.084228515625
11,800.6226806640625,781.2820434570312,797.8021850585938,816.7399291992188
12,805.8607788085938,784.5054931640625,796.996337890625,813.5164794921875
13,809.084228515625,789.3406372070312,800.6226806640625,815.93408203125
14,808.2783813476562,794.981689453125,807.4725341796875,819.1575317382812
15,812.7106323242188,791.7582397460938,804.6520385742188,815.5311279296875
16,813.91943359375,788.1318969726562,800.2197875976562,812.3076782226562
17,813.113525390625,790.1465454101562,800.2197875976562,809.4871826171875
18,810.2930297851562,790.952392578125,798.6080322265625,811.098876953125
19,801.8314819335938,792.967041015625,793.3699340820312,805.054931640625
20,803.040283203125,790.5494384765625,789.7435913085938,795.7875366210938
21,803.4432373046875,787.3259887695312,794.981689453125,792.967041015625
22,796.996337890625,782.893798828125,796.1904907226562,787.7289428710938
23,798.6080322265625,780.0732421875,792.5640869140625,788.937744140625
24,792.967041015625,780.0732421875,791.3552856445312,781.6849975585938
25,790.5494384765625,783.6996459960938,789.7435913085938,774.4322509765625
26,794.981689453125,788.937744140625,790.952392578125,775.2380981445312
27,793.3699340820312,792.1611938476562,790.1465454101562,782.4908447265625
28,791.7582397460938,791.7582397460938,791.7582397460938,782.087890625
29,793.3699340820312,790.1465454101562,792.1611938476562,783.2966918945312
30,795.3846435546875,790.5494384765625,786.1171875,789.3406372070312
31,794.5787353515625,792.1611938476562,787.3259887695312,790.1465454101562
32,788.1318969726562,796.996337890625,786.923095703125,792.5640869140625
33,788.937744140625,798.6080322265625,788.5347900390625,796.1904907226562
34,795.3846435546875,801.8314819335938,796.1904907226562,803.040283203125
35,795.7875366210938,799.8168334960938,798.6080322265625,800.2197875976562
36,797.3992919921875,794.5787353515625,798.6080322265625,797.8021850585938
37,795.3846435546875,793.7728881835938,793.7728881835938,801.8314819335938
38,796.5933837890625,793.3699340820312,790.1465454101562,804.6520385742188
39,795.7875366210938,794.1758422851562,790.952392578125,800.2197875976562
40,796.5933837890625,794.1758422851562,795.7875366210938,799.010986328125
41,803.040283203125,793.7728881835938,798.2051391601562,803.8461303710938
42,799.4139404296875,791.3552856445312,792.5640869140625,804.6520385742188
43,800.6226806640625,788.1318969726562,792.1611938476562,796.5933837890625
44,790.952392578125,788.1318969726562,795.7875366210938,784.908447265625
45,777.6557006835938,788.5347900390625,790.1465454101562,779.6703491210938
46,775.2380981445312,788.1318969726562,789.3406372070312,776.0439453125
47,782.087890625,790.1465454101562,795.3846435546875,777.2527465820312
48,783.6996459960938,789.7435913085938,792.967041015625,774.4322509765625
49,778.4615478515625,793.3699340820312,789.3406372070312,774.8351440429688
50,781.2820434570312,795.3846435546875,792.1611938476562,782.087890625
51,786.923095703125,789.7435913085938,789.3406372070312,780.879150390625
52,789.3406372070312,783.2966918945312,784.908447265625,779.6703491210938
53,791.3552856445312,786.923095703125,790.952392578125,789.3406372070312
54,784.1025390625,789.7435913085938,790.5494384765625,788.5347900390625
55,773.2234497070312,790.1465454101562,786.923095703125,774.8351440429688
56,777.2527465820312,785.3113403320312,786.1171875,775.6410522460938
57,782.4908447265625,781.2820434570312,786.5201416015625,777.6557006835938
58,785.7142944335938,785.3113403320312,789.3406372070312,779.6703491210938
59,790.1465454101562,787.3259887695312,790.952392578125,785.7142944335938
60,784.1025390625,787.3259887695312,785.3113403320312,781.6849975585938
61,787.3259887695312,788.5347900390625,784.908447265625,785.3113403320312
62,792.967041015625,791.7582397460938,784.1025390625,788.1318969726562
63,792.1611938476562,794.5787353515625,782.893798828125,788.1318969726562
64,791.7582397460938,794.981689453125,786.1171875,785.3113403320312
65,783.6996459960938,793.7728881835938,784.908447265625,779.6703491210938
66,783.6996459960938,792.967041015625,784.908447265625,784.1025390625
67,789.7435913085938,794.1758422851562,788.937744140625,786.923095703125
68,790.952392578125,798.6080322265625,792.967041015625,786.5201416015625
69,785.3113403320312,797.8021850585938,790.1465454101562,786.5201416015625
70,776.4468994140625,789.7435913085938,788.1318969726562,776.4468994140625
71,777.2527465820312,784.908447265625,794.1758422851562,779.6703491210938
72,782.087890625,785.7142944335938,796.996337890625,787.7289428710938
73,785.7142944335938,787.7289428710938,796.996337890625,784.1025390625
74,787.7289428710938,782.4908447265625,794.981689453125,780.4761962890625
75,785.7142944335938,781.6849975585938,796.5933837890625,781.2820434570312
76,786.923095703125,789.7435913085938,796.996337890625,787.7289428710938
77,788.1318969726562,789.7435913085938,792.5640869140625,792.1611938476562
78,791.3552856445312,787.7289428710938,794.5787353515625,791.7582397460938
79,793.7728881835938,787.7289428710938,795.3846435546875,792.1611938476562
80,786.5201416015625,783.6996459960938,790.5494384765625,784.908447265625
81,787.7289428710938,787.3259887695312,791.3552856445312,777.6557006835938
82,793.3699340820312,791.3552856445312,792.5640869140625,784.5054931640625
83,792.5640869140625,790.5494384765625,791.3552856445312,784.1025390625
84,791.7582397460938,790.5494384765625,790.5494384765625,781.2820434570312
85,792.1611938476562,790.5494384765625,785.7142944335938,778.05859375
86,788.5347900390625,792.1611938476562,782.087890625,774.8351440429688
87,793.7728881835938,794.5787353515625,785.3113403320312,779.2673950195312
88,796.5933837890625,792.967041015625,787.7289428710938,776.0439453125
89,795.7875366210938,792.967041015625,790.1465454101562,775.6410522460938
90,794.1758422851562,796.5933837890625,789.7435913085938,781.2820434570312
91,788.1318969726562,798.6080322265625,792.1611938476562,788.1318969726562
92,789.3406372070312,796.996337890625,790.5494384765625,784.1025390625
93,788.1318969726562,796.1904907226562,782.893798828125,774.8351440429688
94,792.967041015625,798.2051391601562,789.3406372070312,778.8644409179688
95,792.967041015625,796.996337890625,796.1904907226562,785.7142944335938
96,788.5347900390625,792.5640869140625,792.1611938476562,781.2820434570312
97,793.3699340820312,791.3552856445312,789.7435913085938,783.2966918945312
98,792.5640869140625,792.967041015625,790.952392578125,784.1025390625
99,792.967041015625,786.923095703125,784.5054931640625,777.2527465820312
100,790.952392578125,786.5201416015625,782.087890625,779.6703491210938
101,786.5201416015625,788.937744140625,784.1025390625,780.4761962890625
102,786.5201416015625,783.2966918945312,782.893798828125,783.6996459960938
103,788.1318969726562,784.5054931640625,783.2966918945312,788.937744140625
104,789.3406372070312,789.7435913085938,788.1318969726562,788.5347900390625
105,788.5347900390625,787.7289428710938,793.7728881835938,783.2966918945312
106,792.5640869140625,783.2966918945312,796.1904907226562,787.3259887695312
107,790.1465454101562,784.1025390625,794.1758422851562,791.7582397460938
108,785.7142944335938,788.5347900390625,793.3699340820312,790.1465454101562
109,789.7435913085938,788.5347900390625,794.981689453125,793.3699340820312
110,790.5494384765625,789.3406372070312,796.5933837890625,796.996337890625
111,784.5054931640625,786.5201416015625,792.5640869140625,789.3406372070312
112,782.893798828125,787.3259887695312,791.7582397460938,788.1318969726562
113,785.7142944335938,786.923095703125,794.981689453125,793.7728881835938
114,788.937744140625,785.3113403320312,791.3552856445312,793.3699340820312
115,792.5640869140625,786.1171875,789.3406372070312,790.5494384765625
116,790.1465454101562,780.879150390625,790.5494384765625,790.5494384765625
117,781.6849975585938,777.2527465820312,790.1465454101562,784.908447265625
118,786.1171875,783.2966918945312,789.7435913085938,788.1318969726562
119,792.967041015625,790.1465454101562,792.5640869140625,790.5494384765625
120,786.5201416015625,790.1465454101562,794.1758422851562,785.7142944335938
121,782.087890625,786.923095703125,790.1465454101562,785.3113403320312
122,782.893798828125,786.5201416015625,788.937744140625,787.3259887695312
123,779.6703491210938,788.5347900390625,789.7435913085938,785.3113403320312
124,782.087890625,791.7582397460938,789.7435913085938,782.893798828125
125,785.3113403320312,786.1171875,792.5640869140625,789.3406372070312
126,785.7142944335938,784.1025390625,790.1465454101562,787.7289428710938
127,795.3846435546875,793.7728881835938,785.3113403320312,787.3259887695312
128,793.7728881835938,797.3992919921875,790.1465454101562,789.7435913085938
129,787.3259887695312,790.1465454101562,792.1611938476562,787.3259887695312
130,787.7289428710938,784.908447265625,790.5494384765625,787.3259887695312
131,787.7289428710938,789.3406372070312,793.3699340820312,788.1318969726562
132,793.7728881835938,792.1611938476562,797.3992919921875,794.5787353515625
133,800.6226806640625,788.937744140625,799.8168334960938,799.4139404296875
134,803.040283203125,786.5201416015625,799.010986328125,802.6373901367188
135,798.6080322265625,790.1465454101562,796.1904907226562,794.5787353515625
136,797.3992919921875,793.7728881835938,791.7582397460938,786.923095703125
137,793.7728881835938,792.5640869140625,792.5640869140625,796.1904907226562
138,788.937744140625,792.5640869140625,796.1904907226562,804.2490844726562
139,793.7728881835938,792.967041015625,796.1904907226562,802.2344360351562
140,794.981689453125,794.5787353515625,794.981689453125,800.2197875976562
141,797.3992919921875,794.981689453125,792.967041015625,803.8461303710938
142,791.7582397460938,789.7435913085938,791.3552856445312,798.6080322265625
143,791.7582397460938,788.937744140625,791.3552856445312,789.3406372070312
144,802.2344360351562,792.967041015625,793.3699340820312,794.981689453125
145,802.2344360351562,794.1758422851562,795.3846435546875,796.1904907226562
146,796.996337890625,795.7875366210938,796.1904907226562,788.937744140625
147,793.7728881835938,794.981689453125,790.952392578125,792.967041015625
148,796.1904907226562,792.5640869140625,793.7728881835938,792.967041015625
149,794.1758422851562,789.3406372070312,796.5933837890625,788.937744140625
150,795.7875366210938,790.1465454101562,792.5640869140625,792.967041015625
151,799.8168334960938,790.1465454101562,794.981689453125,794.1758422851562
152,794.981689453125,790.5494384765625,792.967041015625,790.5494384765625
153,790.1465454101562,800.6226806640625,790.5494384765625,792.967041015625
154,794.1758422851562,804.6520385742188,794.981689453125,793.3699340820312
155,798.6080322265625,799.8168334960938,796.996337890625,790.1465454101562
156,799.010986328125,799.010986328125,793.7728881835938,789.7435913085938
157,796.996337890625,798.6080322265625,793.3699340820312,790.952392578125
158,785.3113403320312,790.1465454101562,792.1611938476562,784.1025390625
159,780.0732421875,787.3259887695312,788.1318969726562,784.908447265625
160,785.7142944335938,788.5347900390625,787.7289428710938,794.981689453125
161,785.3113403320312,789.3406372070312,788.5347900390625,794.1758422851562
162,782.4908447265625,789.3406372070312,791.3552856445312,790.5494384765625
163,785.3113403320312,788.5347900390625,791.3552856445312,789.7435913085938
164,788.937744140625,789.3406372070312,793.7728881835938,793.3699340820312
165,791.3552856445312,790.952392578125,797.8021850585938,795.7875366210938
166,795.3846435546875,792.1611938476562,798.2051391601562,792.1611938476562
167,798.2051391601562,793.3699340820312,799.8168334960938,791.7582397460938
168,790.1465454101562,790.1465454101562,794.981689453125,788.1318969726562
169,788.937744140625,786.923095703125,786.5201416015625,788.1318969726562
170,796.1904907226562,787.7289428710938,784.1025390625,790.952392578125
171,796.5933837890625,789.3406372070312,786.5201416015625,788.937744140625
172,792.5640869140625,788.5347900390625,784.5054931640625,784.5054931640625
173,794.5787353515625,794.1758422851562,786.5201416015625,784.5054931640625
174,797.8021850585938,796.1904907226562,788.5347900390625,790.1465454101562
175,794.1758422851562,789.3406372070312,784.908447265625,791.7582397460938
176,792.967041015625,786.1171875,786.5201416015625,793.3699340820312
177,788.5347900390625,788.937744140625,783.2966918945312,787.3259887695312
178,788.937744140625,795.3846435546875,787.7289428710938,792.1611938476562
179,795.7875366210938,794.1758422851562,790.952392578125,796.996337890625
180,793.3699340820312,790.952392578125,786.5201416015625,790.5494384765625
181,790.1465454101562,790.952392578125,786.923095703125,786.1171875
182,791.3552856445312,790.1465454101562,787.7289428710938,785.7142944335938
183,788.937744140625,787.7289428710938,789.7435913085938,782.4908447265625
184,785.3113403320312,787.7289428710938,791.3552856445312,778.4615478515625
185,785.7142944335938,788.1318969726562,790.5494384765625,780.4761962890625
186,789.3406372070312,786.5201416015625,792.1611938476562,779.6703491210938
187,791.3552856445312,786.5201416015625,792.967041015625,782.4908447265625
188,786.923095703125,788.1318969726562,796.5933837890625,784.5054931640625
189,789.3406372070312,787.3259887695312,797.8021850585938,778.8644409179688
190,794.5787353515625,788.5347900390625,792.967041015625,775.6410522460938
191,793.7728881835938,795.3846435546875,792.967041015625,778.8644409179688
192,796.1904907226562,794.5787353515625,794.5787353515625,778.4615478515625
193,791.3552856445312,792.5640869140625,793.3699340820312,778.05859375
194,782.4908447265625,792.1611938476562,790.5494384765625,779.2673950195312
195,785.3113403320312,791.3552856445312,794.1758422851562,781.2820434570312
196,796.996337890625,796.996337890625,795.7875366210938,792.5640869140625
197,797.3992919921875,798.2051391601562,793.3699340820312,794.1758422851562
198,792.1611938476562,796.996337890625,793.3699340820312,793.7728881835938
199,790.952392578125,800.2197875976562,796.5933837890625,796.996337890625
200,787.3259887695312,799.8168334960938,795.3846435546875,791.7582397460938
201,787.3259887695312,796.1904907226562,792.967041015625,786.5201416015625
202,790.952392578125,792.5640869140625,793.3699340820312,789.3406372070312
203,785.3113403320312,790.952392578125,792.5640869140625,793.3699340820312
204,778.05859375,789.7435913085938,788.5347900390625,784.908447265625
205,780.0732421875,788.5347900390625,785.3113403320312,780.4761962890625
206,786.5201416015625,788.5347900390625,784.5054931640625,784.5054931640625
207,789.7435913085938,786.923095703125,784.5054931640625,787.3259887695312
208,788.937744140625,787.7289428710938,785.7142944335938,784.5054931640625
209,790.5494384765625,789.7435913085938,786.1171875,785.3113403320312
210,790.5494384765625,788.937744140625,788.1318969726562,787.7289428710938
211,795.3846435546875,787.3259887695312,789.7435913085938,787.3259887695312
212,795.3846435546875,785.3113403320312,785.7142944335938,783.2966918945312
213,791.7582397460938,785.7142944335938,784.5054931640625,782.087890625
214,788.1318969726562,782.893798828125,783.2966918945312,785.7142944335938
215,782.4908447265625,781.6849975585938,784.5054931640625,787.7289428710938
216,786.1171875,782.087890625,783.6996459960938,785.3113403320312
217,792.5640869140625,780.879150390625,783.6996459960938,784.5054931640625
218,792.5640869140625,783.6996459960938,792.5640869140625,788.1318969726562
219,788.937744140625,783.2966918945312,794.1758422851562,789.7435913085938
220,792.1611938476562,783.6996459960938,790.952392578125,792.5640869140625
221,795.3846435546875,789.3406372070312,794.1758422851562,794.1758422851562
222,790.5494384765625,788.937744140625,794.981689453125,795.7875366210938
223,791.3552856445312,782.4908447265625,793.7728881835938,797.3992919921875
224,791.7582397460938,786.5201416015625,799.010986328125,794.5787353515625
225,793.7728881835938,788.937744140625,799.4139404296875,797.3992919921875
226,797.3992919921875,786.1171875,794.981689453125,795.7875366210938
227,791.7582397460938,784.5054931640625,790.5494384765625,789.3406372070312
228,790.1465454101562,787.3259887695312,788.937744140625,792.5640869140625
229,788.937744140625,785.7142944335938,790.1465454101562,790.952392578125
230,784.5054931640625,785.7142944335938,788.937744140625,782.893798828125
231,790.5494384765625,788.1318969726562,790.5494384765625,781.2820434570312
232,796.1904907226562,788.5347900390625,792.967041015625,786.1171875
233,788.1318969726562,786.923095703125,794.981689453125,787.3259887695312
234,777.2527465820312,780.879150390625,791.3552856445312,780.879150390625
235,772.0146484375,778.05859375,785.3113403320312,773.2234497070312
236,774.029296875,780.879150390625,784.1025390625,771.6116943359375
237,781.2820434570312,780.4761962890625,784.5054931640625,774.029296875
238,782.4908447265625,779.6703491210938,788.5347900390625,780.0732421875
239,780.879150390625,787.3259887695312,789.3406372070312,786.923095703125
240,780.0732421875,786.1171875,792.1611938476562,791.3552856445312
241,787.7289428710938,782.4908447265625,795.7875366210938,793.7728881835938
242,793.3699340820312,784.5054931640625,792.967041015625,790.1465454101562
243,788.1318969726562,786.923095703125,790.952392578125,785.3113403320312
244,789.3406372070312,789.3406372070312,790.952392578125,790.952392578125
245,789.7435913085938,787.7289428710938,790.5494384765625,794.1758422851562
246,790.5494384765625,784.908447265625,792.967041015625,790.5494384765625
247,795.3846435546875,788.1318969726562,795.7875366210938,787.7289428710938
248,786.5201416015625,789.7435913085938,795.7875366210938,786.923095703125
249,782.4908447265625,789.3406372070312,794.981689453125,790.5494384765625
250,784.5054931640625,786.5201416015625,788.937744140625,780.879150390625
251,783.2966918945312,789.7435913085938,789.3406372070312,778.05859375
252,786.5201416015625,789.7435913085938,792.1611938476562,781.6849975585938
253,792.5640869140625,788.5347900390625,788.1318969726562,781.6849975585938
254,793.7728881835938,794.981689453125,792.1611938476562,782.893798828125
255,788.5347900390625,794.981689453125,796.996337890625,784.5054931640625
256,783.2966918945312,788.5347900390625,789.3406372070312,780.4761962890625
257,786.923095703125,786.1171875,790.1465454101562,781.6849975585938
258,788.937744140625,792.5640869140625,792.5640869140625,785.7142944335938
259,782.087890625,797.3992919921875,786.923095703125,783.6996459960938
260,776.4468994140625,788.937744140625,784.1025390625,776.4468994140625
261,784.908447265625,786.5201416015625,782.893798828125,774.029296875
262,793.7728881835938,791.7582397460938,789.3406372070312,778.8644409179688
263,794.1758422851562,791.3552856445312,792.1611938476562,786.5201416015625
264,792.967041015625,790.5494384765625,793.3699340820312,794.981689453125
265,787.3259887695312,794.1758422851562,802.6373901367188,796.5933837890625
266,788.5347900390625,798.6080322265625,801.4285888671875,796.5933837890625
267,794.1758422851562,797.3992919921875,797.8021850585938,802.6373901367188
268,794.1758422851562,794.1758422851562,801.025634765625,805.8607788085938
269,787.3259887695312,792.5640869140625,801.025634765625,799.4139404296875
270,784.5054931640625,790.5494384765625,797.3992919921875,797.8021850585938
271,783.6996459960938,790.952392578125,796.1904907226562,799.010986328125
272,784.1025390625,793.7728881835938,797.8021850585938,795.7875366210938
273,786.5201416015625,792.967041015625,795.7875366210938,785.7142944335938
274,783.2966918945312,786.923095703125,789.3406372070312,778.4615478515625
275,782.087890625,787.3259887695312,786.5201416015625,779.2673950195312
276,776.0439453125,788.5347900390625,786.923095703125,775.6410522460938
277,771.2088012695312,784.1025390625,791.3552856445312,767.9853515625
278,778.05859375,784.5054931640625,792.1611938476562,769.1941528320312
279,784.1025390625,786.5201416015625,793.7728881835938,775.6410522460938
280,784.1025390625,791.3552856445312,794.981689453125,778.05859375
281,789.7435913085938,790.952392578125,792.1611938476562,778.4615478515625
282,792.1611938476562,791.7582397460938,793.3699340820312,777.2527465820312
283,792.1611938476562,794.1758422851562,793.7728881835938,787.3259887695312
284,791.7582397460938,791.7582397460938,792.967041015625,794.981689453125
285,783.2966918945312,788.1318969726562,787.3259887695312,783.2966918945312
286,780.879150390625,786.923095703125,782.087890625,782.893798828125
287,782.4908447265625,791.3552856445312,786.5201416015625,788.937744140625
288,782.893798828125,788.937744140625,788.1318969726562,785.7142944335938
289,782.4908447265625,786.5201416015625,787.3259887695312,782.4908447265625
290,777.2527465820312,786.923095703125,788.937744140625,782.087890625
291,776.4468994140625,788.937744140625,791.3552856445312,784.1025390625
292,780.879150390625,790.5494384765625,791.3552856445312,784.908447265625
293,787.7289428710938,793.7728881835938,795.7875366210938,791.3552856445312
294,787.3259887695312,796.5933837890625,798.2051391601562,799.4139404296875
295,786.1171875,794.1758422851562,793.3699340820312,798.2051391601562
296,780.4761962890625,791.7582397460938,794.5787353515625,791.7582397460938
297,780.0732421875,795.7875366210938,795.3846435546875,794.1758422851562
298,783.2966918945312,795.7875366210938,797.3992919921875,796.1904907226562
299,780.4761962890625,790.952392578125,796.1904907226562,787.7289428710938
300,784.1025390625,787.3259887695312,791.3552856445312,781.6849975585938
301,779.2673950195312,787.3259887695312,795.3846435546875,783.2966918945312
302,777.6557006835938,791.7582397460938,795.7875366210938,788.1318969726562
303,784.1025390625,788.937744140625,794.5787353515625,790.952392578125
304,787.7289428710938,784.5054931640625,793.3699340820312,788.1318969726562
305,792.1611938476562,784.5054931640625,791.3552856445312,790.952392578125
306,792.967041015625,788.5347900390625,796.5933837890625,796.996337890625
307,791.7582397460938,790.1465454101562,799.010986328125,796.1904907226562
308,796.1904907226562,790.5494384765625,798.6080322265625,791.7582397460938
309,795.3846435546875,789.3406372070312,800.6226806640625,786.1171875
310,793.7728881835938,786.5201416015625,798.2051391601562,787.7289428710938
311,795.7875366210938,785.3113403320312,799.4139404296875,788.1318969726562
312,794.5787353515625,785.3113403320312,801.8314819335938,788.1318969726562
313,787.3259887695312,783.6996459960938,801.025634765625,792.5640869140625
314,782.087890625,782.087890625,798.6080322265625,787.3259887695312
315,780.879150390625,787.3259887695312,801.025634765625,780.0732421875
316,781.2820434570312,789.7435913085938,803.040283203125,783.2966918945312
317,785.3113403320312,790.5494384765625,803.4432373046875,791.3552856445312
318,792.5640869140625,794.981689453125,805.054931640625,791.3552856445312
319,796.996337890625,796.1904907226562,802.2344360351562,793.3699340820312
320,798.2051391601562,797.8021850585938,800.2197875976562,795.3846435546875
321,794.5787353515625,794.981689453125,796.996337890625,795.3846435546875
322,792.1611938476562,792.967041015625,797.8021850585938,798.2051391601562
323,793.7728881835938,793.7728881835938,802.2344360351562,793.3699340820312
324,795.3846435546875,791.3552856445312,799.4139404296875,790.1465454101562
325,794.981689453125,789.3406372070312,798.6080322265625,788.937744140625
326,793.3699340820312,786.923095703125,797.8021850585938,786.5201416015625
327,790.1465454101562,789.3406372070312,796.5933837890625,784.1025390625
328,786.1171875,792.5640869140625,796.996337890625,783.2966918945312
329,788.1318969726562,792.967041015625,790.952392578125,782.4908447265625
330,790.952392578125,791.7582397460938,788.937744140625,780.879150390625
331,790.952392578125,789.3406372070312,789.3406372070312,778.4615478515625
332,784.5054931640625,791.3552856445312,789.3406372070312,774.8351440429688
333,786.923095703125,795.3846435546875,787.3259887695312,784.5054931640625
334,792.1611938476562,796.5933837890625,790.5494384765625,789.7435913085938
335,792.967041015625,795.7875366210938,790.952392578125,787.7289428710938
336,797.3992919921875,793.3699340820312,792.967041015625,790.1465454101562
337,791.7582397460938,792.5640869140625,795.3846435546875,789.3406372070312
338,788.5347900390625,791.3552856445312,790.1465454101562,789.7435913085938
339,793.3699340820312,791.7582397460938,790.1465454101562,790.5494384765625
340,797.8021850585938,788.5347900390625,790.1465454101562,787.3259887695312
341,796.1904907226562,787.3259887695312,790.952392578125,781.6849975585938
342,788.1318969726562,789.3406372070312,794.1758422851562,784.908447265625
343,782.4908447265625,786.5201416015625,791.7582397460938,784.908447265625
344,787.3259887695312,788.937744140625,787.7289428710938,786.5201416015625
345,794.981689453125,791.7582397460938,785.7142944335938,793.7728881835938
346,794.1758422851562,790.5494384765625,787.3259887695312,788.1318969726562
347,790.1465454101562,788.937744140625,787.7289428710938,782.4908447265625
348,788.1318969726562,790.5494384765625,783.6996459960938,780.0732421875
349,796.996337890625,795.3846435546875,784.908447265625,786.923095703125
350,803.040283203125,788.937744140625,788.937744140625,791.7582397460938
351,802.6373901367188,786.1171875,790.1465454101562,790.5494384765625
352,793.7728881835938,790.952392578125,787.7289428710938,787.3259887695312
353,789.3406372070312,788.937744140625,790.1465454101562,785.7142944335938
354,797.3992919921875,792.1611938476562,790.5494384765625,790.1465454101562
355,801.4285888671875,796.996337890625,790.5494384765625,793.3699340820312
356,804.2490844726562,796.1904907226562,794.1758422851562,801.4285888671875
357,800.6226806640625,792.967041015625,798.6080322265625,801.4285888671875
358,792.1611938476562,791.3552856445312,796.5933837890625,790.952392578125
359,798.2051391601562,794.5787353515625,793.7728881835938,792.1611938476562
360,802.6373901367188,791.7582397460938,791.7582397460938,792.1611938476562
361,800.2197875976562,792.5640869140625,792.5640869140625,792.5640869140625
362,803.4432373046875,794.5787353515625,796.996337890625,794.981689453125
363,803.4432373046875,790.5494384765625,794.1758422851562,791.7582397460938
364,803.040283203125,782.893798828125,794.5787353515625,791.3552856445312
365,805.4578857421875,778.8644409179688,795.3846435546875,790.1465454101562
366,801.025634765625,788.5347900390625,794.5787353515625,790.1465454101562
367,796.5933837890625,790.5494384765625,791.7582397460938,791.7582397460938
368,792.1611938476562,787.3259887695312,788.937744140625,794.981689453125
369,793.3699340820312,792.967041015625,793.3699340820312,795.7875366210938
370,799.010986328125,796.996337890625,794.1758422851562,796.996337890625
371,798.2051391601562,790.952392578125,792.1611938476562,803.040283203125
372,798.2051391601562,791.7582397460938,794.1758422851562,803.4432373046875
373,799.4139404296875,796.1904907226562,796.996337890625,801.025634765625
374,796.996337890625,796.5933837890625,798.6080322265625,801.025634765625
375,792.5640869140625,794.1758422851562,796.5933837890625,796.996337890625
376,791.7582397460938,789.3406372070312,792.5640869140625,792.1611938476562
377,790.952392578125,789.3406372070312,789.3406372070312,792.1611938476562
378,790.5494384765625,792.1611938476562,789.7435913085938,792.5640869140625
379,788.937744140625,795.3846435546875,789.3406372070312,796.996337890625
380,786.5201416015625,792.1611938476562,787.7289428710938,794.981689453125
381,782.893798828125,788.937744140625,787.3259887695312,784.5054931640625
382,782.893798828125,786.5201416015625,787.3259887695312,786.923095703125
383,784.1025390625,786.5201416015625,786.1171875,789.7435913085938
384,782.893798828125,790.1465454101562,784.5054931640625,788.937744140625
385,787.7289428710938,788.1318969726562,787.7289428710938,792.5640869140625
386,793.7728881835938,786.5201416015625,791.7582397460938,797.8021850585938
387,793.3699340820312,791.3552856445312,791.3552856445312,800.6226806640625
388,787.7289428710938,790.952392578125,789.7435913085938,798.2051391601562
389,787.7289428710938,789.3406372070312,793.3699340820312,796.5933837890625
390,791.7582397460938,791.7582397460938,794.1758422851562,796.996337890625
391,796.996337890625,790.952392578125,794.1758422851562,796.1904907226562
392,794.5787353515625,789.3406372070312,797.8021850585938,796.1904907226562
393,786.5201416015625,786.5201416015625,797.3992919921875,791.7582397460938
394,786.5201416015625,782.893798828125,799.8168334960938,791.3552856445312
395,786.5201416015625,782.4908447265625,798.6080322265625,789.3406372070312
396,787.3259887695312,785.3113403320312,791.3552856445312,784.1025390625
397,793.3699340820312,788.1318969726562,795.3846435546875,789.3406372070312
398,786.5201416015625,787.3259887695312,794.5787353515625,786.1171875
399,783.2966918945312,787.3259887695312,790.1465454101562,783.2966918945312
400,789.7435913085938,790.952392578125,789.3406372070312,789.7435913085938
401,790.5494384765625,792.967041015625,793.7728881835938,794.1758422851562
402,790.5494384765625,790.1465454101562,796.996337890625,793.3699340820312
403,786.1171875,788.937744140625,798.2051391601562,788.1318969726562
404,786.923095703125,790.952392578125,799.4139404296875,785.7142944335938
405,793.3699340820312,790.952392578125,796.5933837890625,788.5347900390625
406,796.1904907226562,790.5494384765625,798.2051391601562,792.1611938476562
407,796.996337890625,791.3552856445312,796.1904907226562,791.7582397460938
408,792.967041015625,790.952392578125,792.5640869140625,783.6996459960938
409,784.5054931640625,796.5933837890625,790.1465454101562,777.6557006835938
410,779.2673950195312,801.8314819335938,792.5640869140625,783.6996459960938
411,784.5054931640625,795.7875366210938,793.7728881835938,788.1318969726562
412,793.7728881835938,793.3699340820312,791.3552856445312,791.3552856445312
413,790.1465454101562,795.7875366210938,792.967041015625,789.3406372070312
414,788.1318969726562,799.4139404296875,793.3699340820312,788.937744140625
415,796.1904907226562,803.4432373046875,795.3846435546875,787.7289428710938
416,794.981689453125,798.6080322265625,796.1904907226562,781.6849975585938
417,788.5347900390625,792.5640869140625,794.5787353515625,787.3259887695312
418,786.923095703125,794.5787353515625,796.1904907226562,792.967041015625
419,790.952392578125,798.6080322265625,794.981689453125,788.1318969726562
420,792.5640869140625,798.2051391601562,795.7875366210938,784.1025390625
421,791.3552856445312,796.5933837890625,795.3846435546875,786.1171875
422,790.1465454101562,795.7875366210938,793.3699340820312,788.1318969726562
423,787.3259887695312,794.1758422851562,793.3699340820312,788.1318969726562
424,787.7289428710938,788.5347900390625,790.952392578125,788.5347900390625
425,789.3406372070312,790.952392578125,791.7582397460938,791.3552856445312
426,796.1904907226562,794.5787353515625,790.952392578125,793.3699340820312
427,797.3992919921875,793.7728881835938,794.1758422851562,788.937744140625
428,792.967041015625,790.5494384765625,794.5787353515625,786.1171875
429,798.6080322265625,790.952392578125,790.1465454101562,791.7582397460938
430,801.8314819335938,792.1611938476562,793.7728881835938,797.3992919921875
431,794.1758422851562,792.5640869140625,795.3846435546875,796.5933837890625
432,787.7289428710938,796.5933837890625,792.1611938476562,796.5933837890625
433,788.5347900390625,796.996337890625,794.1758422851562,803.8461303710938
434,790.5494384765625,797.8021850585938,793.3699340820312,803.040283203125
435,790.1465454101562,791.3552856445312,790.5494384765625,795.3846435546875
436,796.5933837890625,791.3552856445312,792.5640869140625,795.3846435546875
437,799.8168334960938,794.5787353515625,794.1758422851562,793.3699340820312
438,792.1611938476562,794.5787353515625,794.1758422851562,788.1318969726562
439,793.3699340820312,793.3699340820312,795.7875366210938,788.1318969726562
440,788.5347900390625,786.1171875,797.8021850585938,786.5201416015625
441,782.087890625,783.6996459960938,798.6080322265625,792.1611938476562
442,790.952392578125,790.952392578125,798.6080322265625,790.952392578125
443,794.1758422851562,792.5640869140625,796.5933837890625,792.1611938476562
444,787.3259887695312,789.7435913085938,796.1904907226562,792.967041015625
445,788.5347900390625,795.3846435546875,795.3846435546875,786.923095703125
446,790.5494384765625,792.967041015625,799.4139404296875,783.6996459960938
447,790.5494384765625,785.7142944335938,802.6373901367188,784.1025390625
448,796.1904907226562,786.5201416015625,800.2197875976562,789.7435913085938
449,788.937744140625,784.908447265625,795.7875366210938,784.1025390625
450,784.908447265625,779.2673950195312,796.996337890625,783.2966918945312
451,792.1611938476562,781.2820434570312,801.025634765625,787.7289428710938
452,791.3552856445312,782.4908447265625,799.4139404296875,792.1611938476562
453,782.893798828125,776.0439453125,794.1758422851562,787.3259887695312
454,776.8497924804688,776.8497924804688,791.7582397460938,782.893798828125
455,780.4761962890625,782.893798828125,790.1465454101562,783.6996459960938
456,784.5054931640625,784.5054931640625,788.5347900390625,784.908447265625
457,786.5201416015625,782.087890625,790.5494384765625,787.3259887695312
458,785.7142944335938,783.6996459960938,791.7582397460938,784.908447265625
459,783.2966918945312,786.5201416015625,790.952392578125,787.3259887695312
460,781.2820434570312,783.2966918945312,794.1758422851562,787.3259887695312
461,786.923095703125,784.908447265625,792.5640869140625,783.6996459960938
462,790.1465454101562,786.5201416015625,788.1318969726562,782.087890625
463,789.7435913085938,784.908447265625,788.1318969726562,786.5201416015625
464,791.3552856445312,783.6996459960938,790.952392578125,788.937744140625
465,784.908447265625,783.6996459960938,788.1318969726562,780.0732421875
466,777.6557006835938,781.2820434570312,785.3113403320312,779.6703491210938
467,780.0732421875,781.6849975585938,786.923095703125,781.2820434570312
468,782.4908447265625,786.5201416015625,785.3113403320312,780.0732421875
469,781.6849975585938,788.1318969726562,783.2966918945312,780.0732421875
470,779.6703491210938,785.7142944335938,787.3259887695312,781.6849975585938
471,781.6849975585938,786.5201416015625,792.5640869140625,784.908447265625
472,781.6849975585938,787.3259887695312,790.5494384765625,782.087890625
473,781.6849975585938,787.3259887695312,788.5347900390625,784.5054931640625
474,792.1611938476562,787.7289428710938,793.3699340820312,790.952392578125
475,793.3699340820312,788.1318969726562,795.7875366210938,793.3699340820312
476,791.7582397460938,795.3846435546875,796.1904907226562,793.3699340820312
477,790.952392578125,792.1611938476562,797.8021850585938,787.7289428710938
478,791.7582397460938,784.908447265625,799.010986328125,785.3113403320312
479,797.8021850585938,788.1318969726562,794.981689453125,786.923095703125
480,797.3992919921875,795.3846435546875,797.3992919921875,790.5494384765625
481,796.5933837890625,794.5787353515625,803.4432373046875,793.3699340820312
482,802.2344360351562,789.3406372070312,799.4139404296875,799.010986328125
483,806.6666870117188,784.908447265625,799.4139404296875,806.2637329101562
484,806.6666870117188,780.879150390625,806.2637329101562,807.069580078125
485,797.8021850585938,786.5201416015625,803.4432373046875,794.5787353515625
486,789.7435913085938,788.937744140625,796.996337890625,780.0732421875
487,789.3406372070312,786.923095703125,799.4139404296875,782.087890625
488,780.0732421875,787.3259887695312,798.6080322265625,777.6557006835938
489,777.6557006835938,788.1318969726562,791.3552856445312,775.6410522460938
490,786.5201416015625,786.923095703125,790.1465454101562,785.3113403320312
491,786.5201416015625,786.923095703125,794.1758422851562,784.908447265625
492,786.923095703125,792.1611938476562,795.7875366210938,788.1318969726562
493,790.952392578125,790.952392578125,792.1611938476562,790.952392578125
494,794.5787353515625,789.3406372070312,792.967041015625,788.937744140625
495,796.5933837890625,793.7728881835938,800.6226806640625,788.1318969726562
496,786.923095703125,793.7728881835938,799.8168334960938,782.087890625
497,789.7435913085938,796.1904907226562,796.5933837890625,780.0732421875
498,801.025634765625,794.1758422851562,799.4139404296875,787.7289428710938
499,796.5933837890625,792.1611938476562,797.8021850585938,786.923095703125
500,788.937744140625,797.3992919921875,794.1758422851562,782.4908447265625
501,792.5640869140625,799.010986328125,793.7728881835938,789.7435913085938
502,791.7582397460938,799.8168334960938,793.7728881835938,799.4139404296875
503,792.967041015625,794.981689453125,796.1904907226562,795.3846435546875
504,798.6080322265625,796.5933837890625,795.7875366210938,788.937744140625
505,798.6080322265625,796.1904907226562,794.1758422851562,791.7582397460938
506,794.981689453125,792.967041015625,797.3992919921875,792.1611938476562
507,793.7728881835938,796.996337890625,796.996337890625,789.3406372070312
508,801.025634765625,796.996337890625,790.952392578125,785.7142944335938
509,803.8461303710938,795.7875366210938,787.7289428710938,784.1025390625
510,802.2344360351562,795.7875366210938,788.5347900390625,784.908447265625
511,793.7728881835938,796.5933837890625,790.952392578125,784.5054931640625
512,790.5494384765625,796.1904907226562,792.1611938476562,784.1025390625
513,796.5933837890625,793.7728881835938,790.5494384765625,786.923095703125
514,799.8168334960938,793.7728881835938,791.7582397460938,789.3406372070312
515,797.3992919921875,794.981689453125,792.967041015625,784.908447265625
516,794.5787353515625,797.8021850585938,792.5640869140625,789.7435913085938
517,788.937744140625,798.2051391601562,792.967041015625,792.1611938476562
518,792.967041015625,794.5787353515625,789.7435913085938,794.5787353515625
519,799.4139404296875,790.1465454101562,791.3552856445312,799.4139404296875
520,791.7582397460938,785.7142944335938,795.3846435546875,794.1758422851562
521,787.7289428710938,782.4908447265625,796.5933837890625,790.1465454101562
522,786.5201416015625,785.3113403320312,796.1904907226562,792.5640869140625
523,782.893798828125,790.1465454101562,792.5640869140625,793.7728881835938
524,790.952392578125,792.967041015625,791.7582397460938,794.5787353515625
525,797.8021850585938,790.1465454101562,797.8021850585938,809.084228515625
526,794.5787353515625,791.7582397460938,803.040283203125,816.7399291992188
527,791.3552856445312,787.7289428710938,794.981689453125,798.6080322265625
528,786.5201416015625,781.6849975585938,788.5347900390625,789.3406372070312
529,788.937744140625,781.6849975585938,786.5201416015625,782.4908447265625
530,792.1611938476562,779.6703491210938,785.3113403320312,778.4615478515625
531,790.1465454101562,784.1025390625,791.7582397460938,782.4908447265625
532,790.1465454101562,782.4908447265625,792.5640869140625,784.908447265625
533,776.0439453125,773.6264038085938,787.7289428710938,776.8497924804688
534,770.4029541015625,777.2527465820312,786.1171875,778.05859375
535,776.0439453125,781.2820434570312,789.3406372070312,788.5347900390625
536,777.6557006835938,779.2673950195312,790.5494384765625,793.7728881835938
537,778.4615478515625,782.4908447265625,793.3699340820312,797.8021850585938
538,780.879150390625,787.7289428710938,793.3699340820312,789.7435913085938
539,787.7289428710938,786.1171875,788.5347900390625,786.923095703125
540,786.5201416015625,786.1171875,790.1465454101562,785.7142944335938
541,784.5054931640625,785.3113403320312,792.1611938476562,780.4761962890625
542,781.2820434570312,783.6996459960938,793.3699340820312,776.8497924804688
543,784.5054931640625,786.1171875,793.3699340820312,778.05859375
544,784.5054931640625,784.908447265625,793.3699340820312,784.1025390625
545,783.2966918945312,784.908447265625,791.7582397460938,785.7142944335938
546,788.5347900390625,783.6996459960938,788.5347900390625,788.1318969726562
547,788.1318969726562,784.908447265625,794.5787353515625,790.5494384765625
548,786.5201416015625,789.3406372070312,794.5787353515625,792.5640869140625
549,792.1611938476562,792.1611938476562,794.981689453125,793.3699340820312
550,795.3846435546875,792.967041015625,797.3992919921875,790.1465454101562
551,786.5201416015625,788.1318969726562,792.5640869140625,788.1318969726562
552,787.3259887695312,784.908447265625,790.952392578125,791.3552856445312
553,795.7875366210938,786.1171875,791.7582397460938,797.8021850585938
554,795.7875366210938,790.1465454101562,792.5640869140625,796.1904907226562
555,794.1758422851562,794.1758422851562,793.3699340820312,791.7582397460938
556,794.981689453125,790.952392578125,796.1904907226562,798.2051391601562
557,793.7728881835938,790.952392578125,796.5933837890625,804.2490844726562
558,792.5640869140625,791.7582397460938,792.1611938476562,793.3699340820312
559,792.5640869140625,786.5201416015625,792.1611938476562,787.3259887695312
560,796.1904907226562,787.7289428710938,799.010986328125,798.6080322265625
561,800.2197875976562,793.7728881835938,799.010986328125,792.5640869140625
562,796.5933837890625,796.5933837890625,796.996337890625,779.6703491210938
563,794.5787353515625,794.1758422851562,795.3846435546875,782.4908447265625
564,794.1758422851562,788.937744140625,797.3992919921875,785.3113403320312
565,800.2197875976562,792.967041015625,798.6080322265625,789.3406372070312
566,808.6813354492188,797.8021850585938,796.1904907226562,796.1904907226562
567,804.2490844726562,794.981689453125,803.040283203125,800.2197875976562
568,800.2197875976562,797.3992919921875,804.6520385742188,801.8314819335938
569,802.6373901367188,801.025634765625,799.010986328125,801.8314819335938
570,799.4139404296875,798.2051391601562,799.4139404296875,794.1758422851562
571,797.3992919921875,796.996337890625,800.6226806640625,796.1904907226562
572,799.8168334960938,800.2197875976562,798.6080322265625,799.4139404296875
573,789.7435913085938,797.3992919921875,795.3846435546875,787.3259887695312
574,783.2966918945312,792.5640869140625,792.967041015625,785.7142944335938
575,786.923095703125,794.1758422851562,794.5787353515625,784.908447265625
576,785.7142944335938,792.967041015625,793.7728881835938,783.6996459960938
577,786.1171875,792.1611938476562,792.967041015625,790.5494384765625
578,790.5494384765625,794.5787353515625,795.7875366210938,798.2051391601562
579,790.1465454101562,792.967041015625,797.8021850585938,797.8021850585938
580,788.1318969726562,794.1758422851562,794.5787353515625,794.981689453125
581,788.937744140625,792.1611938476562,792.967041015625,800.6226806640625
582,789.3406372070312,781.2820434570312,794.981689453125,796.5933837890625
583,781.2820434570312,784.908447265625,792.1611938476562,783.6996459960938
584,779.2673950195312,795.3846435546875,790.1465454101562,779.6703491210938
585,782.087890625,790.5494384765625,791.3552856445312,778.8644409179688
586,788.5347900390625,788.1318969726562,796.1904907226562,781.6849975585938
587,791.7582397460938,795.3846435546875,799.4139404296875,788.5347900390625
588,782.4908447265625,794.981689453125,799.010986328125,790.5494384765625
589,783.6996459960938,794.1758422851562,798.6080322265625,794.5787353515625
590,788.937744140625,797.3992919921875,801.025634765625,801.4285888671875
591,790.5494384765625,794.1758422851562,797.8021850585938,799.010986328125
592,794.1758422851562,794.5787353515625,792.967041015625,791.7582397460938
593,796.1904907226562,797.3992919921875,796.996337890625,790.5494384765625
594,792.967041015625,796.5933837890625,793.3699340820312,788.5347900390625
595,790.5494384765625,793.7728881835938,789.3406372070312,786.1171875
596,791.3552856445312,781.6849975585938,792.5640869140625,786.923095703125
597,789.3406372070312,776.8497924804688,789.7435913085938,788.937744140625
598,788.1318969726562,782.4908447265625,787.3259887695312,793.7728881835938
599,792.1611938476562,784.1025390625,792.967041015625,799.4139404296875
600,791.7582397460938,787.3259887695312,791.7582397460938,796.1904907226562
601,788.937744140625,789.3406372070312,789.7435913085938,788.937744140625
602,786.5201416015625,788.1318969726562,791.3552856445312,783.6996459960938
603,778.05859375,786.5201416015625,790.952392578125,780.0732421875
604,772.4176025390625,783.6996459960938,790.952392578125,782.087890625
605,783.6996459960938,783.6996459960938,793.3699340820312,788.5347900390625
606,792.1611938476562,785.7142944335938,794.5787353515625,790.952392578125
607,787.3259887695312,782.893798828125,794.1758422851562,788.5347900390625
608,778.8644409179688,779.6703491210938,793.3699340820312,782.893798828125
609,775.6410522460938,780.0732421875,790.952392578125,780.0732421875
610,784.1025390625,784.1025390625,788.1318969726562,775.2380981445312
611,787.3259887695312,785.3113403320312,789.3406372070312,772.0146484375
612,786.5201416015625,784.1025390625,787.3259887695312,770.8058471679688
613,788.5347900390625,786.1171875,787.7289428710938,765.970703125
614,784.5054931640625,786.923095703125,793.3699340820312,768.7911987304688
615,785.7142944335938,788.937744140625,791.7582397460938,785.3113403320312
616,796.1904907226562,791.3552856445312,791.7582397460938,789.3406372070312
617,802.6373901367188,793.3699340820312,793.3699340820312,787.3259887695312
618,794.5787353515625,793.7728881835938,794.1758422851562,793.7728881835938
619,786.5201416015625,793.3699340820312,795.7875366210938,785.7142944335938
620,789.3406372070312,788.937744140625,797.8021850585938,785.7142944335938
621,794.5787353515625,788.937744140625,798.2051391601562,795.7875366210938
622,797.3992919921875,789.3406372070312,799.010986328125,796.996337890625
623,796.1904907226562,791.7582397460938,802.2344360351562,795.3846435546875
624,798.2051391601562,798.2051391601562,806.2637329101562,796.996337890625
625,796.1904907226562,799.8168334960938,804.6520385742188,797.8021850585938
626,797.3992919921875,795.3846435546875,800.2197875976562,799.4139404296875
627,802.6373901367188,787.7289428710938,795.7875366210938,796.5933837890625
628,798.6080322265625,789.3406372070312,790.5494384765625,794.981689453125
629,795.3846435546875,789.3406372070312,788.1318969726562,792.967041015625
630,797.3992919921875,790.952392578125,789.7435913085938,791.3552856445312
631,801.025634765625,800.6226806640625,793.7728881835938,803.8461303710938
632,806.6666870117188,799.8168334960938,794.5787353515625,807.069580078125
633,801.8314819335938,792.967041015625,788.937744140625,790.952392578125
634,795.3846435546875,795.7875366210938,788.937744140625,786.923095703125
635,800.6226806640625,803.4432373046875,796.996337890625,793.7728881835938
636,797.8021850585938,800.2197875976562,796.996337890625,788.1318969726562
637,796.1904907226562,799.010986328125,794.5787353515625,788.5347900390625
638,794.981689453125,793.3699340820312,790.5494384765625,783.6996459960938
639,788.1318969726562,789.3406372070312,790.1465454101562,779.6703491210938
640,791.3552856445312,790.1465454101562,792.5640869140625,785.7142944335938
641,799.4139404296875,793.7728881835938,793.7728881835938,786.923095703125
642,800.6226806640625,797.8021850585938,796.1904907226562,794.981689453125
643,794.1758422851562,792.5640869140625,795.3846435546875,788.937744140625
644,791.7582397460938,790.5494384765625,799.010986328125,786.923095703125
645,784.5054931640625,791.3552856445312,798.6080322265625,790.1465454101562
646,782.893798828125,789.3406372070312,793.3699340820312,784.5054931640625
647,789.7435913085938,787.3259887695312,797.3992919921875,788.5347900390625
648,792.5640869140625,788.937744140625,802.2344360351562,790.952392578125
649,792.967041015625,790.5494384765625,797.3992919921875,787.3259887695312
650,788.5347900390625,784.1025390625,794.5787353515625,780.4761962890625
651,787.7289428710938,786.1171875,794.981689453125,781.2820434570312
652,792.5640869140625,794.1758422851562,792.1611938476562,783.6996459960938
653,790.1465454101562,787.3259887695312,793.3699340820312,782.4908447265625
654,789.7435913085938,785.7142944335938,793.3699340820312,780.4761962890625
655,787.7289428710938,792.1611938476562,790.5494384765625,781.2820434570312
656,784.1025390625,792.5640869140625,795.7875366210938,792.967041015625
657,785.3113403320312,792.5640869140625,794.5787353515625,790.952392578125
658,790.5494384765625,794.1758422851562,788.937744140625,783.6996459960938
659,789.7435913085938,791.7582397460938,791.7582397460938,778.4615478515625
660,788.5347900390625,790.5494384765625,792.5640869140625,772.4176025390625
661,785.7142944335938,789.3406372070312,789.3406372070312,771.6116943359375
662,784.908447265625,788.5347900390625,788.5347900390625,778.05859375
663,790.1465454101562,788.5347900390625,788.5347900390625,786.1171875
664,787.3259887695312,787.7289428710938,787.3259887695312,782.893798828125
665,787.7289428710938,786.923095703125,788.937744140625,781.6849975585938
666,789.3406372070312,788.937744140625,794.1758422851562,783.2966918945312
667,793.3699340820312,795.3846435546875,794.1758422851562,793.3699340820312
668,797.3992919921875,796.5933837890625,791.7582397460938,797.3992919921875
669,800.2197875976562,795.7875366210938,791.7582397460938,792.1611938476562
670,806.2637329101562,796.1904907226562,789.3406372070312,791.3552856445312
671,805.4578857421875,798.6080322265625,790.952392578125,794.5787353515625
672,800.2197875976562,801.4285888671875,797.3992919921875,803.8461303710938
673,800.2197875976562,801.4285888671875,803.4432373046875,803.8461303710938
674,803.4432373046875,801.4285888671875,804.6520385742188,799.4139404296875
675,796.996337890625,801.025634765625,803.4432373046875,792.5640869140625
676,791.3552856445312,801.025634765625,803.4432373046875,790.952392578125
677,794.5787353515625,799.8168334960938,802.6373901367188,793.3699340820312
678,795.3846435546875,798.2051391601562,799.4139404296875,794.981689453125
679,790.952392578125,792.5640869140625,799.010986328125,792.1611938476562
680,788.1318969726562,789.3406372070312,799.4139404296875,789.7435913085938
681,790.5494384765625,792.967041015625,799.8168334960938,791.3552856445312
682,793.3699340820312,794.981689453125,796.1904907226562,798.2051391601562
683,794.5787353515625,793.7728881835938,794.5787353515625,799.4139404296875
684,795.3846435546875,790.1465454101562,798.6080322265625,789.3406372070312
685,794.1758422851562,785.7142944335938,800.2197875976562,788.5347900390625
686,791.3552856445312,787.3259887695312,797.3992919921875,789.3406372070312
687,794.5787353515625,791.7582397460938,792.967041015625,782.087890625
688,794.1758422851562,795.3846435546875,795.7875366210938,779.2673950195312
689,795.7875366210938,795.3846435546875,797.3992919921875,785.3113403320312
690,793.7728881835938,793.3699340820312,799.8168334960938,789.3406372070312
691,785.3113403320312,791.3552856445312,797.8021850585938,787.3259887695312
692,783.6996459960938,784.5054931640625,791.3552856445312,775.6410522460938
693,790.1465454101562,784.5054931640625,785.7142944335938,776.8497924804688
694,797.8021850585938,785.3113403320312,788.1318969726562,794.981689453125
695,794.1758422851562,789.7435913085938,792.5640869140625,796.996337890625
696,787.7289428710938,788.5347900390625,792.5640869140625,789.7435913085938
697,792.1611938476562,786.5201416015625,791.7582397460938,789.7435913085938
698,790.5494384765625,791.7582397460938,790.5494384765625,786.5201416015625
699,782.4908447265625,794.1758422851562,788.5347900390625,779.6703491210938
700,778.8644409179688,792.967041015625,784.5054931640625,775.2380981445312
701,778.8644409179688,788.5347900390625,784.5054931640625,777.6557006835938
702,783.6996459960938,788.937744140625,788.5347900390625,780.879150390625
703,789.3406372070312,792.1611938476562,790.5494384765625,783.6996459960938
704,792.967041015625,792.967041015625,791.3552856445312,788.1318969726562
705,790.1465454101562,792.1611938476562,787.7289428710938,791.3552856445312
706,791.3552856445312,791.3552856445312,787.7289428710938,793.7728881835938
707,790.1465454101562,786.923095703125,787.3259887695312,783.6996459960938
708,790.952392578125,788.1318969726562,784.5054931640625,776.0439453125
709,795.7875366210938,790.952392578125,785.7142944335938,783.2966918945312
710,788.5347900390625,786.5201416015625,788.1318969726562,788.937744140625
711,788.1318969726562,788.937744140625,788.937744140625,786.1171875
712,796.5933837890625,793.3699340820312,788.937744140625,786.1171875
713,796.996337890625,788.937744140625,788.5347900390625,791.3552856445312
714,790.5494384765625,783.2966918945312,787.3259887695312,788.1318969726562
715,788.1318969726562,781.2820434570312,791.3552856445312,783.6996459960938
716,793.7728881835938,786.923095703125,795.7875366210938,788.937744140625
717,792.1611938476562,790.1465454101562,790.1465454101562,796.996337890625
718,791.3552856445312,788.937744140625,794.981689453125,803.040283203125
719,800.2197875976562,793.3699340820312,805.054931640625,803.8461303710938
720,796.996337890625,786.923095703125,802.2344360351562,799.010986328125
721,789.7435913085938,781.6849975585938,798.2051391601562,794.5787353515625
722,792.967041015625,790.1465454101562,800.6226806640625,795.3846435546875
723,799.010986328125,794.981689453125,798.6080322265625,792.1611938476562
724,801.4285888671875,789.3406372070312,796.996337890625,792.967041015625
725,795.7875366210938,787.3259887695312,800.6226806640625,794.5787353515625
726,793.7728881835938,790.5494384765625,797.3992919921875,790.5494384765625
727,792.967041015625,789.3406372070312,798.2051391601562,786.1171875
728,795.3846435546875,792.967041015625,801.4285888671875,785.3113403320312
729,801.025634765625,793.3699340820312,798.6080322265625,794.1758422851562
730,796.5933837890625,786.923095703125,793.7728881835938,791.7582397460938
731,790.5494384765625,787.7289428710938,794.1758422851562,786.923095703125
732,790.5494384765625,792.1611938476562,796.996337890625,792.967041015625
733,793.3699340820312,794.1758422851562,798.6080322265625,799.010986328125
734,795.7875366210938,795.7875366210938,794.981689453125,796.996337890625
735,790.5494384765625,794.1758422851562,790.952392578125,791.7582397460938
736,786.1171875,790.5494384765625,792.967041015625,792.5640869140625
737,788.937744140625,790.5494384765625,798.6080322265625,795.7875366210938
738,790.5494384765625,792.5640869140625,801.025634765625,794.981689453125
739,796.996337890625,792.967041015625,799.4139404296875,794.1758422851562
740,800.6226806640625,792.967041015625,795.7875366210938,796.5933837890625
741,796.5933837890625,795.7875366210938,797.8021850585938,794.1758422851562
742,798.2051391601562,799.010986328125,800.6226806640625,790.5494384765625
743,794.5787353515625,793.3699340820312,797.8021850585938,790.1465454101562
744,796.5933837890625,791.3552856445312,796.5933837890625,795.3846435546875
745,801.8314819335938,789.7435913085938,801.025634765625,794.5787353515625
746,800.2197875976562,792.1611938476562,801.4285888671875,793.7728881835938
747,799.4139404296875,802.2344360351562,799.4139404296875,799.8168334960938
748,801.025634765625,802.6373901367188,805.4578857421875,801.025634765625
749,799.010986328125,802.2344360351562,803.8461303710938,798.6080322265625
750,795.7875366210938,800.2197875976562,799.8168334960938,794.981689453125
751,795.7875366210938,796.1904907226562,799.010986328125,798.2051391601562
752,791.7582397460938,794.5787353515625,798.2051391601562,800.2197875976562
753,786.923095703125,795.3846435546875,794.1758422851562,791.7582397460938
754,787.7289428710938,793.7728881835938,791.7582397460938,788.1318969726562
755,794.981689453125,788.5347900390625,799.4139404296875,795.7875366210938
756,794.1758422851562,790.5494384765625,797.8021850585938,794.981689453125
757,786.1171875,794.981689453125,792.5640869140625,788.5347900390625
758,785.7142944335938,794.981689453125,793.3699340820312,788.937744140625
759,788.937744140625,796.1904907226562,798.2051391601562,789.3406372070312
760,791.7582397460938,798.2051391601562,798.2051391601562,791.7582397460938
761,794.981689453125,797.8021850585938,798.6080322265625,791.3552856445312
762,794.1758422851562,796.1904907226562,796.1904907226562,790.1465454101562
763,790.1465454101562,794.981689453125,792.1611938476562,794.981689453125
764,792.967041015625,796.1904907226562,794.981689453125,799.010986328125
765,796.996337890625,793.3699340820312,795.3846435546875,797.8021850585938
766,796.1904907226562,788.1318969726562,793.3699340820312,799.010986328125
767,790.952392578125,790.5494384765625,792.967041015625,793.7728881835938
768,788.1318969726562,794.981689453125,794.981689453125,786.5201416015625
769,793.7728881835938,795.7875366210938,797.8021850585938,788.1318969726562
770,802.2344360351562,792.967041015625,798.6080322265625,794.1758422851562
771,805.4578857421875,791.7582397460938,800.2197875976562,802.6373901367188
772,798.2051391601562,788.5347900390625,804.6520385742188,799.010986328125
773,790.5494384765625,790.5494384765625,801.4285888671875,788.937744140625
774,786.5201416015625,793.7728881835938,796.1904907226562,779.6703491210938
775,783.6996459960938,787.3259887695312,790.5494384765625,780.879150390625
776,786.923095703125,788.1318969726562,788.937744140625,782.087890625
777,787.3259887695312,792.1611938476562,790.5494384765625,776.0439453125
778,780.4761962890625,793.7728881835938,793.3699340820312,782.893798828125
779,782.087890625,794.5787353515625,794.5787353515625,787.3259887695312
780,795.3846435546875,788.937744140625,795.7875366210938,789.3406372070312
781,801.8314819335938,790.1465454101562,795.3846435546875,793.3699340820312
782,803.8461303710938,794.981689453125,791.7582397460938,794.5787353515625
783,803.4432373046875,790.5494384765625,792.1611938476562,787.7289428710938
784,797.3992919921875,788.937744140625,792.1611938476562,776.0439453125
785,795.3846435546875,790.5494384765625,792.967041015625,778.4615478515625
786,794.5787353515625,791.3552856445312,793.3699340820312,782.4908447265625
787,794.1758422851562,791.3552856445312,794.981689453125,785.7142944335938
788,796.996337890625,794.981689453125,794.5787353515625,789.3406372070312
789,792.1611938476562,788.5347900390625,792.5640869140625,786.923095703125
790,790.1465454101562,782.4908447265625,791.7582397460938,791.3552856445312
791,796.5933837890625,788.5347900390625,792.1611938476562,794.981689453125
792,792.967041015625,787.3259887695312,786.923095703125,790.1465454101562
793,787.3259887695312,788.5347900390625,786.923095703125,785.3113403320312
794,787.7289428710938,789.3406372070312,791.3552856445312,784.1025390625
795,786.1171875,784.5054931640625,790.1465454101562,787.3259887695312
796,787.3259887695312,785.7142944335938,788.5347900390625,780.879150390625
797,784.908447265625,782.087890625,788.1318969726562,780.4761962890625
798,780.0732421875,778.8644409179688,788.1318969726562,790.5494384765625
799,776.0439453125,783.6996459960938,785.7142944335938,784.5054931640625
800,780.4761962890625,789.7435913085938,791.7582397460938,782.087890625
801,784.908447265625,784.908447265625,794.1758422851562,788.937744140625
802,783.2966918945312,778.05859375,789.7435913085938,789.7435913085938
803,784.908447265625,780.4761962890625,790.952392578125,784.5054931640625
804,784.908447265625,781.6849975585938,792.5640869140625,782.4908447265625
805,783.2966918945312,781.6849975585938,789.7435913085938,784.5054931640625
806,789.7435913085938,782.893798828125,788.5347900390625,789.3406372070312
807,794.5787353515625,783.6996459960938,789.7435913085938,793.7728881835938
808,790.952392578125,786.1171875,786.923095703125,788.937744140625
809,788.937744140625,786.1171875,786.1171875,786.1171875
810,790.5494384765625,785.3113403320312,790.5494384765625,790.1465454101562
811,792.967041015625,786.1171875,791.7582397460938,790.1465454101562
812,794.981689453125,784.5054931640625,789.7435913085938,780.0732421875
813,790.1465454101562,786.1171875,792.967041015625,778.8644409179688
814,784.1025390625,792.5640869140625,790.1465454101562,785.7142944335938
815,784.1025390625,790.952392578125,788.937744140625,779.2673950195312
816,783.6996459960938,788.937744140625,788.1318969726562,778.05859375
817,783.6996459960938,790.1465454101562,792.1611938476562,781.2820434570312
818,776.8497924804688,782.893798828125,790.5494384765625,780.879150390625
819,777.6557006835938,782.893798828125,785.3113403320312,781.6849975585938
820,780.0732421875,792.1611938476562,788.1318969726562,782.087890625
821,778.8644409179688,792.967041015625,789.3406372070312,783.2966918945312
822,785.3113403320312,796.1904907226562,792.1611938476562,786.923095703125
823,785.7142944335938,799.4139404296875,794.5787353515625,784.908447265625
824,785.7142944335938,794.1758422851562,792.967041015625,786.1171875
825,786.5201416015625,790.952392578125,791.7582397460938,794.5787353515625
826,787.3259887695312,788.1318969726562,792.967041015625,792.5640869140625
827,799.4139404296875,790.952392578125,798.6080322265625,789.3406372070312
828,802.2344360351562,794.981689453125,798.2051391601562,790.1465454101562
829,797.8021850585938,791.3552856445312,793.3699340820312,790.5494384765625
830,800.6226806640625,791.7582397460938,795.7875366210938,792.967041015625
831,802.6373901367188,789.7435913085938,799.4139404296875,792.5640869140625
832,805.8607788085938,790.952392578125,796.996337890625,794.1758422851562
833,803.4432373046875,790.1465454101562,790.952392578125,787.7289428710938
834,796.996337890625,790.1465454101562,791.7582397460938,782.087890625
835,796.996337890625,795.3846435546875,794.5787353515625,783.6996459960938
836,795.3846435546875,790.1465454101562,790.952392578125,793.3699340820312
837,796.5933837890625,791.7582397460938,793.3699340820312,801.4285888671875
838,795.7875366210938,794.1758422851562,796.996337890625,792.5640869140625
839,792.1611938476562,791.7582397460938,796.996337890625,792.5640869140625
840,787.7289428710938,794.981689453125,799.4139404296875,799.010986328125
841,783.6996459960938,794.5787353515625,799.4139404296875,792.5640869140625
842,786.5201416015625,792.5640869140625,799.4139404296875,786.5201416015625
843,789.7435913085938,795.7875366210938,798.6080322265625,786.5201416015625
844,788.1318969726562,797.8021850585938,798.6080322265625,785.3113403320312
845,782.4908447265625,796.5933837890625,796.5933837890625,783.6996459960938
846,783.2966918945312,792.967041015625,796.996337890625,784.908447265625
847,787.3259887695312,791.7582397460938,795.7875366210938,790.1465454101562
848,786.5201416015625,790.5494384765625,788.937744140625,792.967041015625
849,786.923095703125,790.952392578125,790.1465454101562,792.1611938476562
850,787.3259887695312,790.952392578125,795.7875366210938,791.3552856445312
851,782.893798828125,788.1318969726562,799.010986328125,788.937744140625
852,786.5201416015625,788.1318969726562,793.3699340820312,788.937744140625
853,790.1465454101562,791.3552856445312,791.7582397460938,788.937744140625
854,787.3259887695312,794.981689453125,799.8168334960938,787.7289428710938
855,784.908447265625,792.967041015625,802.6373901367188,789.3406372070312
856,783.2966918945312,789.3406372070312,800.2197875976562,789.7435913085938
857,785.7142944335938,789.7435913085938,797.8021850585938,791.3552856445312
858,790.5494384765625,792.1611938476562,800.6226806640625,794.1758422851562
859,788.5347900390625,791.7582397460938,801.4285888671875,791.3552856445312
860,785.3113403320312,794.981689453125,798.6080322265625,788.1318969726562
861,781.6849975585938,792.1611938476562,796.5933837890625,781.6849975585938
862,786.1171875,791.7582397460938,798.2051391601562,784.908447265625
863,791.7582397460938,794.981689453125,798.6080322265625,787.3259887695312
864,786.923095703125,794.1758422851562,799.010986328125,784.908447265625
865,783.2966918945312,788.5347900390625,795.3846435546875,784.1025390625
866,784.1025390625,787.3259887695312,794.5787353515625,787.7289428710938
867,786.923095703125,794.5787353515625,797.8021850585938,795.7875366210938
868,784.1025390625,796.5933837890625,794.981689453125,788.937744140625
869,782.893798828125,792.1611938476562,796.1904907226562,784.908447265625
870,778.05859375,786.923095703125,799.8168334960938,783.2966918945312
871,770.0,787.3259887695312,796.5933837890625,771.2088012695312
872,768.3883056640625,787.7289428710938,793.7728881835938,761.5384521484375
873,769.5970458984375,787.7289428710938,797.8021850585938,756.7033081054688
874,760.7326049804688,789.7435913085938,798.6080322265625,755.091552734375
875,747.032958984375,778.05859375,798.6080322265625,751.8681030273438
876,746.2271118164062,778.05859375,798.6080322265625,749.4505615234375
877,749.8534545898438,795.7875366210938,799.010986328125,743.003662109375
878,731.7216186523438,802.2344360351562,796.996337890625,720.4395751953125
879,705.1282348632812,799.010986328125,796.996337890625,700.2930297851562
880,699.89013671875,811.5018310546875,808.6813354492188,695.054931640625
881,695.054931640625,813.91943359375,814.7252807617188,691.8314819335938
882,690.6226806640625,809.4871826171875,811.098876953125,686.1904907226562
883,680.952392578125,818.7545776367188,815.1282348632812,679.3406372070312
884,669.6703491210938,831.6483764648438,823.99267578125,672.4908447265625
885,662.4176025390625,827.6190185546875,829.2307739257812,661.6116943359375
886,645.4945068359375,815.93408203125,829.6337280273438,647.5091552734375
887,641.8681030273438,821.5750732421875,835.6776733398438,644.6886596679688
888,645.4945068359375,817.94873046875,838.4981689453125,644.2857055664062
889,645.091552734375,814.7252807617188,835.2747192382812,643.076904296875
890,639.8534545898438,813.5164794921875,831.2454223632812,638.2417602539062
891,631.7948608398438,812.7106323242188,832.8571166992188,630.1831665039062
892,630.5860595703125,819.1575317382812,835.2747192382812,633.003662109375
893,638.2417602539062,815.1282348632812,835.2747192382812,643.4798583984375
894,647.5091552734375,812.3076782226562,836.886474609375,645.091552734375
895,643.8828125,811.098876953125,831.6483764648438,645.8974609375
896,641.8681030273438,807.4725341796875,828.02197265625,652.3442993164062
897,650.3296508789062,805.4578857421875,828.02197265625,660.8058471679688
898,664.029296875,802.6373901367188,828.8278198242188,677.7289428710938
899,678.937744140625,803.8461303710938,827.6190185546875,689.8168334960938
900,692.2344360351562,807.4725341796875,824.7985229492188,694.2490844726562
901,703.91943359375,806.2637329101562,825.2014770507812,707.1428833007812
902,718.4249267578125,803.8461303710938,830.4395751953125,726.08056640625
903,735.3479614257812,807.4725341796875,823.1868286132812,737.3626098632812
904,745.4212646484375,806.2637329101562,813.5164794921875,742.6007080078125
905,754.6886596679688,805.054931640625,813.5164794921875,753.4798583984375
906,763.1502075195312,807.069580078125,815.93408203125,762.3442993164062
907,759.9267578125,802.6373901367188,810.2930297851562,762.7472534179688
908,765.5677490234375,798.6080322265625,805.054931640625,770.4029541015625
909,779.2673950195312,795.7875366210938,802.2344360351562,786.5201416015625
910,792.5640869140625,788.937744140625,797.3992919921875,804.2490844726562
911,796.1904907226562,784.5054931640625,801.8314819335938,803.8461303710938
912,797.8021850585938,783.6996459960938,801.025634765625,806.6666870117188
913,807.069580078125,786.1171875,792.1611938476562,814.7252807617188
914,816.3369750976562,783.2966918945312,786.923095703125,821.1721801757812
915,820.7692260742188,779.2673950195312,785.3113403320312,823.1868286132812
916,830.03662109375,784.908447265625,781.6849975585938,831.6483764648438
917,838.901123046875,786.1171875,782.087890625,836.08056640625
918,831.6483764648438,784.5054931640625,782.087890625,826.4102783203125
919,836.886474609375,784.5054931640625,779.6703491210938,830.4395751953125
920,841.7216186523438,781.2820434570312,777.6557006835938,837.6923217773438
921,838.901123046875,784.1025390625,778.8644409179688,844.5421142578125
922,839.7069702148438,782.893798828125,778.05859375,844.945068359375
923,846.5567626953125,778.4615478515625,776.4468994140625,842.5274658203125
924,859.047607421875,782.4908447265625,781.6849975585938,849.3773193359375
925,865.4945068359375,789.3406372070312,782.4908447265625,853.003662109375
926,857.8388061523438,787.7289428710938,780.0732421875,848.5714111328125
927,855.018310546875,786.1171875,777.6557006835938,848.1685180664062
928,856.6300659179688,784.1025390625,776.4468994140625,850.1831665039062
929,853.003662109375,780.0732421875,777.2527465820312,846.1538696289062
930,854.2124633789062,782.893798828125,775.2380981445312,843.3333129882812
931,854.2124633789062,786.5201416015625,776.0439453125,846.1538696289062
932,847.7655639648438,792.5640869140625,773.6264038085938,847.7655639648438
933,842.12451171875,791.7582397460938,773.2234497070312,846.959716796875
934,844.5421142578125,790.1465454101562,775.2380981445312,843.7362670898438
935,847.7655639648438,791.3552856445312,776.8497924804688,845.7509155273438
936,844.5421142578125,788.1318969726562,780.4761962890625,843.7362670898438
937,841.3186645507812,786.1171875,779.2673950195312,840.5128173828125
938,845.7509155273438,786.923095703125,782.087890625,843.7362670898438
939,851.3919677734375,790.952392578125,785.3113403320312,852.6007080078125
940,848.5714111328125,791.3552856445312,782.4908447265625,850.989013671875
941,846.1538696289062,793.7728881835938,779.6703491210938,846.1538696289062
942,847.7655639648438,799.010986328125,776.8497924804688,848.1685180664062
943,844.5421142578125,790.5494384765625,779.6703491210938,845.3479614257812
944,844.1392211914062,785.7142944335938,782.087890625,846.1538696289062
945,843.3333129882812,791.3552856445312,782.4908447265625,839.3040161132812
946,842.12451171875,790.1465454101562,782.893798828125,828.8278198242188
947,838.09521484375,786.1171875,780.0732421875,830.4395751953125
948,836.4835205078125,786.923095703125,780.879150390625,830.4395751953125
949,840.10986328125,792.1611938476562,785.3113403320312,830.03662109375
950,840.5128173828125,790.5494384765625,783.2966918945312,827.2161254882812
951,838.09521484375,786.5201416015625,782.893798828125,828.02197265625
952,828.4249267578125,792.5640869140625,784.1025390625,826.00732421875
953,819.1575317382812,790.5494384765625,780.4761962890625,819.5604248046875
954,827.6190185546875,788.937744140625,784.1025390625,823.5897216796875
955,833.6630249023438,792.1611938476562,789.3406372070312,835.6776733398438
956,826.8131713867188,792.5640869140625,790.1465454101562,836.886474609375
957,820.3662719726562,792.1611938476562,783.6996459960938,822.7838745117188
958,820.3662719726562,788.937744140625,778.8644409179688,819.1575317382812
959,823.5897216796875,785.7142944335938,782.893798828125,817.5457763671875
960,822.3809814453125,784.5054931640625,780.879150390625,815.93408203125
961,825.6043701171875,788.5347900390625,782.893798828125,817.1428833007812
962,825.2014770507812,790.1465454101562,783.2966918945312,817.94873046875
963,823.5897216796875,789.7435913085938,784.5054931640625,820.7692260742188
964,823.99267578125,791.3552856445312,785.7142944335938,818.3516235351562
965,823.5897216796875,789.7435913085938,783.2966918945312,816.3369750976562
966,826.8131713867188,789.7435913085938,779.2673950195312,816.7399291992188
967,822.7838745117188,793.3699340820312,780.4761962890625,811.5018310546875
968,822.7838745117188,793.7728881835938,787.3259887695312,816.7399291992188
969,822.3809814453125,793.3699340820312,785.3113403320312,818.3516235351562
970,822.7838745117188,791.3552856445312,786.5201416015625,815.5311279296875
971,823.1868286132812,790.5494384765625,787.3259887695312,816.7399291992188
972,816.7399291992188,789.7435913085938,784.5054931640625,814.7252807617188
973,809.89013671875,788.1318969726562,786.923095703125,811.90478515625
974,809.084228515625,789.3406372070312,790.952392578125,815.5311279296875
975,818.3516235351562,792.1611938476562,795.3846435546875,826.8131713867188
976,823.1868286132812,793.7728881835938,800.6226806640625,824.3956298828125
977,820.3662719726562,796.996337890625,800.2197875976562,818.7545776367188
978,817.94873046875,796.1904907226562,799.010986328125,815.1282348632812
979,817.94873046875,792.5640869140625,799.010986328125,815.5311279296875
980,815.93408203125,790.1465454101562,792.1611938476562,812.7106323242188
981,811.90478515625,791.7582397460938,788.5347900390625,804.2490844726562
982,811.5018310546875,792.5640869140625,787.7289428710938,807.4725341796875
983,805.8607788085938,788.937744140625,782.087890625,801.4285888671875
984,802.6373901367188,785.3113403320312,781.6849975585938,788.937744140625
985,809.084228515625,787.3259887695312,788.1318969726562,799.4139404296875
986,807.069580078125,789.3406372070312,788.5347900390625,798.2051391601562
987,802.6373901367188,790.5494384765625,787.7289428710938,793.3699340820312
988,803.040283203125,787.3259887695312,791.7582397460938,796.1904907226562
989,799.8168334960938,782.4908447265625,786.923095703125,794.1758422851562
990,803.4432373046875,783.6996459960938,782.893798828125,796.1904907226562
991,814.7252807617188,785.3113403320312,786.923095703125,799.010986328125
992,817.5457763671875,780.4761962890625,796.1904907226562,798.6080322265625
993,801.8314819335938,778.05859375,798.2051391601562,785.3113403320312
994,796.5933837890625,783.2966918945312,790.952392578125,780.4761962890625
995,805.8607788085938,788.5347900390625,791.3552856445312,788.1318969726562
996,801.4285888671875,788.1318969726562,794.5787353515625,788.5347900390625
997,800.6226806640625,784.908447265625,792.1611938476562,789.3406372070312
998,803.4432373046875,782.087890625,790.1465454101562,791.7582397460938
999,801.8314819335938,782.893798828125,789.7435913085938,792.967041015625
1000,803.040283203125,789.3406372070312,795.3846435546875,792.5640869140625
1001,805.054931640625,787.7289428710938,798.2051391601562,797.8021850585938
1002,804.6520385742188,783.6996459960938,794.981689453125,801.4285888671875
1003,802.2344360351562,781.2820434570312,795.3846435546875,794.1758422851562
1004,797.3992919921875,777.6557006835938,794.5787353515625,789.7435913085938
1005,794.5787353515625,781.2820434570312,791.7582397460938,794.5787353515625
1006,799.010986328125,787.7289428710938,790.5494384765625,797.8021850585938
1007,801.4285888671875,790.952392578125,791.3552856445312,797.8021850585938
1008,802.2344360351562,789.7435913085938,793.7728881835938,799.010986328125
1009,799.010986328125,790.5494384765625,794.5787353515625,797.8021850585938
1010,793.3699340820312,791.7582397460938,792.5640869140625,794.5787353515625
1011,798.2051391601562,789.3406372070312,790.5494384765625,799.010986328125
1012,804.6520385742188,790.5494384765625,790.952392578125,808.2783813476562
1013,806.2637329101562,794.1758422851562,789.7435913085938,809.4871826171875
1014,802.6373901367188,794.5787353515625,791.7582397460938,806.6666870117188
1015,801.8314819335938,791.7582397460938,794.5787353515625,804.6520385742188
1016,806.6666870117188,788.1318969726562,792.5640869140625,805.8607788085938
1017,812.3076782226562,789.7435913085938,794.1758422851562,811.90478515625
1018,810.2930297851562,792.967041015625,795.7875366210938,815.5311279296875
1019,809.084228515625,794.5787353515625,792.967041015625,815.1282348632812
1020,809.89013671875,796.1904907226562,792.1611938476562,809.89013671875
1021,809.89013671875,789.7435913085938,790.5494384765625,802.2344360351562
1022,812.3076782226562,787.7289428710938,791.3552856445312,802.2344360351562
1023,809.084228515625,793.3699340820312,792.1611938476562,804.2490844726562
1024,806.6666870117188,791.7582397460938,789.7435913085938,799.010986328125
1025,803.040283203125,786.923095703125,791.7582397460938,794.981689453125
1026,796.1904907226562,783.2966918945312,792.967041015625,794.5787353515625
1027,797.3992919921875,786.1171875,792.1611938476562,795.7875366210938
1028,799.4139404296875,793.7728881835938,796.5933837890625,802.6373901367188
1029,799.4139404296875,797.3992919921875,803.4432373046875,805.054931640625
1030,798.2051391601562,796.996337890625,798.2051391601562,798.6080322265625
1031,799.010986328125,796.996337890625,792.967041015625,799.010986328125
1032,805.054931640625,797.3992919921875,794.1758422851562,801.025634765625
1033,804.2490844726562,796.5933837890625,794.5787353515625,799.010986328125
1034,798.2051391601562,793.3699340820312,795.7875366210938,795.3846435546875
1035,794.981689453125,792.967041015625,790.5494384765625,792.967041015625
1036,802.2344360351562,794.5787353515625,791.3552856445312,793.7728881835938
1037,809.4871826171875,787.3259887695312,794.981689453125,797.8021850585938
1038,806.6666870117188,783.2966918945312,792.967041015625,796.5933837890625
1039,799.010986328125,788.5347900390625,796.1904907226562,794.1758422851562
1040,789.7435913085938,791.3552856445312,798.2051391601562,797.3992919921875
1041,794.1758422851562,794.981689453125,798.6080322265625,800.2197875976562
1042,800.6226806640625,794.981689453125,799.010986328125,796.996337890625
1043,798.2051391601562,788.937744140625,797.8021850585938,795.7875366210938
1044,796.996337890625,788.5347900390625,800.2197875976562,796.1904907226562
1045,792.1611938476562,788.1318969726562,800.2197875976562,790.952392578125
1046,793.3699340820312,788.5347900390625,799.8168334960938,793.3699340820312
1047,800.6226806640625,792.1611938476562,798.2051391601562,792.5640869140625
1048,803.040283203125,792.5640869140625,794.981689453125,787.7289428710938
1049,799.4139404296875,788.937744140625,800.6226806640625,786.923095703125
1050,796.5933837890625,787.7289428710938,801.4285888671875,783.2966918945312
1051,796.5933837890625,781.2820434570312,795.3846435546875,788.1318969726562
1052,800.6226806640625,785.7142944335938,801.025634765625,794.981689453125
1053,803.8461303710938,796.1904907226562,801.4285888671875,794.5787353515625
1054,799.4139404296875,796.1904907226562,794.5787353515625,793.7728881835938
1055,794.5787353515625,797.8021850585938,790.1465454101562,792.1611938476562
1056,797.3992919921875,799.010986328125,794.5787353515625,790.5494384765625
1057,802.2344360351562,794.981689453125,801.4285888671875,796.1904907226562
1058,802.2344360351562,791.7582397460938,797.8021850585938,798.2051391601562
1059,801.8314819335938,792.1611938476562,798.6080322265625,794.5787353515625
1060,795.7875366210938,792.1611938476562,797.8021850585938,786.1171875
1061,792.967041015625,785.7142944335938,795.3846435546875,784.1025390625
1062,799.010986328125,780.4761962890625,792.967041015625,794.1758422851562
1063,794.5787353515625,780.879150390625,790.5494384765625,794.981689453125
1064,786.923095703125,782.893798828125,788.937744140625,784.908447265625
1065,786.1171875,787.3259887695312,789.3406372070312,780.4761962890625
1066,788.5347900390625,788.1318969726562,794.981689453125,791.7582397460938
1067,791.3552856445312,789.3406372070312,799.4139404296875,795.7875366210938
1068,793.7728881835938,793.3699340820312,799.8168334960938,790.952392578125
1069,793.7728881835938,793.7728881835938,796.5933837890625,794.981689453125
1070,788.5347900390625,794.5787353515625,793.7728881835938,791.3552856445312
1071,784.908447265625,791.7582397460938,788.937744140625,784.5054931640625
1072,784.5054931640625,786.923095703125,786.1171875,784.1025390625
1073,791.7582397460938,786.5201416015625,787.7289428710938,787.7289428710938
1074,795.3846435546875,792.967041015625,792.5640869140625,792.5640869140625
1075,790.1465454101562,794.981689453125,794.5787353515625,792.967041015625
1076,787.3259887695312,786.5201416015625,795.3846435546875,786.5201416015625
1077,787.3259887695312,785.7142944335938,795.7875366210938,784.1025390625
1078,787.3259887695312,785.3113403320312,793.3699340820312,790.5494384765625
1079,783.2966918945312,784.908447265625,791.7582397460938,785.3113403320312
1080,786.5201416015625,790.952392578125,796.5933837890625,784.5054931640625
1081,790.1465454101562,792.967041015625,796.996337890625,794.981689453125
1082,791.7582397460938,790.952392578125,795.3846435546875,794.5787353515625
1083,796.1904907226562,789.7435913085938,795.7875366210938,796.1904907226562
1084,796.1904907226562,785.3113403320312,792.967041015625,797.3992919921875
1085,795.3846435546875,782.893798828125,792.5640869140625,796.996337890625
1086,799.4139404296875,788.1318969726562,795.7875366210938,796.5933837890625
1087,799.010986328125,792.5640869140625,795.3846435546875,798.6080322265625
1088,798.6080322265625,786.5201416015625,794.981689453125,794.5787353515625
1089,798.6080322265625,785.3113403320312,794.981689453125,794.1758422851562
1090,795.3846435546875,795.3846435546875,795.7875366210938,800.2197875976562
1091,792.5640869140625,795.7875366210938,791.3552856445312,791.7582397460938
1092,793.3699340820312,796.996337890625,788.1318969726562,788.5347900390625
1093,797.8021850585938,799.010986328125,792.5640869140625,792.5640869140625
1094,799.8168334960938,795.7875366210938,796.996337890625,796.5933837890625
1095,792.1611938476562,792.967041015625,795.7875366210938,792.967041015625
1096,782.4908447265625,787.7289428710938,792.967041015625,783.6996459960938
1097,783.2966918945312,784.5054931640625,790.952392578125,780.879150390625
1098,787.7289428710938,790.1465454101562,786.923095703125,781.6849975585938
1099,786.5201416015625,791.7582397460938,786.5201416015625,777.2527465820312
1100,787.7289428710938,790.5494384765625,790.1465454101562,778.8644409179688
1101,784.5054931640625,790.1465454101562,793.3699340820312,785.3113403320312
1102,778.4615478515625,792.5640869140625,794.1758422851562,788.1318969726562
1103,782.4908447265625,791.7582397460938,797.3992919921875,788.937744140625
1104,788.937744140625,788.1318969726562,796.1904907226562,790.5494384765625
1105,786.5201416015625,791.7582397460938,796.5933837890625,793.3699340820312
1106,778.8644409179688,794.1758422851562,797.3992919921875,793.7728881835938
1107,778.05859375,789.7435913085938,795.3846435546875,789.3406372070312
1108,783.6996459960938,792.1611938476562,793.7728881835938,792.1611938476562
1109,788.5347900390625,794.1758422851562,791.7582397460938,798.2051391601562
1110,791.7582397460938,788.5347900390625,794.981689453125,795.7875366210938
1111,788.937744140625,787.7289428710938,799.010986328125,791.3552856445312
1112,791.7582397460938,789.7435913085938,798.6080322265625,790.952392578125
1113,797.8021850585938,791.3552856445312,797.3992919921875,790.952392578125
1114,797.3992919921875,794.981689453125,799.010986328125,788.1318969726562
1115,797.8021850585938,794.1758422851562,800.2197875976562,787.3259887695312
1116,796.5933837890625,791.3552856445312,801.4285888671875,784.1025390625
1117,794.1758422851562,792.1611938476562,801.8314819335938,781.6849975585938
1118,796.5933837890625,796.1904907226562,801.025634765625,785.3113403320312
1119,803.040283203125,795.3846435546875,798.6080322265625,790.952392578125
1120,798.2051391601562,794.981689453125,793.3699340820312,790.952392578125
1121,791.7582397460938,791.7582397460938,791.3552856445312,786.923095703125
1122,788.5347900390625,791.3552856445312,794.981689453125,790.1465454101562
1123,786.5201416015625,794.5787353515625,794.5787353515625,790.1465454101562
1124,794.981689453125,795.3846435546875,789.3406372070312,792.5640869140625
1125,795.7875366210938,793.3699340820312,791.7582397460938,792.967041015625
1126,786.1171875,793.3699340820312,796.1904907226562,782.4908447265625
1127,785.7142944335938,788.937744140625,794.5787353515625,778.8644409179688
1128,789.7435913085938,786.1171875,788.1318969726562,781.2820434570312
1129,792.5640869140625,790.5494384765625,786.923095703125,783.6996459960938
1130,795.3846435546875,790.5494384765625,792.5640869140625,784.908447265625
1131,799.010986328125,792.967041015625,794.5787353515625,790.1465454101562
1132,795.3846435546875,795.3846435546875,793.3699340820312,791.7582397460938
1133,797.8021850585938,792.1611938476562,795.7875366210938,794.5787353515625
1134,799.4139404296875,788.5347900390625,796.996337890625,792.5640869140625
1135,802.2344360351562,786.1171875,795.3846435546875,797.8021850585938
1136,801.4285888671875,786.5201416015625,794.981689453125,806.2637329101562
1137,792.1611938476562,792.1611938476562,799.010986328125,793.3699340820312
1138,796.1904907226562,797.3992919921875,799.8168334960938,788.5347900390625
1139,796.1904907226562,795.3846435546875,795.3846435546875,792.5640869140625
1140,795.3846435546875,793.7728881835938,791.7582397460938,789.7435913085938
1141,798.6080322265625,794.981689453125,794.1758422851562,788.937744140625
1142,796.996337890625,792.5640869140625,797.3992919921875,791.7582397460938
1143,793.7728881835938,785.3113403320312,796.5933837890625,790.952392578125
1144,795.3846435546875,782.4908447265625,797.8021850585938,792.1611938476562
1145,800.2197875976562,786.923095703125,801.025634765625,792.967041015625
1146,797.3992919921875,790.952392578125,802.2344360351562,791.7582397460938
1147,788.5347900390625,795.3846435546875,799.8168334960938,788.1318969726562
1148,786.923095703125,796.1904907226562,799.4139404296875,784.1025390625
1149,794.5787353515625,794.981689453125,795.7875366210938,791.3552856445312
1150,800.2197875976562,797.3992919921875,792.967041015625,801.4285888671875
1151,800.2197875976562,800.6226806640625,795.3846435546875,804.2490844726562
1152,797.8021850585938,801.4285888671875,799.4139404296875,804.6520385742188
1153,796.5933837890625,800.2197875976562,802.2344360351562,803.4432373046875
1154,799.010986328125,794.981689453125,795.7875366210938,804.2490844726562
1155,800.2197875976562,795.7875366210938,791.7582397460938,812.3076782226562
1156,801.025634765625,799.4139404296875,795.7875366210938,811.098876953125
1157,800.2197875976562,795.7875366210938,798.6080322265625,803.040283203125
1158,791.7582397460938,791.7582397460938,797.8021850585938,798.6080322265625
1159,788.937744140625,793.7728881835938,796.996337890625,799.4139404296875
1160,793.3699340820312,795.7875366210938,796.1904907226562,792.967041015625
1161,792.1611938476562,799.010986328125,795.7875366210938,784.1025390625
1162,789.7435913085938,798.6080322265625,797.3992919921875,783.6996459960938
1163,790.952392578125,793.3699340820312,795.3846435546875,783.2966918945312
1164,792.5640869140625,792.5640869140625,794.5787353515625,783.6996459960938
1165,799.8168334960938,796.5933837890625,793.7728881835938,790.5494384765625
1166,805.4578857421875,796.5933837890625,792.1611938476562,791.7582397460938
1167,799.010986328125,793.7728881835938,789.3406372070312,784.908447265625
1168,794.5787353515625,790.952392578125,792.1611938476562,782.893798828125
1169,799.010986328125,791.3552856445312,794.1758422851562,787.3259887695312
1170,798.6080322265625,788.937744140625,794.1758422851562,786.923095703125
1171,793.7728881835938,788.1318969726562,794.5787353515625,783.2966918945312
1172,792.5640869140625,786.923095703125,790.1465454101562,785.3113403320312
1173,792.1611938476562,784.1025390625,791.3552856445312,790.5494384765625
1174,790.952392578125,789.3406372070312,791.7582397460938,793.7728881835938
1175,794.1758422851562,793.3699340820312,788.937744140625,790.952392578125
1176,800.2197875976562,791.3552856445312,795.3846435546875,789.7435913085938
1177,797.8021850585938,788.5347900390625,801.025634765625,793.7728881835938
1178,792.5640869140625,789.7435913085938,800.6226806640625,792.5640869140625
1179,797.8021850585938,794.1758422851562,801.4285888671875,797.8021850585938
1180,801.025634765625,795.7875366210938,805.4578857421875,804.2490844726562
1181,795.7875366210938,794.5787353515625,804.6520385742188,802.2344360351562
1182,787.3259887695312,792.5640869140625,798.6080322265625,796.5933837890625
1183,783.2966918945312,788.937744140625,797.8021850585938,791.7582397460938
1184,787.7289428710938,790.5494384765625,802.2344360351562,793.3699340820312
1185,790.5494384765625,792.967041015625,799.8168334960938,793.7728881835938
1186,787.3259887695312,790.952392578125,796.996337890625,793.3699340820312
1187,789.3406372070312,792.5640869140625,801.8314819335938,790.1465454101562
1188,790.5494384765625,790.5494384765625,798.2051391601562,785.3113403320312
1189,789.3406372070312,789.3406372070312,798.2051391601562,788.937744140625
1190,792.1611938476562,792.1611938476562,798.2051391601562,791.3552856445312
1191,798.2051391601562,794.981689453125,797.8021850585938,791.3552856445312
1192,800.2197875976562,798.2051391601562,799.8168334960938,795.7875366210938
1193,792.1611938476562,799.8168334960938,801.025634765625,795.7875366210938
1194,790.5494384765625,797.8021850585938,803.8461303710938,794.981689453125
1195,791.3552856445312,797.8021850585938,801.4285888671875,792.1611938476562
1196,799.010986328125,799.4139404296875,800.2197875976562,792.5640869140625
1197,803.8461303710938,794.981689453125,806.6666870117188,795.7875366210938
1198,790.5494384765625,793.7728881835938,804.6520385742188,790.5494384765625
1199,788.5347900390625,794.1758422851562,798.6080322265625,788.5347900390625
1200,792.5640869140625,793.3699340820312,799.4139404296875,793.7728881835938
1201,789.7435913085938,791.3552856445312,802.2344360351562,792.1611938476562
1202,789.3406372070312,792.5640869140625,803.8461303710938,795.7875366210938
1203,790.5494384765625,792.1611938476562,805.4578857421875,799.4139404296875
1204,788.5347900390625,791.3552856445312,805.4578857421875,795.7875366210938
1205,786.1171875,793.3699340820312,805.054931640625,793.7728881835938
1206,790.1465454101562,792.5640869140625,807.4725341796875,794.1758422851562
1207,786.5201416015625,792.1611938476562,805.054931640625,792.1611938476562
1208,780.4761962890625,788.1318969726562,803.8461303710938,791.3552856445312
1209,782.893798828125,790.1465454101562,802.2344360351562,794.5787353515625
1210,786.923095703125,798.2051391601562,798.2051391601562,793.7728881835938
1211,793.3699340820312,798.2051391601562,797.8021850585938,789.3406372070312
1212,797.3992919921875,791.7582397460938,796.5933837890625,789.3406372070312
1213,792.5640869140625,786.1171875,795.7875366210938,788.5347900390625
1214,792.5640869140625,788.937744140625,800.2197875976562,783.2966918945312
1215,793.7728881835938,787.7289428710938,801.025634765625,779.6703491210938
1216,792.967041015625,784.5054931640625,797.3992919921875,782.4908447265625
1217,795.7875366210938,783.6996459960938,798.2051391601562,781.2820434570312
1218,789.3406372070312,784.1025390625,804.2490844726562,781.6849975585938
1219,788.5347900390625,788.937744140625,806.2637329101562,784.908447265625
1220,794.981689453125,789.3406372070312,800.6226806640625,792.1611938476562
1221,797.8021850585938,786.1171875,796.5933837890625,796.1904907226562
1222,799.4139404296875,787.7289428710938,798.2051391601562,794.5787353515625
1223,800.6226806640625,794.1758422851562,801.8314819335938,799.010986328125
1224,795.7875366210938,794.5787353515625,801.025634765625,798.2051391601562
1225,788.5347900390625,788.937744140625,800.6226806640625,791.3552856445312
1226,794.5787353515625,792.1611938476562,802.2344360351562,792.967041015625
1227,799.010986328125,794.981689453125,800.6226806640625,796.996337890625
1228,792.967041015625,793.3699340820312,797.8021850585938,794.1758422851562
1229,792.5640869140625,791.7582397460938,796.1904907226562,792.5640869140625
1230,792.5640869140625,791.3552856445312,795.7875366210938,788.1318969726562
1231,796.5933837890625,796.1904907226562,796.996337890625,796.5933837890625
1232,796.996337890625,798.6080322265625,799.4139404296875,805.8607788085938
1233,792.967041015625,794.5787353515625,797.3992919921875,798.6080322265625
1234,793.7728881835938,790.952392578125,789.3406372070312,792.5640869140625
1235,791.7582397460938,790.5494384765625,786.1171875,787.7289428710938
1236,794.5787353515625,785.7142944335938,785.3113403320312,789.3406372070312
1237,800.6226806640625,784.1025390625,785.3113403320312,794.1758422851562
1238,801.4285888671875,786.1171875,784.5054931640625,795.3846435546875
1239,795.7875366210938,785.7142944335938,782.4908447265625,788.937744140625
1240,790.952392578125,788.1318969726562,785.3113403320312,786.5201416015625
1241,790.952392578125,787.3259887695312,791.7582397460938,788.5347900390625
1242,789.7435913085938,790.952392578125,793.3699340820312,780.0732421875
1243,789.3406372070312,795.7875366210938,790.952392578125,781.6849975585938
1244,783.6996459960938,790.5494384765625,788.937744140625,785.3113403320312
1245,780.0732421875,788.937744140625,790.952392578125,776.8497924804688
1246,782.893798828125,790.5494384765625,793.3699340820312,775.6410522460938
1247,785.3113403320312,791.3552856445312,790.1465454101562,777.6557006835938
1248,787.7289428710938,784.5054931640625,788.1318969726562,776.8497924804688
1249,783.6996459960938,776.4468994140625,791.3552856445312,776.8497924804688
1250,777.6557006835938,778.8644409179688,793.3699340820312,774.4322509765625
1251,785.3113403320312,780.4761962890625,792.5640869140625,780.0732421875
1252,791.7582397460938,782.087890625,791.3552856445312,792.5640869140625
1253,789.7435913085938,783.2966918945312,794.5787353515625,790.952392578125
1254,790.1465454101562,783.2966918945312,794.981689453125,789.7435913085938
1255,789.3406372070312,785.3113403320312,794.981689453125,792.5640869140625
1256,789.3406372070312,786.1171875,792.5640869140625,788.5347900390625
1257,794.981689453125,784.908447265625,789.7435913085938,786.5201416015625
1258,792.5640869140625,779.2673950195312,788.937744140625,786.1171875
1259,784.5054931640625,776.4468994140625,785.7142944335938,779.6703491210938
1260,781.2820434570312,778.8644409179688,781.6849975585938,777.2527465820312
1261,782.087890625,783.6996459960938,783.6996459960938,785.3113403320312
1262,785.3113403320312,787.7289428710938,782.893798828125,785.7142944335938
1263,785.7142944335938,789.3406372070312,780.0732421875,786.5201416015625
1264,782.087890625,789.7435913085938,784.908447265625,790.952392578125
1265,777.2527465820312,787.3259887695312,787.3259887695312,784.908447265625
1266,774.8351440429688,783.6996459960938,784.1025390625,782.893798828125
1267,777.6557006835938,788.5347900390625,784.5054931640625,788.1318969726562
1268,781.6849975585938,796.996337890625,784.908447265625,786.5201416015625
1269,781.2820434570312,794.1758422851562,787.3259887695312,785.3113403320312
1270,779.2673950195312,791.7582397460938,791.7582397460938,784.908447265625
1271,775.6410522460938,791.7582397460938,787.7289428710938,783.2966918945312
1272,781.6849975585938,791.7582397460938,791.7582397460938,784.5054931640625
1273,793.7728881835938,791.3552856445312,794.5787353515625,787.7289428710938
1274,791.7582397460938,786.923095703125,789.3406372070312,782.4908447265625
1275,789.3406372070312,786.5201416015625,793.3699340820312,780.4761962890625
1276,788.5347900390625,785.7142944335938,799.8168334960938,780.4761962890625
1277,789.7435913085938,783.2966918945312,798.2051391601562,781.2820434570312
1278,793.7728881835938,780.879150390625,793.7728881835938,785.7142944335938
1279,789.7435913085938,782.087890625,788.937744140625,780.4761962890625
1280,788.5347900390625,783.2966918945312,786.923095703125,777.6557006835938
1281,790.952392578125,786.5201416015625,792.5640869140625,789.3406372070312
1282,791.3552856445312,790.5494384765625,794.1758422851562,796.996337890625
1283,795.7875366210938,787.7289428710938,793.3699340820312,789.7435913085938
1284,796.996337890625,788.1318969726562,794.981689453125,786.1171875
1285,792.5640869140625,789.3406372070312,795.3846435546875,789.3406372070312
1286,787.7289428710938,789.7435913085938,798.6080322265625,790.5494384765625
1287,792.5640869140625,793.3699340820312,800.2197875976562,786.1171875
1288,798.6080322265625,792.5640869140625,799.010986328125,783.6996459960938
1289,799.4139404296875,789.7435913085938,795.7875366210938,787.3259887695312
1290,792.967041015625,787.7289428710938,797.3992919921875,790.1465454101562
1291,786.923095703125,792.5640869140625,800.2197875976562,788.937744140625
1292,789.3406372070312,796.1904907226562,799.010986328125,786.1171875
1293,794.1758422851562,794.5787353515625,801.025634765625,796.996337890625
1294,792.967041015625,791.7582397460938,801.4285888671875,801.025634765625
1295,789.3406372070312,792.5640869140625,797.8021850585938,792.967041015625
1296,792.1611938476562,796.1904907226562,799.010986328125,791.3552856445312
1297,793.3699340820312,796.996337890625,800.2197875976562,791.3552856445312
1298,788.937744140625,796.996337890625,801.025634765625,792.967041015625
1299,795.3846435546875,792.5640869140625,801.4285888671875,797.8021850585938
1300,803.4432373046875,791.3552856445312,797.3992919921875,799.8168334960938
1301,796.1904907226562,791.7582397460938,791.7582397460938,789.3406372070312
1302,793.7728881835938,792.1611938476562,790.5494384765625,783.6996459960938
1303,803.8461303710938,794.981689453125,792.967041015625,790.1465454101562
1304,807.069580078125,792.967041015625,794.1758422851562,796.1904907226562
1305,796.5933837890625,787.7289428710938,795.7875366210938,797.3992919921875
1306,794.5787353515625,789.3406372070312,794.5787353515625,793.7728881835938
1307,800.6226806640625,790.952392578125,794.5787353515625,790.952392578125
1308,804.6520385742188,791.3552856445312,791.7582397460938,793.7728881835938
1309,805.8607788085938,792.5640869140625,792.1611938476562,798.6080322265625
1310,805.4578857421875,788.1318969726562,798.2051391601562,798.2051391601562
1311,801.025634765625,788.5347900390625,799.4139404296875,797.8021850585938
1312,793.7728881835938,792.5640869140625,796.996337890625,793.3699340820312
1313,796.1904907226562,791.3552856445312,796.996337890625,792.967041015625
1314,803.4432373046875,792.5640869140625,802.2344360351562,801.8314819335938
1315,804.2490844726562,793.7728881835938,801.4285888671875,802.6373901367188
1316,801.4285888671875,791.3552856445312,797.8021850585938,803.8461303710938
1317,795.3846435546875,788.1318969726562,798.6080322265625,798.6080322265625
1318,793.3699340820312,791.7582397460938,799.4139404296875,790.5494384765625
1319,796.996337890625,792.967041015625,799.4139404296875,792.967041015625
1320,791.3552856445312,791.7582397460938,798.2051391601562,790.1465454101562
1321,782.087890625,793.3699340820312,797.8021850585938,784.5054931640625
1322,783.6996459960938,798.2051391601562,801.4285888671875,782.087890625
1323,785.3113403320312,796.1904907226562,800.2197875976562,782.087890625
1324,785.3113403320312,791.3552856445312,795.3846435546875,785.3113403320312
1325,788.1318969726562,792.1611938476562,792.5640869140625,784.5054931640625
1326,787.7289428710938,789.7435913085938,793.7728881835938,782.4908447265625
1327,787.7289428710938,787.3259887695312,797.8021850585938,788.937744140625
1328,788.5347900390625,787.7289428710938,797.8021850585938,794.1758422851562
1329,790.5494384765625,787.3259887695312,794.5787353515625,790.1465454101562
1330,796.1904907226562,787.3259887695312,790.5494384765625,790.1465454101562
1331,797.3992919921875,787.3259887695312,794.1758422851562,792.5640869140625
1332,797.8021850585938,789.7435913085938,799.4139404296875,789.3406372070312
1333,808.6813354492188,791.3552856445312,796.996337890625,789.7435913085938
1334,809.084228515625,786.923095703125,794.981689453125,799.8168334960938
1335,807.069580078125,780.879150390625,795.7875366210938,805.054931640625
1336,803.8461303710938,780.0732421875,792.967041015625,800.2197875976562
1337,797.3992919921875,782.893798828125,794.5787353515625,796.1904907226562
1338,795.7875366210938,782.087890625,798.2051391601562,795.3846435546875
1339,796.996337890625,782.087890625,798.2051391601562,799.8168334960938
1340,801.4285888671875,781.2820434570312,798.6080322265625,806.2637329101562
1341,794.1758422851562,784.5054931640625,797.3992919921875,801.8314819335938
1342,788.1318969726562,790.5494384765625,797.3992919921875,797.8021850585938
1343,787.7289428710938,788.1318969726562,796.996337890625,797.3992919921875
1344,788.1318969726562,782.893798828125,794.981689453125,791.7582397460938
1345,794.5787353515625,788.5347900390625,797.8021850585938,789.3406372070312
1346,794.5787353515625,788.5347900390625,798.2051391601562,789.7435913085938
1347,789.7435913085938,786.923095703125,796.1904907226562,784.1025390625
1348,794.1758422851562,795.3846435546875,798.2051391601562,782.893798828125
1349,800.2197875976562,792.5640869140625,801.025634765625,784.5054931640625
1350,806.6666870117188,794.981689453125,799.010986328125,784.1025390625
1351,809.084228515625,803.8461303710938,795.3846435546875,792.1611938476562
1352,798.2051391601562,800.2197875976562,789.3406372070312,782.4908447265625
1353,798.2051391601562,801.025634765625,786.923095703125,776.4468994140625
1354,805.8607788085938,800.2197875976562,788.5347900390625,786.923095703125
1355,805.4578857421875,794.5787353515625,790.952392578125,790.5494384765625
1356,803.8461303710938,798.6080322265625,795.3846435546875,789.3406372070312
1357,796.996337890625,795.7875366210938,799.010986328125,784.1025390625
1358,795.3846435546875,794.1758422851562,799.4139404296875,786.5201416015625
1359,796.996337890625,792.1611938476562,796.1904907226562,790.1465454101562
1360,792.1611938476562,787.3259887695312,792.1611938476562,791.7582397460938
1361,791.7582397460938,786.1171875,793.7728881835938,799.8168334960938
1362,790.5494384765625,788.5347900390625,796.996337890625,805.4578857421875
1363,786.1171875,788.1318969726562,796.5933837890625,807.87548828125
1364,785.3113403320312,785.3113403320312,795.7875366210938,805.8607788085938
1365,788.937744140625,783.6996459960938,798.6080322265625,806.6666870117188
1366,790.952392578125,785.3113403320312,796.1904907226562,807.069580078125
1367,776.8497924804688,783.6996459960938,795.7875366210938,800.6226806640625
1368,776.8497924804688,779.6703491210938,798.6080322265625,799.010986328125
1369,790.952392578125,784.1025390625,794.981689453125,801.025634765625
1370,796.1904907226562,785.7142944335938,792.967041015625,801.4285888671875
1371,793.7728881835938,787.3259887695312,791.7582397460938,796.5933837890625
1372,792.967041015625,791.7582397460938,791.3552856445312,792.5640869140625
1373,794.981689453125,793.3699340820312,794.5787353515625,792.1611938476562
1374,792.5640869140625,795.3846435546875,790.952392578125,791.3552856445312
1375,792.967041015625,794.5787353515625,786.923095703125,792.5640869140625
1376,797.8021850585938,793.7728881835938,786.1171875,786.5201416015625
1377,798.2051391601562,797.3992919921875,781.2820434570312,781.2820434570312
1378,792.967041015625,797.3992919921875,780.0732421875,783.2966918945312
1379,790.5494384765625,796.1904907226562,782.4908447265625,779.6703491210938
1380,797.8021850585938,795.3846435546875,782.893798828125,781.2820434570312
1381,804.2490844726562,795.3846435546875,781.6849975585938,782.087890625
1382,801.4285888671875,792.967041015625,780.4761962890625,777.6557006835938
1383,796.5933837890625,789.7435913085938,777.6557006835938,781.2820434570312
1384,792.5640869140625,790.5494384765625,780.0732421875,783.2966918945312
1385,790.5494384765625,787.3259887695312,782.087890625,786.1171875
1386,790.952392578125,783.6996459960938,782.893798828125,793.3699340820312
1387,791.7582397460938,791.3552856445312,788.1318969726562,795.7875366210938
1388,786.5201416015625,792.5640869140625,790.1465454101562,788.937744140625
1389,783.2966918945312,784.1025390625,791.7582397460938,795.7875366210938
1390,786.923095703125,784.1025390625,790.1465454101562,800.6226806640625
1391,792.967041015625,786.5201416015625,794.1758422851562,799.8168334960938
1392,791.7582397460938,784.5054931640625,798.2051391601562,799.4139404296875
1393,783.6996459960938,782.4908447265625,795.3846435546875,790.5494384765625
1394,780.4761962890625,784.908447265625,798.2051391601562,787.7289428710938
1395,782.087890625,786.923095703125,799.4139404296875,794.1758422851562
1396,780.879150390625,784.1025390625,794.5787353515625,798.2051391601562
1397,779.2673950195312,781.2820434570312,793.7728881835938,794.981689453125
1398,786.1171875,784.5054931640625,794.5787353515625,792.967041015625
1399,789.3406372070312,785.7142944335938,796.996337890625,793.3699340820312
1400,792.967041015625,784.5054931640625,794.1758422851562,796.5933837890625
1401,801.025634765625,784.1025390625,792.5640869140625,799.010986328125
1402,801.4285888671875,787.3259887695312,795.7875366210938,796.5933837890625
1403,798.6080322265625,790.1465454101562,793.7728881835938,788.5347900390625
1404,806.6666870117188,792.967041015625,792.1611938476562,792.5640869140625
1405,809.89013671875,794.1758422851562,796.1904907226562,795.3846435546875
1406,806.2637329101562,797.3992919921875,794.981689453125,792.5640869140625
1407,804.2490844726562,800.2197875976562,791.3552856445312,794.1758422851562
1408,800.6226806640625,801.025634765625,791.7582397460938,795.3846435546875
1409,796.996337890625,801.8314819335938,791.3552856445312,797.3992919921875
1410,791.7582397460938,800.6226806640625,789.3406372070312,797.3992919921875
1411,789.3406372070312,795.3846435546875,786.1171875,792.5640869140625
1412,790.5494384765625,790.1465454101562,784.908447265625,796.1904907226562
1413,786.923095703125,793.3699340820312,786.5201416015625,797.3992919921875
1414,786.923095703125,796.996337890625,790.1465454101562,789.7435913085938
1415,785.7142944335938,799.010986328125,788.1318969726562,785.3113403320312
1416,782.4908447265625,798.6080322265625,786.923095703125,782.087890625
1417,781.2820434570312,793.3699340820312,789.7435913085938,784.1025390625
1418,776.8497924804688,789.7435913085938,786.5201416015625,778.4615478515625
1419,775.2380981445312,788.937744140625,785.7142944335938,783.2966918945312
1420,777.6557006835938,792.967041015625,788.5347900390625,792.967041015625
1421,784.5054931640625,794.981689453125,789.7435913085938,790.952392578125
1422,788.1318969726562,792.5640869140625,792.5640869140625,790.1465454101562
1423,793.7728881835938,790.5494384765625,797.8021850585938,795.3846435546875
1424,798.6080322265625,792.1611938476562,796.1904907226562,797.3992919921875
1425,794.5787353515625,790.952392578125,796.1904907226562,790.952392578125
1426,794.1758422851562,785.3113403320312,797.3992919921875,792.5640869140625
1427,800.2197875976562,787.7289428710938,799.010986328125,795.7875366210938
1428,799.010986328125,790.952392578125,802.6373901367188,794.1758422851562
1429,794.981689453125,792.5640869140625,795.3846435546875,789.7435913085938
1430,798.2051391601562,797.8021850585938,792.5640869140625,785.3113403320312
1431,803.040283203125,802.6373901367188,788.937744140625,780.0732421875
1432,803.8461303710938,805.054931640625,783.6996459960938,776.0439453125
1433,800.6226806640625,807.069580078125,784.908447265625,772.8204956054688
1434,796.5933837890625,801.025634765625,780.879150390625,767.5823974609375
1435,790.5494384765625,801.025634765625,778.8644409179688,779.2673950195312
1436,786.1171875,806.6666870117188,780.879150390625,781.6849975585938
1437,789.3406372070312,805.054931640625,782.893798828125,772.8204956054688
1438,788.937744140625,803.8461303710938,782.4908447265625,776.0439453125
1439,778.8644409179688,799.4139404296875,778.4615478515625,774.029296875
1440,777.6557006835938,793.7728881835938,775.6410522460938,771.2088012695312
1441,784.908447265625,794.5787353515625,777.6557006835938,777.2527465820312
1442,790.952392578125,796.5933837890625,781.2820434570312,782.087890625
1443,791.3552856445312,796.5933837890625,780.0732421875,782.893798828125
1444,786.1171875,793.7728881835938,781.2820434570312,784.5054931640625
1445,785.7142944335938,790.5494384765625,785.7142944335938,782.087890625
1446,786.5201416015625,788.937744140625,787.3259887695312,783.6996459960938
1447,782.087890625,789.7435913085938,785.7142944335938,787.3259887695312
1448,782.087890625,792.5640869140625,781.2820434570312,786.1171875
1449,783.2966918945312,789.3406372070312,782.087890625,780.4761962890625
1450,780.879150390625,788.1318969726562,781.2820434570312,782.4908447265625
1451,780.4761962890625,794.5787353515625,785.7142944335938,794.981689453125
1452,787.7289428710938,794.5787353515625,792.1611938476562,794.981689453125
1453,792.967041015625,790.5494384765625,797.3992919921875,790.1465454101562
1454,793.3699340820312,793.7728881835938,801.4285888671875,792.967041015625
1455,791.7582397460938,792.5640869140625,799.010986328125,792.1611938476562
1456,792.967041015625,789.3406372070312,798.6080322265625,787.7289428710938
1457,798.6080322265625,790.5494384765625,801.8314819335938,793.7728881835938
1458,796.1904907226562,787.3259887695312,800.6226806640625,794.981689453125
1459,791.7582397460938,783.6996459960938,799.8168334960938,788.1318969726562
1460,788.5347900390625,786.5201416015625,798.2051391601562,789.3406372070312
1461,786.923095703125,787.7289428710938,798.2051391601562,789.7435913085938
1462,793.7728881835938,785.3113403320312,800.6226806640625,795.7875366210938
1463,796.5933837890625,784.1025390625,800.6226806640625,794.5787353515625
1464,790.1465454101562,784.908447265625,796.5933837890625,783.2966918945312
1465,789.7435913085938,788.1318969726562,796.5933837890625,784.5054931640625
1466,790.5494384765625,787.3259887695312,801.025634765625,788.5347900390625
1467,789.3406372070312,789.7435913085938,798.6080322265625,786.923095703125
1468,789.7435913085938,790.952392578125,794.981689453125,785.7142944335938
1469,788.1318969726562,794.1758422851562,794.981689453125,789.7435913085938
1470,788.1318969726562,790.1465454101562,791.7582397460938,791.3552856445312
1471,783.2966918945312,786.5201416015625,788.1318969726562,785.7142944335938
1472,783.6996459960938,789.7435913085938,787.3259887695312,786.1171875
1473,795.3846435546875,789.3406372070312,790.5494384765625,792.967041015625
1474,796.996337890625,795.3846435546875,794.5787353515625,795.7875366210938
1475,789.3406372070312,798.2051391601562,789.3406372070312,792.1611938476562
1476,785.7142944335938,795.3846435546875,784.908447265625,787.3259887695312
1477,788.937744140625,792.967041015625,788.937744140625,788.5347900390625
1478,792.5640869140625,792.1611938476562,790.1465454101562,794.1758422851562
1479,796.1904907226562,792.5640869140625,789.7435913085938,796.5933837890625
1480,794.5787353515625,794.5787353515625,792.967041015625,794.981689453125
1481,793.3699340820312,795.7875366210938,796.996337890625,787.3259887695312
1482,800.6226806640625,796.996337890625,801.025634765625,787.3259887695312
1483,803.040283203125,792.5640869140625,802.6373901367188,791.3552856445312
1484,794.981689453125,780.4761962890625,800.6226806640625,787.7289428710938
1485,790.5494384765625,778.05859375,799.010986328125,792.5640869140625
1486,786.5201416015625,786.1171875,800.2197875976562,794.1758422851562
1487,784.5054931640625,782.893798828125,796.5933837890625,782.893798828125
1488,792.1611938476562,781.6849975585938,797.3992919921875,784.5054931640625
1489,799.4139404296875,790.5494384765625,801.4285888671875,789.3406372070312
1490,796.996337890625,790.952392578125,803.040283203125,794.1758422851562
1491,784.1025390625,787.7289428710938,801.4285888671875,787.7289428710938
1492,780.4761962890625,782.087890625,794.981689453125,780.879150390625
1493,783.6996459960938,784.908447265625,795.3846435546875,786.1171875
1494,786.1171875,794.5787353515625,794.981689453125,787.3259887695312
1495,790.1465454101562,795.7875366210938,790.952392578125,787.7289428710938
1496,787.7289428710938,794.5787353515625,791.3552856445312,786.923095703125
1497,782.4908447265625,794.981689453125,785.7142944335938,789.7435913085938
1498,788.5347900390625,794.981689453125,784.1025390625,786.923095703125
1499,790.952392578125,790.5494384765625,786.5201416015625,782.4908447265625
1500,789.7435913085938,788.937744140625,781.6849975585938,782.087890625
1501,791.3552856445312,791.7582397460938,782.4908447265625,778.4615478515625
1502,789.7435913085938,797.8021850585938,785.7142944335938,780.879150390625
1503,793.3699340820312,796.1904907226562,786.923095703125,793.3699340820312
1504,793.3699340820312,792.1611938476562,786.1171875,800.6226806640625
1505,785.3113403320312,793.7728881835938,787.3259887695312,800.6226806640625
1506,782.4908447265625,794.5787353515625,789.7435913085938,797.8021850585938
1507,785.7142944335938,793.3699340820312,791.3552856445312,795.3846435546875
1508,790.1465454101562,795.7875366210938,790.5494384765625,796.1904907226562
1509,791.7582397460938,795.7875366210938,790.1465454101562,793.7728881835938
1510,786.5201416015625,792.5640869140625,792.1611938476562,785.7142944335938
1511,781.2820434570312,790.1465454101562,789.7435913085938,775.2380981445312
1512,785.3113403320312,789.7435913085938,792.5640869140625,777.2527465820312
1513,792.5640869140625,791.3552856445312,795.7875366210938,784.908447265625
1514,796.1904907226562,788.937744140625,796.1904907226562,784.1025390625
1515,791.3552856445312,787.3259887695312,796.5933837890625,783.2966918945312
1516,784.5054931640625,785.3113403320312,800.2197875976562,780.4761962890625
1517,785.7142944335938,784.1025390625,803.040283203125,779.6703491210938
1518,793.3699340820312,788.937744140625,801.025634765625,781.6849975585938
1519,792.967041015625,792.1611938476562,796.1904907226562,786.923095703125
1520,792.1611938476562,789.7435913085938,792.967041015625,801.8314819335938
1521,791.3552856445312,789.7435913085938,794.981689453125,797.8021850585938
1522,792.1611938476562,788.5347900390625,798.2051391601562,790.1465454101562
1523,796.5933837890625,789.3406372070312,794.981689453125,791.7582397460938
1524,793.7728881835938,792.1611938476562,793.3699340820312,789.3406372070312
1525,799.010986328125,796.996337890625,796.1904907226562,795.7875366210938
1526,799.010986328125,794.981689453125,792.5640869140625,797.8021850585938
1527,795.7875366210938,790.5494384765625,790.1465454101562,796.996337890625
1528,799.8168334960938,794.1758422851562,790.952392578125,796.1904907226562
1529,802.6373901367188,796.996337890625,793.7728881835938,794.5787353515625
1530,799.4139404296875,793.7728881835938,794.5787353515625,792.1611938476562
1531,797.8021850585938,792.5640869140625,794.981689453125,790.5494384765625
1532,793.3699340820312,790.5494384765625,793.7728881835938,786.5201416015625
1533,788.1318969726562,792.1611938476562,795.7875366210938,785.3113403320312
1534,792.967041015625,799.010986328125,801.025634765625,792.1611938476562
1535,788.937744140625,794.1758422851562,799.4139404296875,788.1318969726562
1536,785.3113403320312,790.952392578125,801.025634765625,780.0732421875
1537,782.4908447265625,791.7582397460938,804.2490844726562,777.6557006835938
1538,775.6410522460938,787.3259887695312,805.4578857421875,778.4615478515625
1539,777.2527465820312,789.7435913085938,802.2344360351562,790.5494384765625
1540,778.4615478515625,796.5933837890625,799.4139404296875,788.1318969726562
1541,779.6703491210938,799.8168334960938,801.8314819335938,775.2380981445312
1542,779.2673950195312,795.7875366210938,799.4139404296875,776.0439453125
1543,777.2527465820312,792.1611938476562,796.5933837890625,777.2527465820312
1544,782.893798828125,794.981689453125,798.2051391601562,776.0439453125
1545,788.937744140625,796.996337890625,799.010986328125,780.4761962890625
1546,794.5787353515625,794.5787353515625,799.010986328125,789.7435913085938
1547,790.1465454101562,792.967041015625,797.8021850585938,792.5640869140625
1548,781.2820434570312,794.5787353515625,792.967041015625,784.5054931640625
1549,786.1171875,794.5787353515625,790.5494384765625,786.5201416015625
1550,794.1758422851562,797.8021850585938,792.967041015625,794.1758422851562
1551,800.2197875976562,801.025634765625,799.4139404296875,798.2051391601562
1552,799.010986328125,797.8021850585938,798.6080322265625,792.5640869140625
1553,794.1758422851562,798.6080322265625,796.5933837890625,788.1318969726562
1554,794.981689453125,797.8021850585938,799.4139404296875,789.7435913085938
1555,793.7728881835938,796.996337890625,797.8021850585938,791.7582397460938
1556,788.937744140625,794.981689453125,796.5933837890625,787.3259887695312
1557,790.1465454101562,789.7435913085938,796.5933837890625,784.1025390625
1558,788.937744140625,791.7582397460938,797.3992919921875,789.7435913085938
1559,790.952392578125,796.996337890625,795.3846435546875,788.5347900390625
1560,794.5787353515625,790.952392578125,796.5933837890625,786.923095703125
1561,790.952392578125,787.7289428710938,801.4285888671875,788.937744140625
1562,779.6703491210938,793.7728881835938,800.6226806640625,785.3113403320312
1563,772.4176025390625,792.1611938476562,799.4139404296875,778.4615478515625
1564,782.087890625,791.3552856445312,799.8168334960938,782.4908447265625
1565,791.3552856445312,792.1611938476562,798.2051391601562,788.5347900390625
1566,791.3552856445312,789.7435913085938,798.2051391601562,786.1171875
1567,786.923095703125,787.3259887695312,793.7728881835938,778.4615478515625
1568,784.908447265625,788.1318969726562,792.5640869140625,774.029296875
1569,784.1025390625,788.5347900390625,792.5640869140625,778.8644409179688
1570,781.6849975585938,786.923095703125,792.1611938476562,785.3113403320312
1571,780.879150390625,785.7142944335938,793.7728881835938,782.4908447265625
1572,781.6849975585938,785.7142944335938,790.5494384765625,779.6703491210938
1573,779.2673950195312,787.3259887695312,790.5494384765625,780.4761962890625
1574,785.3113403320312,791.3552856445312,794.981689453125,786.923095703125
1575,789.3406372070312,790.952392578125,794.5787353515625,788.5347900390625
1576,789.7435913085938,784.1025390625,790.952392578125,781.2820434570312
1577,791.7582397460938,783.6996459960938,789.7435913085938,784.908447265625
1578,784.5054931640625,784.908447265625,790.1465454101562,784.5054931640625
1579,785.7142944335938,786.5201416015625,793.7728881835938,786.1171875
1580,788.1318969726562,786.923095703125,795.3846435546875,790.5494384765625
1581,786.923095703125,786.5201416015625,792.967041015625,796.5933837890625
1582,787.3259887695312,787.7289428710938,793.7728881835938,798.6080322265625
1583,782.893798828125,790.1465454101562,793.7728881835938,787.3259887695312
1584,783.2966918945312,786.1171875,790.952392578125,787.7289428710938
1585,790.1465454101562,780.0732421875,791.7582397460938,793.7728881835938
