timestamp,RAW_TP9,RAW_AF7,RAW_AF8,RAW_TP10
1,747.8388061523438,760.7326049804688,829.2307739257812,767.1795043945312
2,758.7179565429688,763.5531005859375,825.2014770507812,774.8351440429688
3,761.1355590820312,763.5531005859375,817.1428833007812,779.2673950195312
4,756.7033081054688,763.5531005859375,814.7252807617188,774.4322509765625
5,759.120849609375,763.5531005859375,817.5457763671875,779.2673950195312
6,764.7619018554688,764.7619018554688,815.1282348632812,787.3259887695312
7,769.5970458984375,774.029296875,815.5311279296875,786.1171875
8,772.0146484375,778.8644409179688,818.7545776367188,784.1025390625
9,774.4322509765625,774.4322509765625,819.1575317382812,783.2966918945312
10,771.2088012695312,767.9853515625,813.113525390625,774.8351440429688
11,773.6264038085938,770.0,811.90478515625,772.4176025390625
12,778.4615478515625,773.6264038085938,815.5311279296875,780.879150390625
13,781.2820434570312,774.4322509765625,815.93408203125,784.1025390625
14,781.6849975585938,781.6849975585938,815.93408203125,791.7582397460938
15,777.2527465820312,786.5201416015625,814.7252807617188,799.010986328125
16,778.8644409179688,784.1025390625,814.3223266601562,794.981689453125
17,783.2966918945312,785.7142944335938,809.89013671875,787.7289428710938
18,782.087890625,785.3113403320312,802.6373901367188,787.7289428710938
19,775.6410522460938,784.1025390625,802.2344360351562,789.3406372070312
20,778.8644409179688,784.5054931640625,804.6520385742188,781.2820434570312
21,786.5201416015625,788.937744140625,805.8607788085938,782.087890625
22,784.908447265625,790.1465454101562,807.4725341796875,790.1465454101562
23,784.5054931640625,794.1758422851562,809.084228515625,793.3699340820312
24,787.7289428710938,790.952392578125,807.069580078125,790.1465454101562
25,787.3259887695312,780.0732421875,803.8461303710938,789.3406372070312
26,785.7142944335938,780.0732421875,804.6520385742188,792.5640869140625
27,788.1318969726562,781.2820434570312,802.2344360351562,790.1465454101562
28,790.5494384765625,779.2673950195312,804.6520385742188,788.937744140625
29,786.923095703125,780.0732421875,805.8607788085938,788.937744140625
30,784.908447265625,782.893798828125,799.4139404296875,784.5054931640625
31,786.1171875,785.7142944335938,794.5787353515625,786.1171875
32,790.1465454101562,780.4761962890625,793.7728881835938,788.937744140625
33,790.5494384765625,782.4908447265625,799.010986328125,790.952392578125
34,787.7289428710938,790.5494384765625,799.010986328125,797.3992919921875
35,794.5787353515625,791.3552856445312,793.7728881835938,792.5640869140625
36,797.8021850585938,792.5640869140625,796.996337890625,793.7728881835938
37,792.5640869140625,793.7728881835938,797.8021850585938,796.5933837890625
38,792.5640869140625,792.967041015625,792.5640869140625,794.1758422851562
39,792.1611938476562,793.3699340820312,791.3552856445312,789.3406372070312
40,786.923095703125,797.8021850585938,793.7728881835938,783.2966918945312
41,790.1465454101562,799.4139404296875,795.7875366210938,787.7289428710938
42,792.967041015625,795.7875366210938,790.952392578125,788.1318969726562
43,790.952392578125,792.967041015625,792.1611938476562,783.6996459960938
44,789.3406372070312,788.937744140625,793.7728881835938,785.3113403320312
45,787.7289428710938,786.1171875,790.5494384765625,786.1171875
46,794.1758422851562,790.952392578125,789.7435913085938,791.7582397460938
47,795.3846435546875,795.3846435546875,791.7582397460938,796.5933837890625
48,794.5787353515625,797.8021850585938,792.5640869140625,797.3992919921875
49,795.3846435546875,796.1904907226562,791.7582397460938,796.5933837890625
50,794.5787353515625,791.3552856445312,791.7582397460938,792.5640869140625
51,801.025634765625,792.5640869140625,796.5933837890625,798.2051391601562
52,801.8314819335938,793.7728881835938,800.6226806640625,805.8607788085938
53,794.981689453125,792.1611938476562,796.5933837890625,795.7875366210938
54,792.967041015625,786.923095703125,793.3699340820312,788.1318969726562
55,794.1758422851562,783.6996459960938,795.7875366210938,790.1465454101562
56,792.5640869140625,789.3406372070312,794.5787353515625,787.7289428710938
57,791.7582397460938,790.952392578125,794.5787353515625,792.5640869140625
58,793.3699340820312,790.1465454101562,797.8021850585938,792.967041015625
59,793.3699340820312,795.3846435546875,794.1758422851562,784.1025390625
60,796.1904907226562,794.5787353515625,792.5640869140625,791.7582397460938
61,799.4139404296875,788.937744140625,794.5787353515625,803.040283203125
62,794.1758422851562,789.7435913085938,795.3846435546875,790.5494384765625
63,788.937744140625,787.7289428710938,800.2197875976562,785.3113403320312
64,786.5201416015625,788.1318969726562,804.2490844726562,791.3552856445312
65,788.1318969726562,786.923095703125,800.6226806640625,794.1758422851562
66,787.7289428710938,787.7289428710938,805.4578857421875,793.7728881835938
67,784.5054931640625,786.1171875,807.069580078125,792.5640869140625
68,783.2966918945312,788.5347900390625,800.6226806640625,791.7582397460938
69,782.087890625,799.4139404296875,798.2051391601562,783.6996459960938
70,775.6410522460938,799.8168334960938,796.5933837890625,774.029296875
71,770.0,795.7875366210938,797.3992919921875,775.6410522460938
72,773.6264038085938,794.5787353515625,797.3992919921875,782.087890625
73,782.4908447265625,793.3699340820312,796.996337890625,785.7142944335938
74,788.937744140625,789.7435913085938,797.8021850585938,786.923095703125
75,787.7289428710938,788.937744140625,798.6080322265625,786.1171875
76,788.5347900390625,786.1171875,797.8021850585938,787.3259887695312
77,782.893798828125,786.5201416015625,797.3992919921875,781.2820434570312
78,782.893798828125,788.5347900390625,795.7875366210938,777.6557006835938
79,792.967041015625,790.5494384765625,799.8168334960938,789.7435913085938
80,794.5787353515625,789.7435913085938,802.6373901367188,790.5494384765625
81,792.1611938476562,786.5201416015625,799.8168334960938,789.7435913085938
82,798.2051391601562,789.3406372070312,801.4285888671875,798.6080322265625
83,801.4285888671875,786.5201416015625,798.6080322265625,800.2197875976562
84,798.6080322265625,789.7435913085938,798.2051391601562,799.8168334960938
85,801.8314819335938,799.010986328125,803.8461303710938,804.2490844726562
86,801.8314819335938,796.996337890625,803.8461303710938,807.069580078125
87,802.6373901367188,792.1611938476562,799.010986328125,807.069580078125
88,801.4285888671875,793.3699340820312,801.8314819335938,805.8607788085938
89,798.2051391601562,797.8021850585938,802.6373901367188,803.4432373046875
90,800.6226806640625,798.6080322265625,798.6080322265625,801.4285888671875
91,801.8314819335938,803.040283203125,798.6080322265625,806.2637329101562
92,806.6666870117188,805.8607788085938,801.4285888671875,805.8607788085938
93,804.6520385742188,801.8314819335938,799.010986328125,803.040283203125
94,792.967041015625,795.3846435546875,795.3846435546875,800.6226806640625
95,789.7435913085938,792.5640869140625,794.5787353515625,793.3699340820312
96,792.967041015625,791.7582397460938,792.967041015625,790.1465454101562
97,790.952392578125,790.952392578125,791.7582397460938,790.952392578125
98,794.981689453125,790.952392578125,791.3552856445312,790.952392578125
99,794.5787353515625,790.5494384765625,789.7435913085938,789.7435913085938
100,793.3699340820312,793.3699340820312,788.937744140625,794.5787353515625
101,794.5787353515625,795.3846435546875,789.7435913085938,795.3846435546875
102,790.952392578125,792.5640869140625,794.1758422851562,796.1904907226562
103,792.5640869140625,792.1611938476562,792.5640869140625,808.6813354492188
104,792.5640869140625,792.5640869140625,790.952392578125,803.4432373046875
105,793.7728881835938,794.981689453125,796.1904907226562,795.3846435546875
106,795.3846435546875,795.3846435546875,791.7582397460938,797.8021850585938
107,790.5494384765625,793.7728881835938,790.5494384765625,794.5787353515625
108,791.3552856445312,795.3846435546875,794.981689453125,791.3552856445312
109,798.2051391601562,797.3992919921875,798.2051391601562,794.1758422851562
110,793.7728881835938,801.4285888671875,798.6080322265625,792.967041015625
111,789.3406372070312,800.6226806640625,797.8021850585938,793.7728881835938
112,793.3699340820312,798.2051391601562,792.967041015625,796.1904907226562
113,796.996337890625,797.8021850585938,790.952392578125,798.2051391601562
114,796.996337890625,796.1904907226562,792.967041015625,803.040283203125
115,793.3699340820312,793.7728881835938,796.1904907226562,798.2051391601562
116,788.937744140625,790.5494384765625,794.1758422851562,791.7582397460938
117,789.3406372070312,790.1465454101562,793.7728881835938,794.981689453125
118,792.967041015625,794.981689453125,790.952392578125,796.5933837890625
119,791.3552856445312,794.1758422851562,787.7289428710938,791.7582397460938
120,793.7728881835938,790.5494384765625,788.937744140625,793.7728881835938
121,795.3846435546875,791.3552856445312,790.1465454101562,797.8021850585938
122,788.1318969726562,788.937744140625,789.7435913085938,790.952392578125
123,789.7435913085938,785.3113403320312,790.1465454101562,788.1318969726562
124,792.967041015625,790.5494384765625,786.923095703125,788.5347900390625
125,794.981689453125,788.5347900390625,786.5201416015625,793.7728881835938
126,796.5933837890625,792.1611938476562,788.5347900390625,803.8461303710938
127,793.3699340820312,794.981689453125,785.3113403320312,797.3992919921875
128,800.2197875976562,793.3699340820312,788.1318969726562,796.1904907226562
129,808.6813354492188,795.7875366210938,788.937744140625,796.1904907226562
130,803.8461303710938,790.952392578125,784.1025390625,789.7435913085938
131,796.5933837890625,787.7289428710938,785.3113403320312,792.967041015625
132,790.1465454101562,788.5347900390625,786.5201416015625,793.3699340820312
133,790.5494384765625,784.5054931640625,786.1171875,796.5933837890625
134,796.1904907226562,782.4908447265625,789.3406372070312,799.8168334960938
135,799.8168334960938,784.5054931640625,789.3406372070312,797.8021850585938
136,797.8021850585938,783.6996459960938,790.5494384765625,796.996337890625
137,797.8021850585938,787.7289428710938,795.7875366210938,801.4285888671875
138,796.996337890625,791.3552856445312,798.6080322265625,797.3992919921875
139,799.8168334960938,786.5201416015625,799.010986328125,788.1318969726562
140,801.4285888671875,788.937744140625,798.2051391601562,791.3552856445312
141,799.010986328125,794.5787353515625,797.8021850585938,792.5640869140625
142,793.7728881835938,794.5787353515625,793.7728881835938,786.5201416015625
143,789.7435913085938,795.3846435546875,791.7582397460938,790.5494384765625
144,790.1465454101562,792.5640869140625,791.3552856445312,796.5933837890625
145,790.952392578125,788.5347900390625,791.7582397460938,794.981689453125
146,790.5494384765625,791.3552856445312,796.1904907226562,794.981689453125
147,789.7435913085938,793.7728881835938,797.8021850585938,794.1758422851562
148,794.5787353515625,793.7728881835938,801.025634765625,796.5933837890625
149,796.996337890625,794.1758422851562,801.025634765625,802.2344360351562
150,790.952392578125,792.967041015625,803.4432373046875,794.981689453125
151,787.3259887695312,791.7582397460938,801.4285888671875,788.937744140625
152,788.937744140625,791.3552856445312,794.981689453125,789.3406372070312
153,790.5494384765625,797.8021850585938,796.1904907226562,790.952392578125
154,789.7435913085938,794.981689453125,797.8021850585938,789.7435913085938
155,789.7435913085938,787.7289428710938,796.1904907226562,785.3113403320312
156,791.7582397460938,786.1171875,796.5933837890625,782.893798828125
157,789.3406372070312,784.908447265625,794.5787353515625,776.8497924804688
158,786.923095703125,791.3552856445312,796.1904907226562,783.2966918945312
159,790.1465454101562,796.996337890625,795.3846435546875,789.7435913085938
160,795.3846435546875,793.7728881835938,793.7728881835938,788.937744140625
161,793.7728881835938,794.1758422851562,794.981689453125,789.7435913085938
162,787.3259887695312,796.996337890625,796.1904907226562,789.7435913085938
163,784.908447265625,792.1611938476562,795.7875366210938,789.7435913085938
164,786.1171875,789.3406372070312,789.3406372070312,794.5787353515625
165,785.3113403320312,790.952392578125,786.5201416015625,790.952392578125
166,790.1465454101562,792.5640869140625,793.7728881835938,787.3259887695312
167,789.3406372070312,790.5494384765625,800.2197875976562,780.4761962890625
168,784.5054931640625,790.952392578125,799.4139404296875,774.8351440429688
169,791.3552856445312,793.3699340820312,798.6080322265625,782.893798828125
170,796.1904907226562,792.5640869140625,795.7875366210938,789.7435913085938
171,795.3846435546875,788.937744140625,792.5640869140625,786.5201416015625
172,790.1465454101562,787.3259887695312,792.1611938476562,781.2820434570312
173,788.5347900390625,787.3259887695312,788.5347900390625,781.2820434570312
174,787.3259887695312,788.1318969726562,788.1318969726562,780.879150390625
175,790.1465454101562,785.7142944335938,788.1318969726562,785.3113403320312
176,794.5787353515625,784.1025390625,791.3552856445312,789.7435913085938
177,788.1318969726562,786.1171875,794.981689453125,782.4908447265625
178,792.967041015625,790.5494384765625,794.1758422851562,783.6996459960938
179,794.5787353515625,790.5494384765625,794.1758422851562,782.4908447265625
180,790.952392578125,793.7728881835938,794.5787353515625,778.8644409179688
181,788.5347900390625,794.1758422851562,793.7728881835938,784.1025390625
182,786.923095703125,788.1318969726562,794.1758422851562,787.3259887695312
183,785.3113403320312,786.1171875,789.3406372070312,783.2966918945312
184,783.6996459960938,785.3113403320312,790.1465454101562,781.6849975585938
185,792.967041015625,790.1465454101562,795.3846435546875,790.952392578125
186,799.4139404296875,791.7582397460938,794.981689453125,794.981689453125
187,791.3552856445312,786.923095703125,789.3406372070312,790.952392578125
188,782.087890625,787.7289428710938,786.1171875,784.5054931640625
189,786.923095703125,790.5494384765625,789.3406372070312,782.893798828125
190,793.3699340820312,790.952392578125,791.3552856445312,786.923095703125
191,793.3699340820312,793.3699340820312,792.967041015625,790.1465454101562
192,792.5640869140625,792.1611938476562,796.5933837890625,786.923095703125
193,792.967041015625,786.5201416015625,796.5933837890625,787.7289428710938
194,792.5640869140625,788.5347900390625,797.3992919921875,792.1611938476562
195,793.7728881835938,797.3992919921875,796.1904907226562,790.5494384765625
196,797.8021850585938,796.1904907226562,789.7435913085938,786.1171875
197,796.1904907226562,794.981689453125,791.3552856445312,783.6996459960938
198,795.3846435546875,794.1758422851562,793.7728881835938,789.7435913085938
199,791.7582397460938,791.7582397460938,788.937744140625,785.7142944335938
200,792.967041015625,794.981689453125,787.7289428710938,780.4761962890625
201,794.981689453125,791.7582397460938,788.937744140625,783.6996459960938
202,786.923095703125,790.5494384765625,788.5347900390625,780.0732421875
203,786.923095703125,788.937744140625,790.5494384765625,780.4761962890625
204,790.5494384765625,788.5347900390625,785.7142944335938,780.879150390625
205,789.7435913085938,786.923095703125,783.2966918945312,778.8644409179688
206,786.1171875,782.087890625,784.5054931640625,782.893798828125
207,783.2966918945312,782.4908447265625,786.1171875,783.6996459960938
208,783.6996459960938,780.4761962890625,790.5494384765625,780.0732421875
209,786.1171875,779.6703491210938,787.7289428710938,782.893798828125
210,783.6996459960938,780.0732421875,788.1318969726562,786.923095703125
211,782.893798828125,778.05859375,792.1611938476562,786.923095703125
212,787.7289428710938,783.6996459960938,791.7582397460938,785.3113403320312
213,782.4908447265625,790.1465454101562,789.3406372070312,782.4908447265625
214,777.2527465820312,791.7582397460938,790.1465454101562,786.923095703125
215,784.5054931640625,789.7435913085938,790.952392578125,794.1758422851562
216,784.908447265625,785.7142944335938,792.1611938476562,786.5201416015625
217,789.3406372070312,789.7435913085938,796.996337890625,788.5347900390625
218,794.1758422851562,795.3846435546875,799.010986328125,797.3992919921875
219,792.967041015625,792.967041015625,796.1904907226562,793.3699340820312
220,794.1758422851562,789.3406372070312,793.7728881835938,788.5347900390625
221,798.6080322265625,790.1465454101562,797.8021850585938,794.1758422851562
222,801.025634765625,792.967041015625,800.6226806640625,797.8021850585938
223,799.8168334960938,792.967041015625,798.2051391601562,788.5347900390625
224,801.4285888671875,796.996337890625,799.8168334960938,787.3259887695312
225,802.2344360351562,799.8168334960938,802.6373901367188,794.5787353515625
226,799.4139404296875,796.996337890625,801.8314819335938,797.3992919921875
227,800.2197875976562,797.8021850585938,807.069580078125,803.040283203125
228,797.3992919921875,799.010986328125,804.2490844726562,799.4139404296875
229,792.1611938476562,801.4285888671875,803.4432373046875,795.3846435546875
230,793.7728881835938,800.6226806640625,807.87548828125,801.4285888671875
231,794.5787353515625,798.2051391601562,806.6666870117188,801.025634765625
232,792.1611938476562,796.1904907226562,805.054931640625,792.5640869140625
233,792.967041015625,793.7728881835938,801.8314819335938,797.3992919921875
234,791.3552856445312,787.7289428710938,801.025634765625,797.3992919921875
235,783.6996459960938,786.1171875,801.4285888671875,790.952392578125
236,781.6849975585938,785.3113403320312,800.2197875976562,794.1758422851562
237,790.1465454101562,788.5347900390625,801.8314819335938,797.3992919921875
238,794.981689453125,791.7582397460938,802.2344360351562,797.3992919921875
239,793.3699340820312,791.3552856445312,801.4285888671875,798.6080322265625
240,794.5787353515625,794.5787353515625,799.8168334960938,799.010986328125
241,794.981689453125,793.3699340820312,797.3992919921875,794.981689453125
242,795.3846435546875,791.3552856445312,796.5933837890625,797.8021850585938
243,794.1758422851562,788.1318969726562,793.7728881835938,800.6226806640625
244,796.996337890625,784.5054931640625,796.5933837890625,799.010986328125
245,800.2197875976562,787.7289428710938,799.010986328125,800.2197875976562
246,802.2344360351562,791.7582397460938,799.010986328125,801.4285888671875
247,799.8168334960938,790.1465454101562,800.2197875976562,794.5787353515625
248,796.5933837890625,791.7582397460938,800.2197875976562,800.2197875976562
249,792.1611938476562,796.1904907226562,797.3992919921875,805.4578857421875
250,788.5347900390625,793.7728881835938,793.7728881835938,790.952392578125
251,787.7289428710938,789.3406372070312,790.952392578125,787.3259887695312
252,792.1611938476562,782.4908447265625,791.7582397460938,800.2197875976562
253,801.8314819335938,778.8644409179688,798.2051391601562,814.3223266601562
254,795.3846435546875,786.923095703125,795.7875366210938,803.4432373046875
255,787.3259887695312,793.3699340820312,788.1318969726562,787.7289428710938
256,794.981689453125,790.952392578125,790.5494384765625,794.5787353515625
257,794.1758422851562,793.7728881835938,789.7435913085938,789.3406372070312
258,795.7875366210938,796.1904907226562,790.1465454101562,787.3259887695312
259,790.1465454101562,789.7435913085938,788.937744140625,786.923095703125
260,791.3552856445312,790.5494384765625,786.1171875,794.1758422851562
261,795.7875366210938,789.7435913085938,788.1318969726562,793.3699340820312
262,798.6080322265625,784.5054931640625,791.3552856445312,788.937744140625
263,804.2490844726562,790.1465454101562,793.3699340820312,788.1318969726562
264,802.6373901367188,795.3846435546875,790.952392578125,788.5347900390625
265,798.6080322265625,796.5933837890625,792.967041015625,788.1318969726562
266,799.4139404296875,790.5494384765625,798.2051391601562,786.1171875
267,799.010986328125,788.937744140625,797.8021850585938,788.937744140625
268,797.8021850585938,796.996337890625,794.981689453125,794.1758422851562
269,797.3992919921875,799.8168334960938,798.6080322265625,792.967041015625
270,792.967041015625,796.5933837890625,799.010986328125,786.923095703125
271,794.5787353515625,793.3699340820312,797.8021850585938,794.1758422851562
272,796.1904907226562,796.996337890625,802.2344360351562,802.2344360351562
273,796.5933837890625,796.996337890625,800.2197875976562,795.7875366210938
274,802.2344360351562,792.1611938476562,797.8021850585938,796.5933837890625
275,798.6080322265625,792.5640869140625,803.040283203125,801.025634765625
276,793.3699340820312,796.1904907226562,804.6520385742188,801.4285888671875
277,795.3846435546875,794.5787353515625,804.6520385742188,799.8168334960938
278,792.1611938476562,789.7435913085938,803.4432373046875,792.5640869140625
279,784.5054931640625,786.923095703125,801.025634765625,786.1171875
280,784.908447265625,788.5347900390625,800.2197875976562,784.908447265625
281,782.087890625,791.3552856445312,798.2051391601562,784.5054931640625
282,777.6557006835938,787.3259887695312,792.5640869140625,779.6703491210938
283,782.087890625,786.923095703125,792.967041015625,783.6996459960938
284,783.2966918945312,789.7435913085938,794.1758422851562,781.6849975585938
285,785.7142944335938,792.5640869140625,791.7582397460938,779.6703491210938
286,791.3552856445312,801.025634765625,792.5640869140625,789.7435913085938
287,794.981689453125,798.2051391601562,794.5787353515625,796.5933837890625
288,797.8021850585938,790.5494384765625,794.5787353515625,801.025634765625
289,793.3699340820312,790.952392578125,793.3699340820312,796.996337890625
290,791.3552856445312,792.5640869140625,792.967041015625,801.025634765625
291,795.3846435546875,797.8021850585938,796.5933837890625,806.6666870117188
292,796.5933837890625,799.4139404296875,796.996337890625,799.8168334960938
293,795.7875366210938,796.1904907226562,793.3699340820312,798.2051391601562
294,797.3992919921875,799.8168334960938,794.981689453125,806.2637329101562
295,800.6226806640625,805.8607788085938,800.6226806640625,814.7252807617188
296,803.4432373046875,804.2490844726562,798.6080322265625,809.4871826171875
297,800.6226806640625,804.6520385742188,792.5640869140625,800.2197875976562
298,792.1611938476562,801.025634765625,788.937744140625,793.3699340820312
299,791.7582397460938,796.996337890625,791.3552856445312,792.967041015625
300,788.5347900390625,796.996337890625,793.7728881835938,786.923095703125
301,782.4908447265625,799.4139404296875,792.1611938476562,781.2820434570312
302,786.1171875,797.8021850585938,792.967041015625,782.893798828125
303,791.3552856445312,793.7728881835938,790.1465454101562,783.2966918945312
304,788.5347900390625,796.5933837890625,791.7582397460938,783.6996459960938
305,788.937744140625,795.7875366210938,785.7142944335938,777.6557006835938
306,789.3406372070312,792.967041015625,778.8644409179688,782.4908447265625
307,786.1171875,790.952392578125,786.1171875,784.1025390625
308,782.893798828125,786.1171875,788.5347900390625,778.05859375
309,781.6849975585938,792.5640869140625,785.7142944335938,778.05859375
310,786.923095703125,790.1465454101562,785.7142944335938,776.0439453125
311,790.952392578125,785.3113403320312,789.7435913085938,777.6557006835938
312,789.3406372070312,788.937744140625,794.1758422851562,780.879150390625
313,792.5640869140625,790.952392578125,793.3699340820312,786.5201416015625
314,794.981689453125,794.981689453125,793.7728881835938,792.5640869140625
315,792.967041015625,793.3699340820312,794.981689453125,787.7289428710938
316,792.5640869140625,788.5347900390625,790.1465454101562,784.1025390625
317,795.3846435546875,790.5494384765625,787.3259887695312,788.937744140625
318,797.8021850585938,796.1904907226562,792.5640869140625,796.996337890625
319,792.5640869140625,803.8461303710938,798.6080322265625,788.5347900390625
320,792.5640869140625,804.2490844726562,799.8168334960938,786.1171875
321,791.3552856445312,796.5933837890625,801.8314819335938,790.5494384765625
322,790.952392578125,794.981689453125,803.040283203125,790.952392578125
323,796.1904907226562,798.6080322265625,798.6080322265625,790.5494384765625
324,794.5787353515625,799.010986328125,795.7875366210938,788.1318969726562
325,794.5787353515625,796.996337890625,792.1611938476562,792.967041015625
326,796.5933837890625,795.3846435546875,791.7582397460938,790.1465454101562
327,794.5787353515625,794.981689453125,798.2051391601562,790.1465454101562
328,795.3846435546875,794.5787353515625,796.996337890625,794.5787353515625
329,794.981689453125,793.3699340820312,797.8021850585938,794.5787353515625
330,795.3846435546875,794.981689453125,801.8314819335938,790.1465454101562
331,796.5933837890625,795.7875366210938,800.6226806640625,793.3699340820312
332,792.5640869140625,788.937744140625,804.6520385742188,800.6226806640625
333,799.010986328125,786.923095703125,805.4578857421875,804.6520385742188
334,803.4432373046875,791.7582397460938,801.8314819335938,804.2490844726562
335,800.6226806640625,796.1904907226562,802.2344360351562,801.025634765625
336,793.3699340820312,796.1904907226562,799.4139404296875,793.3699340820312
337,791.7582397460938,798.2051391601562,796.5933837890625,789.7435913085938
338,799.010986328125,799.4139404296875,794.981689453125,793.7728881835938
339,803.040283203125,799.8168334960938,796.1904907226562,794.981689453125
340,796.5933837890625,798.2051391601562,796.5933837890625,787.7289428710938
341,792.1611938476562,791.7582397460938,790.5494384765625,779.6703491210938
342,791.3552856445312,791.3552856445312,790.1465454101562,780.0732421875
343,785.7142944335938,793.3699340820312,786.1171875,780.4761962890625
344,786.923095703125,791.3552856445312,784.5054931640625,785.7142944335938
345,789.3406372070312,788.937744140625,789.3406372070312,792.1611938476562
346,788.937744140625,794.981689453125,791.7582397460938,785.7142944335938
347,791.7582397460938,794.981689453125,791.7582397460938,780.879150390625
348,793.7728881835938,790.952392578125,792.1611938476562,782.4908447265625
349,797.8021850585938,792.967041015625,794.5787353515625,788.937744140625
350,797.3992919921875,793.3699340820312,794.5787353515625,792.1611938476562
351,794.981689453125,784.908447265625,795.3846435546875,793.7728881835938
352,792.967041015625,785.3113403320312,796.5933837890625,791.7582397460938
353,797.3992919921875,791.3552856445312,795.7875366210938,794.5787353515625
354,799.8168334960938,792.1611938476562,795.3846435546875,794.5787353515625
355,801.4285888671875,792.1611938476562,794.1758422851562,795.3846435546875
356,801.4285888671875,793.7728881835938,794.5787353515625,804.2490844726562
357,794.1758422851562,795.3846435546875,796.996337890625,794.5787353515625
358,792.967041015625,794.1758422851562,794.5787353515625,790.1465454101562
359,794.981689453125,790.952392578125,791.3552856445312,792.967041015625
360,796.996337890625,790.5494384765625,791.3552856445312,794.5787353515625
361,790.952392578125,790.5494384765625,788.937744140625,794.5787353515625
362,782.893798828125,791.7582397460938,789.3406372070312,790.1465454101562
363,784.908447265625,792.5640869140625,787.7289428710938,789.3406372070312
364,786.923095703125,789.7435913085938,786.1171875,789.7435913085938
365,784.5054931640625,790.952392578125,784.908447265625,785.3113403320312
366,794.5787353515625,794.981689453125,789.7435913085938,793.7728881835938
367,801.025634765625,792.1611938476562,800.6226806640625,805.054931640625
368,795.3846435546875,795.3846435546875,800.2197875976562,799.010986328125
369,784.5054931640625,798.6080322265625,792.967041015625,780.4761962890625
370,778.05859375,796.1904907226562,789.7435913085938,774.029296875
371,776.0439453125,787.7289428710938,788.1318969726562,774.8351440429688
372,772.4176025390625,786.1171875,786.1171875,773.2234497070312
373,775.6410522460938,792.967041015625,790.952392578125,780.0732421875
374,778.8644409179688,795.3846435546875,794.5787353515625,784.1025390625
375,780.879150390625,794.981689453125,794.1758422851562,787.7289428710938
376,775.6410522460938,790.1465454101562,793.7728881835938,782.4908447265625
377,772.8204956054688,786.1171875,791.3552856445312,780.4761962890625
378,781.2820434570312,788.937744140625,796.1904907226562,788.937744140625
379,788.1318969726562,793.3699340820312,801.025634765625,798.6080322265625
380,788.1318969726562,792.5640869140625,803.8461303710938,793.3699340820312
381,786.923095703125,792.5640869140625,803.4432373046875,784.908447265625
382,791.3552856445312,794.5787353515625,799.8168334960938,792.5640869140625
383,792.967041015625,791.3552856445312,801.8314819335938,792.5640869140625
384,797.3992919921875,795.3846435546875,801.025634765625,792.1611938476562
385,801.4285888671875,800.6226806640625,805.054931640625,795.3846435546875
386,800.2197875976562,797.3992919921875,805.8607788085938,794.981689453125
387,796.996337890625,799.4139404296875,799.010986328125,792.5640869140625
388,792.967041015625,801.025634765625,797.3992919921875,785.3113403320312
389,797.3992919921875,794.1758422851562,794.5787353515625,788.937744140625
390,803.4432373046875,792.1611938476562,792.967041015625,787.3259887695312
391,800.2197875976562,798.2051391601562,791.3552856445312,782.087890625
392,794.981689453125,800.6226806640625,793.7728881835938,789.7435913085938
393,787.3259887695312,797.8021850585938,796.5933837890625,788.937744140625
394,781.6849975585938,791.7582397460938,793.3699340820312,785.7142944335938
395,778.4615478515625,788.937744140625,790.1465454101562,785.7142944335938
396,781.6849975585938,790.1465454101562,792.1611938476562,787.3259887695312
397,778.8644409179688,788.937744140625,799.010986328125,785.7142944335938
398,777.6557006835938,789.3406372070312,802.6373901367188,791.7582397460938
399,775.6410522460938,794.1758422851562,799.8168334960938,792.1611938476562
400,778.05859375,794.981689453125,794.981689453125,779.6703491210938
401,782.893798828125,794.981689453125,798.2051391601562,776.4468994140625
402,783.6996459960938,795.7875366210938,799.010986328125,780.0732421875
403,785.7142944335938,796.996337890625,797.3992919921875,780.879150390625
404,798.2051391601562,795.3846435546875,797.3992919921875,784.5054931640625
405,805.8607788085938,794.1758422851562,795.7875366210938,790.1465454101562
406,807.4725341796875,799.8168334960938,795.7875366210938,797.3992919921875
407,816.7399291992188,802.6373901367188,798.6080322265625,798.6080322265625
408,816.3369750976562,801.4285888671875,800.2197875976562,791.7582397460938
409,816.3369750976562,800.6226806640625,795.7875366210938,792.967041015625
410,817.5457763671875,796.1904907226562,794.981689453125,792.1611938476562
411,810.2930297851562,796.996337890625,793.7728881835938,786.923095703125
412,800.6226806640625,797.3992919921875,788.5347900390625,785.7142944335938
413,794.5787353515625,794.981689453125,791.7582397460938,785.3113403320312
414,791.7582397460938,792.967041015625,794.1758422851562,790.1465454101562
415,787.7289428710938,788.5347900390625,793.7728881835938,790.5494384765625
416,786.923095703125,784.908447265625,792.1611938476562,784.1025390625
417,784.908447265625,783.2966918945312,787.7289428710938,784.908447265625
418,785.7142944335938,785.7142944335938,791.7582397460938,787.7289428710938
419,784.1025390625,786.1171875,795.7875366210938,786.1171875
420,774.4322509765625,786.1171875,792.967041015625,783.6996459960938
421,774.8351440429688,782.087890625,790.952392578125,783.2966918945312
422,774.4322509765625,781.2820434570312,789.7435913085938,783.2966918945312
423,770.0,785.7142944335938,793.7728881835938,784.1025390625
424,772.4176025390625,787.7289428710938,795.3846435546875,788.5347900390625
425,777.6557006835938,791.7582397460938,799.8168334960938,799.4139404296875
426,779.2673950195312,795.7875366210938,804.2490844726562,799.8168334960938
427,782.893798828125,792.967041015625,801.8314819335938,794.1758422851562
428,788.1318969726562,787.7289428710938,796.5933837890625,798.2051391601562
429,792.1611938476562,787.3259887695312,791.3552856445312,796.5933837890625
430,792.5640869140625,790.5494384765625,791.7582397460938,790.5494384765625
431,796.996337890625,790.5494384765625,791.7582397460938,790.5494384765625
432,799.8168334960938,790.952392578125,788.937744140625,794.1758422851562
433,798.6080322265625,794.981689453125,792.5640869140625,793.3699340820312
434,802.2344360351562,793.7728881835938,796.1904907226562,787.7289428710938
435,803.040283203125,791.7582397460938,798.2051391601562,786.1171875
436,799.010986328125,789.7435913085938,797.8021850585938,790.1465454101562
437,793.7728881835938,786.923095703125,796.5933837890625,786.923095703125
438,788.5347900390625,786.923095703125,796.1904907226562,779.6703491210938
439,785.7142944335938,786.923095703125,790.5494384765625,782.087890625
440,786.923095703125,786.923095703125,788.5347900390625,780.879150390625
441,783.2966918945312,788.937744140625,793.7728881835938,778.4615478515625
442,777.6557006835938,783.6996459960938,791.3552856445312,770.4029541015625
443,772.8204956054688,777.2527465820312,787.3259887695312,768.7911987304688
444,769.1941528320312,777.2527465820312,788.5347900390625,774.8351440429688
445,771.6116943359375,779.2673950195312,794.981689453125,782.4908447265625
446,775.6410522460938,782.087890625,798.2051391601562,786.1171875
447,778.4615478515625,777.6557006835938,794.5787353515625,785.3113403320312
448,781.2820434570312,774.8351440429688,791.7582397460938,783.6996459960938
449,784.908447265625,780.879150390625,794.981689453125,778.8644409179688
450,787.7289428710938,784.1025390625,797.3992919921875,782.087890625
451,795.3846435546875,788.937744140625,797.8021850585938,787.3259887695312
452,801.025634765625,791.3552856445312,794.5787353515625,794.1758422851562
453,799.8168334960938,788.5347900390625,793.3699340820312,796.5933837890625
454,799.4139404296875,788.5347900390625,795.3846435546875,791.7582397460938
455,802.2344360351562,790.1465454101562,796.5933837890625,791.7582397460938
456,805.8607788085938,790.1465454101562,797.8021850585938,792.967041015625
457,805.054931640625,788.937744140625,794.981689453125,790.952392578125
458,803.4432373046875,794.1758422851562,794.5787353515625,794.981689453125
459,803.4432373046875,796.1904907226562,793.7728881835938,798.6080322265625
460,805.8607788085938,794.1758422851562,794.1758422851562,794.5787353515625
461,803.8461303710938,795.3846435546875,798.2051391601562,791.3552856445312
462,794.1758422851562,793.3699340820312,796.5933837890625,790.1465454101562
463,787.7289428710938,786.5201416015625,792.5640869140625,788.1318969726562
464,786.1171875,784.5054931640625,792.967041015625,789.7435913085938
465,782.4908447265625,789.3406372070312,792.967041015625,786.5201416015625
466,781.2820434570312,788.937744140625,796.5933837890625,782.893798828125
467,781.6849975585938,786.1171875,797.3992919921875,783.2966918945312
468,777.6557006835938,786.1171875,796.1904907226562,778.4615478515625
469,776.4468994140625,787.7289428710938,796.5933837890625,778.05859375
470,781.2820434570312,790.5494384765625,794.981689453125,779.6703491210938
471,785.7142944335938,785.3113403320312,791.3552856445312,776.0439453125
472,794.981689453125,781.2820434570312,787.3259887695312,782.087890625
473,803.4432373046875,786.923095703125,788.1318969726562,787.7289428710938
474,804.6520385742188,792.5640869140625,789.7435913085938,784.908447265625
475,805.4578857421875,799.010986328125,787.7289428710938,790.1465454101562
476,805.054931640625,802.2344360351562,789.7435913085938,787.3259887695312
477,802.6373901367188,794.981689453125,792.5640869140625,779.2673950195312
478,803.4432373046875,789.7435913085938,796.996337890625,784.1025390625
479,801.4285888671875,792.1611938476562,800.2197875976562,784.5054931640625
480,794.981689453125,799.4139404296875,799.4139404296875,781.6849975585938
481,795.7875366210938,804.2490844726562,797.8021850585938,782.4908447265625
482,792.5640869140625,795.7875366210938,796.5933837890625,781.6849975585938
483,786.1171875,789.3406372070312,795.7875366210938,778.05859375
484,778.8644409179688,795.7875366210938,797.8021850585938,778.8644409179688
485,768.3883056640625,797.8021850585938,801.4285888671875,774.4322509765625
486,761.5384521484375,792.5640869140625,802.2344360351562,773.6264038085938
487,747.4359130859375,784.1025390625,794.5787353515625,770.0
488,728.901123046875,784.5054931640625,793.7728881835938,750.6593627929688
489,721.2454223632812,788.1318969726562,796.996337890625,745.018310546875
490,709.96337890625,790.1465454101562,796.996337890625,739.7802124023438
491,695.4578857421875,796.5933837890625,801.8314819335938,720.8424682617188
492,690.6226806640625,785.7142944335938,799.8168334960938,714.3956298828125
493,692.6373901367188,784.1025390625,801.025634765625,711.97802734375
494,683.7728881835938,804.6520385742188,809.89013671875,696.6666870117188
495,674.1025390625,812.3076782226562,815.5311279296875,682.1611938476562
496,669.6703491210938,810.6959838867188,813.5164794921875,672.893798828125
497,669.2673950195312,806.2637329101562,815.1282348632812,670.879150390625
498,666.0439453125,800.2197875976562,814.3223266601562,674.1025390625
499,664.029296875,804.2490844726562,814.7252807617188,668.4615478515625
500,667.2527465820312,805.054931640625,821.1721801757812,663.2234497070312
501,671.6849975585938,803.8461303710938,825.2014770507812,667.2527465820312
502,677.3259887695312,802.2344360351562,829.2307739257812,670.879150390625
503,686.1904907226562,803.4432373046875,835.6776733398438,680.5494384765625
504,692.6373901367188,807.4725341796875,834.8717651367188,694.6520385742188
505,698.6813354492188,802.6373901367188,833.6630249023438,709.5604248046875
506,703.113525390625,795.3846435546875,834.8717651367188,712.7838745117188
507,709.1575317382812,797.8021850585938,829.2307739257812,711.97802734375
508,724.06591796875,801.025634765625,827.6190185546875,723.6630249023438
509,735.3479614257812,801.4285888671875,829.2307739257812,744.6153564453125
510,727.2893676757812,801.025634765625,829.6337280273438,748.2417602539062
511,729.7069702148438,799.4139404296875,829.2307739257812,750.2564086914062
512,751.8681030273438,795.7875366210938,825.6043701171875,770.4029541015625
513,765.5677490234375,791.7582397460938,826.00732421875,782.087890625
514,762.7472534179688,793.3699340820312,815.93408203125,775.2380981445312
515,760.3296508789062,794.981689453125,806.6666870117188,774.8351440429688
516,768.3883056640625,788.937744140625,801.8314819335938,783.2966918945312
517,775.6410522460938,787.7289428710938,794.1758422851562,785.3113403320312
518,784.5054931640625,790.1465454101562,790.5494384765625,792.1611938476562
519,791.7582397460938,785.7142944335938,788.1318969726562,794.5787353515625
520,793.3699340820312,782.4908447265625,784.5054931640625,797.3992919921875
521,804.6520385742188,782.087890625,780.0732421875,807.4725341796875
522,819.5604248046875,778.4615478515625,784.5054931640625,811.5018310546875
523,831.6483764648438,777.2527465820312,782.893798828125,817.1428833007812
524,832.8571166992188,783.6996459960938,780.4761962890625,826.8131713867188
525,834.4688720703125,783.6996459960938,781.6849975585938,832.05126953125
526,836.4835205078125,782.4908447265625,777.6557006835938,831.2454223632812
527,837.2893676757812,783.2966918945312,775.2380981445312,826.8131713867188
528,846.1538696289062,783.6996459960938,777.2527465820312,832.05126953125
529,849.7802124023438,788.5347900390625,779.6703491210938,840.10986328125
530,850.5860595703125,790.952392578125,778.8644409179688,842.930419921875
531,847.7655639648438,790.5494384765625,779.2673950195312,836.08056640625
532,845.3479614257812,790.952392578125,779.2673950195312,834.06591796875
533,850.5860595703125,787.7289428710938,782.893798828125,840.5128173828125
534,851.7948608398438,787.3259887695312,787.3259887695312,836.4835205078125
535,847.3626098632812,789.7435913085938,785.3113403320312,834.06591796875
536,849.7802124023438,792.5640869140625,783.2966918945312,840.5128173828125
537,853.4066162109375,795.7875366210938,787.3259887695312,845.3479614257812
538,848.5714111328125,794.1758422851562,790.5494384765625,837.2893676757812
539,840.915771484375,790.5494384765625,782.893798828125,831.2454223632812
540,832.4542236328125,789.7435913085938,779.2673950195312,831.6483764648438
541,828.8278198242188,792.967041015625,784.5054931640625,827.6190185546875
542,830.4395751953125,795.7875366210938,785.7142944335938,830.4395751953125
543,830.8424682617188,794.1758422851562,779.2673950195312,826.00732421875
544,833.6630249023438,794.1758422851562,778.4615478515625,831.6483764648438
545,838.09521484375,801.4285888671875,788.1318969726562,836.886474609375
546,834.4688720703125,802.2344360351562,792.967041015625,829.6337280273438
547,833.6630249023438,795.3846435546875,790.5494384765625,829.6337280273438
548,838.4981689453125,792.1611938476562,784.5054931640625,830.03662109375
549,835.2747192382812,790.1465454101562,783.6996459960938,824.7985229492188
550,828.4249267578125,786.923095703125,784.1025390625,822.3809814453125
551,825.2014770507812,787.3259887695312,786.1171875,822.3809814453125
552,830.03662109375,792.1611938476562,788.5347900390625,826.00732421875
553,831.2454223632812,795.3846435546875,786.923095703125,824.7985229492188
554,828.4249267578125,794.5787353515625,784.1025390625,827.2161254882812
555,825.6043701171875,796.1904907226562,783.2966918945312,830.8424682617188
556,820.7692260742188,795.3846435546875,782.087890625,823.1868286132812
557,820.3662719726562,791.7582397460938,779.6703491210938,813.91943359375
558,816.3369750976562,792.5640869140625,777.6557006835938,811.5018310546875
559,811.90478515625,788.937744140625,777.6557006835938,812.3076782226562
560,813.91943359375,785.3113403320312,780.0732421875,806.2637329101562
561,807.069580078125,790.5494384765625,781.2820434570312,799.4139404296875
562,803.8461303710938,794.1758422851562,784.5054931640625,803.040283203125
563,808.6813354492188,795.3846435546875,782.087890625,808.6813354492188
564,811.90478515625,795.7875366210938,779.6703491210938,807.87548828125
565,811.098876953125,798.2051391601562,773.6264038085938,801.025634765625
566,808.2783813476562,797.8021850585938,772.4176025390625,797.3992919921875
567,803.040283203125,797.3992919921875,774.4322509765625,802.6373901367188
568,802.6373901367188,798.2051391601562,773.2234497070312,807.87548828125
569,808.2783813476562,797.3992919921875,777.2527465820312,803.4432373046875
570,808.6813354492188,797.3992919921875,775.2380981445312,799.8168334960938
571,804.6520385742188,799.010986328125,769.5970458984375,795.7875366210938
572,811.098876953125,803.040283203125,776.4468994140625,792.5640869140625
573,819.5604248046875,803.4432373046875,778.8644409179688,792.1611938476562
574,819.5604248046875,804.6520385742188,780.4761962890625,794.981689453125
575,817.5457763671875,807.87548828125,791.7582397460938,800.6226806640625
576,812.7106323242188,806.6666870117188,792.1611938476562,794.981689453125
577,813.91943359375,803.4432373046875,789.7435913085938,799.010986328125
578,816.3369750976562,803.040283203125,796.1904907226562,807.069580078125
579,813.113525390625,800.6226806640625,796.1904907226562,805.8607788085938
580,811.5018310546875,799.4139404296875,792.967041015625,803.4432373046875
581,805.4578857421875,802.6373901367188,793.7728881835938,799.4139404296875
582,795.3846435546875,800.2197875976562,795.3846435546875,802.2344360351562
583,792.5640869140625,798.2051391601562,795.7875366210938,806.6666870117188
584,792.1611938476562,795.3846435546875,795.7875366210938,801.8314819335938
585,792.1611938476562,789.7435913085938,790.5494384765625,795.3846435546875
586,788.5347900390625,788.5347900390625,785.3113403320312,797.8021850585938
587,790.952392578125,788.5347900390625,788.5347900390625,802.2344360351562
588,796.996337890625,789.3406372070312,789.3406372070312,797.8021850585938
589,795.3846435546875,794.1758422851562,788.5347900390625,796.1904907226562
590,790.1465454101562,795.3846435546875,788.1318969726562,800.2197875976562
591,787.7289428710938,792.1611938476562,789.3406372070312,799.010986328125
592,786.923095703125,792.1611938476562,789.7435913085938,792.967041015625
593,793.7728881835938,793.3699340820312,788.5347900390625,788.5347900390625
594,802.6373901367188,796.1904907226562,787.3259887695312,796.996337890625
595,804.6520385742188,796.996337890625,790.5494384765625,797.3992919921875
596,799.4139404296875,792.5640869140625,785.3113403320312,787.7289428710938
597,796.1904907226562,790.1465454101562,773.6264038085938,782.893798828125
598,794.981689453125,788.937744140625,776.4468994140625,785.7142944335938
599,800.6226806640625,791.3552856445312,778.8644409179688,796.996337890625
600,805.054931640625,797.3992919921875,777.6557006835938,798.6080322265625
601,802.6373901367188,792.967041015625,785.3113403320312,796.5933837890625
602,801.4285888671875,787.3259887695312,788.1318969726562,799.8168334960938
603,799.4139404296875,787.7289428710938,788.1318969726562,796.996337890625
604,792.5640869140625,789.3406372070312,786.1171875,791.7582397460938
605,791.7582397460938,787.3259887695312,784.908447265625,791.7582397460938
606,790.952392578125,787.3259887695312,785.3113403320312,794.5787353515625
607,781.2820434570312,790.1465454101562,779.6703491210938,789.7435913085938
608,780.0732421875,793.7728881835938,783.6996459960938,792.5640869140625
609,783.2966918945312,792.967041015625,790.1465454101562,796.5933837890625
610,783.6996459960938,783.6996459960938,792.5640869140625,795.3846435546875
611,777.6557006835938,780.0732421875,792.5640869140625,792.1611938476562
612,778.8644409179688,779.6703491210938,792.967041015625,789.7435913085938
613,780.879150390625,779.6703491210938,794.5787353515625,787.7289428710938
614,780.0732421875,782.087890625,791.7582397460938,785.7142944335938
615,786.1171875,783.6996459960938,788.937744140625,786.1171875
616,787.7289428710938,784.908447265625,790.1465454101562,788.5347900390625
617,785.3113403320312,785.7142944335938,793.3699340820312,794.981689453125
618,784.1025390625,782.893798828125,795.3846435546875,793.3699340820312
619,789.7435913085938,787.7289428710938,797.3992919921875,789.3406372070312
620,794.5787353515625,787.7289428710938,797.8021850585938,790.952392578125
621,794.5787353515625,782.893798828125,792.1611938476562,786.923095703125
622,794.981689453125,785.3113403320312,788.1318969726562,783.2966918945312
623,796.1904907226562,789.3406372070312,786.923095703125,781.2820434570312
624,802.2344360351562,793.7728881835938,788.5347900390625,779.2673950195312
625,809.084228515625,799.010986328125,794.5787353515625,786.5201416015625
626,808.6813354492188,791.3552856445312,790.5494384765625,782.893798828125
627,807.87548828125,790.1465454101562,791.7582397460938,779.2673950195312
628,809.4871826171875,799.8168334960938,796.1904907226562,788.5347900390625
629,807.87548828125,802.2344360351562,793.3699340820312,801.4285888671875
630,807.87548828125,799.010986328125,797.3992919921875,806.2637329101562
631,805.4578857421875,794.1758422851562,794.981689453125,799.8168334960938
632,796.996337890625,791.3552856445312,794.5787353515625,803.8461303710938
633,791.3552856445312,792.1611938476562,799.8168334960938,801.8314819335938
634,790.5494384765625,794.5787353515625,799.8168334960938,795.3846435546875
635,790.1465454101562,792.967041015625,800.2197875976562,797.3992919921875
636,789.3406372070312,789.3406372070312,803.4432373046875,791.7582397460938
637,787.3259887695312,784.1025390625,799.8168334960938,787.7289428710938
638,785.3113403320312,782.893798828125,798.2051391601562,788.1318969726562
639,782.4908447265625,778.8644409179688,799.8168334960938,788.1318969726562
640,784.5054931640625,772.4176025390625,795.3846435546875,788.5347900390625
641,786.923095703125,778.8644409179688,792.1611938476562,788.1318969726562
642,788.1318969726562,786.923095703125,792.967041015625,786.5201416015625
643,784.5054931640625,789.3406372070312,791.7582397460938,783.6996459960938
644,786.5201416015625,787.3259887695312,790.5494384765625,789.7435913085938
645,790.952392578125,786.923095703125,795.3846435546875,789.7435913085938
646,791.7582397460938,788.1318969726562,800.6226806640625,782.4908447265625
647,792.967041015625,787.7289428710938,802.6373901367188,780.879150390625
648,792.5640869140625,790.1465454101562,800.2197875976562,780.0732421875
649,793.7728881835938,794.1758422851562,795.3846435546875,786.1171875
650,796.996337890625,792.1611938476562,799.010986328125,792.1611938476562
651,799.4139404296875,790.1465454101562,799.4139404296875,789.3406372070312
652,794.1758422851562,788.937744140625,795.3846435546875,787.7289428710938
653,792.5640869140625,786.1171875,798.2051391601562,789.7435913085938
654,788.5347900390625,784.1025390625,798.2051391601562,786.5201416015625
655,782.4908447265625,787.3259887695312,795.3846435546875,790.1465454101562
656,783.2966918945312,786.5201416015625,795.7875366210938,799.4139404296875
657,784.1025390625,785.7142944335938,797.3992919921875,797.8021850585938
658,784.1025390625,789.3406372070312,794.5787353515625,791.7582397460938
659,787.3259887695312,792.5640869140625,790.952392578125,794.5787353515625
660,790.952392578125,794.1758422851562,796.1904907226562,796.5933837890625
661,794.1758422851562,792.1611938476562,796.996337890625,789.7435913085938
662,791.7582397460938,793.7728881835938,794.981689453125,792.967041015625
663,792.1611938476562,793.7728881835938,799.8168334960938,797.8021850585938
664,791.3552856445312,790.952392578125,799.4139404296875,793.3699340820312
665,795.7875366210938,792.5640869140625,795.7875366210938,788.937744140625
666,803.4432373046875,795.3846435546875,794.1758422851562,788.937744140625
667,808.6813354492188,793.3699340820312,792.967041015625,795.3846435546875
668,807.4725341796875,795.3846435546875,793.7728881835938,795.3846435546875
669,805.8607788085938,802.6373901367188,799.010986328125,793.7728881835938
670,809.084228515625,806.2637329101562,801.025634765625,795.3846435546875
671,809.89013671875,804.6520385742188,799.8168334960938,797.8021850585938
672,808.2783813476562,803.4432373046875,799.8168334960938,803.040283203125
673,806.2637329101562,799.8168334960938,799.010986328125,805.8607788085938
674,799.8168334960938,794.981689453125,799.8168334960938,807.4725341796875
675,792.967041015625,792.967041015625,794.981689453125,803.8461303710938
676,792.1611938476562,790.1465454101562,792.967041015625,803.040283203125
677,793.7728881835938,785.7142944335938,796.5933837890625,803.8461303710938
678,789.7435913085938,786.1171875,797.3992919921875,798.6080322265625
679,783.6996459960938,793.7728881835938,799.4139404296875,800.2197875976562
680,785.3113403320312,797.3992919921875,801.4285888671875,797.8021850585938
681,794.5787353515625,796.1904907226562,802.2344360351562,796.996337890625
682,798.2051391601562,796.996337890625,801.025634765625,797.3992919921875
683,788.937744140625,794.5787353515625,799.8168334960938,794.5787353515625
684,784.908447265625,792.5640869140625,800.6226806640625,794.981689453125
685,786.923095703125,790.952392578125,793.7728881835938,789.3406372070312
686,791.7582397460938,786.1171875,795.3846435546875,788.937744140625
687,795.3846435546875,782.893798828125,796.5933837890625,789.3406372070312
688,792.1611938476562,790.5494384765625,792.967041015625,783.2966918945312
689,788.5347900390625,792.1611938476562,792.967041015625,777.2527465820312
690,785.3113403320312,783.6996459960938,789.7435913085938,780.0732421875
691,788.937744140625,782.893798828125,792.5640869140625,788.1318969726562
692,797.8021850585938,786.1171875,795.3846435546875,786.5201416015625
693,794.5787353515625,782.087890625,790.952392578125,782.087890625
694,788.5347900390625,780.4761962890625,790.1465454101562,786.5201416015625
695,792.967041015625,784.5054931640625,789.7435913085938,786.923095703125
696,794.5787353515625,788.1318969726562,793.3699340820312,784.1025390625
697,794.981689453125,792.1611938476562,796.1904907226562,786.1171875
698,799.4139404296875,786.923095703125,794.5787353515625,788.937744140625
699,794.981689453125,788.5347900390625,794.5787353515625,790.1465454101562
700,792.1611938476562,795.3846435546875,792.1611938476562,794.5787353515625
701,799.8168334960938,797.3992919921875,795.3846435546875,799.4139404296875
702,807.069580078125,798.2051391601562,794.981689453125,805.8607788085938
703,800.6226806640625,798.2051391601562,791.7582397460938,800.6226806640625
704,794.1758422851562,798.6080322265625,793.3699340820312,795.7875366210938
705,794.5787353515625,797.3992919921875,798.2051391601562,795.3846435546875
706,791.7582397460938,795.7875366210938,796.1904907226562,789.7435913085938
707,796.1904907226562,792.5640869140625,790.1465454101562,788.5347900390625
708,801.8314819335938,793.7728881835938,789.7435913085938,788.5347900390625
709,799.4139404296875,797.3992919921875,790.1465454101562,788.1318969726562
710,793.3699340820312,794.981689453125,790.5494384765625,788.5347900390625
711,792.1611938476562,794.5787353515625,795.3846435546875,791.7582397460938
712,798.6080322265625,798.2051391601562,797.8021850585938,799.010986328125
713,801.025634765625,796.996337890625,797.3992919921875,805.4578857421875
714,797.8021850585938,799.4139404296875,797.8021850585938,799.4139404296875
715,799.4139404296875,805.054931640625,797.3992919921875,797.3992919921875
716,803.4432373046875,801.8314819335938,796.1904907226562,799.8168334960938
717,796.5933837890625,793.7728881835938,792.1611938476562,796.5933837890625
718,792.967041015625,788.5347900390625,788.1318969726562,793.7728881835938
719,793.3699340820312,788.1318969726562,787.3259887695312,794.5787353515625
720,793.3699340820312,790.5494384765625,790.952392578125,795.7875366210938
721,791.3552856445312,787.3259887695312,792.1611938476562,791.3552856445312
722,788.937744140625,788.5347900390625,791.3552856445312,785.3113403320312
723,791.7582397460938,788.937744140625,792.5640869140625,786.1171875
724,790.952392578125,789.7435913085938,794.981689453125,790.1465454101562
725,789.7435913085938,793.7728881835938,796.1904907226562,788.5347900390625
726,794.5787353515625,795.3846435546875,799.4139404296875,792.967041015625
727,794.981689453125,788.1318969726562,797.3992919921875,793.3699340820312
728,796.1904907226562,786.5201416015625,793.7728881835938,789.3406372070312
729,793.7728881835938,790.1465454101562,793.3699340820312,787.3259887695312
730,790.1465454101562,792.5640869140625,792.967041015625,783.2966918945312
731,796.5933837890625,797.8021850585938,794.981689453125,786.1171875
732,804.6520385742188,802.6373901367188,797.8021850585938,791.3552856445312
733,802.6373901367188,799.4139404296875,800.6226806640625,788.1318969726562
734,797.8021850585938,794.1758422851562,797.3992919921875,787.3259887695312
735,795.3846435546875,794.5787353515625,796.5933837890625,788.5347900390625
736,790.1465454101562,797.3992919921875,798.2051391601562,788.1318969726562
737,788.1318969726562,795.3846435546875,799.010986328125,790.1465454101562
738,788.5347900390625,790.952392578125,798.6080322265625,787.7289428710938
739,793.3699340820312,790.1465454101562,799.010986328125,793.7728881835938
740,792.967041015625,792.967041015625,800.6226806640625,799.010986328125
741,784.908447265625,792.967041015625,799.8168334960938,794.981689453125
742,788.5347900390625,797.8021850585938,797.8021850585938,796.1904907226562
743,792.5640869140625,801.8314819335938,800.6226806640625,801.025634765625
744,792.1611938476562,796.996337890625,800.2197875976562,803.4432373046875
745,796.996337890625,798.6080322265625,796.996337890625,798.6080322265625
746,797.8021850585938,796.996337890625,794.1758422851562,791.7582397460938
747,798.2051391601562,791.7582397460938,796.1904907226562,795.3846435546875
748,805.8607788085938,795.7875366210938,799.8168334960938,800.6226806640625
749,803.4432373046875,798.2051391601562,799.010986328125,788.937744140625
750,794.981689453125,801.025634765625,796.1904907226562,782.4908447265625
751,791.3552856445312,793.7728881835938,793.7728881835938,786.923095703125
752,792.967041015625,790.952392578125,792.1611938476562,787.3259887695312
753,794.5787353515625,795.3846435546875,790.5494384765625,780.4761962890625
754,790.5494384765625,787.7289428710938,787.7289428710938,780.4761962890625
755,792.967041015625,783.6996459960938,793.3699340820312,789.3406372070312
756,786.923095703125,779.2673950195312,792.5640869140625,789.3406372070312
757,778.4615478515625,778.05859375,787.3259887695312,782.893798828125
758,778.4615478515625,779.6703491210938,787.3259887695312,779.6703491210938
759,780.0732421875,778.4615478515625,790.952392578125,787.7289428710938
760,780.879150390625,786.1171875,791.3552856445312,789.7435913085938
761,779.2673950195312,789.7435913085938,790.5494384765625,783.2966918945312
762,775.6410522460938,781.6849975585938,788.937744140625,783.6996459960938
763,776.0439453125,782.893798828125,784.1025390625,792.1611938476562
764,776.8497924804688,785.7142944335938,786.1171875,793.3699340820312
765,774.8351440429688,783.2966918945312,792.5640869140625,788.937744140625
766,775.6410522460938,782.893798828125,794.5787353515625,781.6849975585938
767,775.2380981445312,786.5201416015625,790.1465454101562,776.8497924804688
768,778.8644409179688,790.5494384765625,787.7289428710938,781.6849975585938
769,786.923095703125,790.1465454101562,790.5494384765625,780.4761962890625
770,788.5347900390625,790.5494384765625,796.996337890625,781.6849975585938
771,788.5347900390625,794.5787353515625,796.5933837890625,783.2966918945312
772,788.937744140625,797.8021850585938,792.5640869140625,782.087890625
773,794.981689453125,794.1758422851562,796.1904907226562,789.3406372070312
774,800.2197875976562,797.3992919921875,799.010986328125,797.3992919921875
775,801.4285888671875,797.3992919921875,800.6226806640625,802.2344360351562
776,796.1904907226562,792.967041015625,794.981689453125,796.5933837890625
777,792.967041015625,798.2051391601562,795.3846435546875,795.7875366210938
778,796.1904907226562,795.7875366210938,800.2197875976562,801.4285888671875
779,795.7875366210938,786.923095703125,796.996337890625,800.2197875976562
780,793.3699340820312,793.7728881835938,796.1904907226562,797.8021850585938
781,790.1465454101562,795.3846435546875,799.8168334960938,796.1904907226562
782,786.5201416015625,788.5347900390625,804.6520385742188,790.952392578125
783,786.5201416015625,786.923095703125,803.4432373046875,791.3552856445312
784,790.952392578125,787.7289428710938,802.6373901367188,795.7875366210938
785,794.5787353515625,787.7289428710938,805.8607788085938,797.8021850585938
786,790.1465454101562,786.923095703125,806.2637329101562,794.981689453125
787,785.7142944335938,790.5494384765625,803.4432373046875,793.7728881835938
788,794.1758422851562,796.1904907226562,803.8461303710938,798.6080322265625
789,799.4139404296875,796.996337890625,803.040283203125,799.010986328125
790,796.5933837890625,797.3992919921875,801.025634765625,799.4139404296875
791,794.981689453125,798.2051391601562,801.025634765625,799.4139404296875
792,791.7582397460938,792.967041015625,801.4285888671875,794.981689453125
793,797.8021850585938,791.3552856445312,799.4139404296875,793.3699340820312
794,811.098876953125,798.6080322265625,800.6226806640625,805.8607788085938
795,810.2930297851562,804.2490844726562,800.2197875976562,805.054931640625
796,803.4432373046875,804.2490844726562,796.5933837890625,797.8021850585938
797,799.010986328125,805.054931640625,795.7875366210938,804.2490844726562
798,799.8168334960938,802.6373901367188,796.5933837890625,810.6959838867188
799,799.4139404296875,804.6520385742188,796.5933837890625,800.6226806640625
800,796.1904907226562,800.6226806640625,795.3846435546875,790.5494384765625
801,793.7728881835938,792.1611938476562,794.981689453125,790.1465454101562
802,795.7875366210938,793.7728881835938,792.5640869140625,788.5347900390625
803,801.8314819335938,797.8021850585938,796.1904907226562,794.981689453125
804,801.4285888671875,796.996337890625,801.8314819335938,801.8314819335938
805,801.025634765625,794.1758422851562,803.8461303710938,797.3992919921875
806,801.4285888671875,793.7728881835938,801.025634765625,796.1904907226562
807,796.5933837890625,795.3846435546875,797.3992919921875,799.4139404296875
808,795.3846435546875,792.967041015625,798.2051391601562,795.7875366210938
809,799.010986328125,791.3552856445312,796.1904907226562,800.6226806640625
810,798.6080322265625,790.952392578125,796.1904907226562,801.4285888671875
811,793.7728881835938,789.7435913085938,793.7728881835938,791.7582397460938
812,795.3846435546875,794.5787353515625,791.7582397460938,789.3406372070312
813,800.2197875976562,797.8021850585938,797.3992919921875,794.981689453125
814,797.8021850585938,800.6226806640625,796.996337890625,794.5787353515625
815,796.1904907226562,798.2051391601562,792.5640869140625,795.3846435546875
816,795.3846435546875,794.5787353515625,793.7728881835938,799.8168334960938
817,791.3552856445312,796.5933837890625,790.5494384765625,798.2051391601562
818,795.3846435546875,792.967041015625,794.981689453125,801.4285888671875
819,800.6226806640625,791.7582397460938,800.2197875976562,803.040283203125
820,792.5640869140625,794.5787353515625,796.996337890625,795.3846435546875
821,789.3406372070312,794.981689453125,797.8021850585938,796.996337890625
822,791.7582397460938,801.025634765625,803.8461303710938,801.025634765625
823,786.923095703125,800.6226806640625,799.010986328125,797.3992919921875
824,788.937744140625,794.981689453125,796.5933837890625,802.2344360351562
825,795.3846435546875,796.1904907226562,805.4578857421875,807.87548828125
826,793.3699340820312,797.3992919921875,803.4432373046875,799.010986328125
827,788.1318969726562,793.3699340820312,796.5933837890625,790.1465454101562
828,784.5054931640625,794.981689453125,797.3992919921875,792.967041015625
829,786.923095703125,800.6226806640625,801.8314819335938,795.3846435546875
830,791.7582397460938,797.8021850585938,799.4139404296875,788.937744140625
831,789.3406372070312,793.3699340820312,797.3992919921875,785.3113403320312
832,783.2966918945312,791.3552856445312,802.6373901367188,785.7142944335938
833,783.6996459960938,790.1465454101562,801.8314819335938,785.3113403320312
834,786.5201416015625,793.7728881835938,797.8021850585938,786.923095703125
835,786.5201416015625,796.1904907226562,798.2051391601562,791.3552856445312
836,792.967041015625,799.8168334960938,804.6520385742188,792.1611938476562
837,794.981689453125,801.025634765625,804.2490844726562,784.5054931640625
838,798.2051391601562,795.3846435546875,799.8168334960938,784.908447265625
839,797.8021850585938,788.937744140625,799.4139404296875,785.3113403320312
840,795.7875366210938,791.3552856445312,796.996337890625,779.6703491210938
841,797.3992919921875,795.7875366210938,797.3992919921875,783.6996459960938
842,795.3846435546875,796.996337890625,799.4139404296875,784.5054931640625
843,797.3992919921875,791.7582397460938,801.4285888671875,785.3113403320312
844,799.4139404296875,792.5640869140625,799.8168334960938,792.967041015625
845,797.3992919921875,799.4139404296875,798.6080322265625,796.996337890625
846,792.967041015625,800.2197875976562,796.996337890625,789.3406372070312
847,790.5494384765625,799.010986328125,796.5933837890625,792.1611938476562
848,788.1318969726562,799.8168334960938,799.010986328125,801.025634765625
849,787.7289428710938,799.8168334960938,798.6080322265625,795.7875366210938
850,788.937744140625,797.3992919921875,801.025634765625,792.1611938476562
851,784.908447265625,793.3699340820312,800.6226806640625,787.3259887695312
852,780.4761962890625,797.3992919921875,797.8021850585938,783.6996459960938
853,786.5201416015625,803.8461303710938,801.4285888671875,789.7435913085938
854,790.952392578125,801.8314819335938,808.2783813476562,791.7582397460938
855,787.7289428710938,799.8168334960938,806.6666870117188,786.5201416015625
856,790.5494384765625,797.8021850585938,802.6373901367188,777.6557006835938
857,788.937744140625,794.981689453125,802.2344360351562,775.6410522460938
858,785.3113403320312,790.952392578125,801.4285888671875,780.0732421875
859,793.3699340820312,791.7582397460938,796.5933837890625,787.3259887695312
860,792.1611938476562,797.8021850585938,790.5494384765625,786.5201416015625
861,787.7289428710938,797.8021850585938,791.7582397460938,783.2966918945312
862,787.7289428710938,796.996337890625,793.7728881835938,780.0732421875
863,782.4908447265625,795.3846435546875,793.7728881835938,778.8644409179688
864,784.5054931640625,793.3699340820312,793.3699340820312,780.0732421875
865,787.7289428710938,794.981689453125,795.3846435546875,780.879150390625
866,790.952392578125,796.5933837890625,797.8021850585938,789.7435913085938
867,791.3552856445312,796.996337890625,794.981689453125,788.937744140625
868,793.7728881835938,796.1904907226562,795.7875366210938,788.937744140625
869,796.5933837890625,797.8021850585938,797.8021850585938,791.7582397460938
870,793.3699340820312,796.996337890625,795.7875366210938,795.3846435546875
871,786.923095703125,790.952392578125,793.7728881835938,803.8461303710938
872,783.2966918945312,787.7289428710938,796.1904907226562,792.967041015625
873,786.923095703125,790.1465454101562,792.5640869140625,789.3406372070312
874,786.5201416015625,789.3406372070312,789.3406372070312,783.2966918945312
875,792.5640869140625,788.937744140625,794.5787353515625,777.6557006835938
876,793.3699340820312,790.952392578125,794.5787353515625,785.7142944335938
877,785.7142944335938,790.5494384765625,790.952392578125,789.7435913085938
878,786.5201416015625,790.5494384765625,793.7728881835938,789.7435913085938
879,787.7289428710938,792.967041015625,798.2051391601562,789.7435913085938
880,789.3406372070312,797.3992919921875,798.6080322265625,790.5494384765625
881,794.1758422851562,798.6080322265625,796.5933837890625,795.3846435546875
882,793.3699340820312,794.981689453125,792.5640869140625,796.996337890625
883,785.3113403320312,792.967041015625,789.3406372070312,791.7582397460938
884,786.5201416015625,797.3992919921875,795.3846435546875,792.5640869140625
885,794.981689453125,799.010986328125,797.3992919921875,795.3846435546875
886,794.5787353515625,799.4139404296875,796.1904907226562,795.7875366210938
887,793.7728881835938,797.3992919921875,794.5787353515625,788.1318969726562
888,792.967041015625,794.5787353515625,792.967041015625,787.3259887695312
889,790.5494384765625,794.1758422851562,794.981689453125,792.1611938476562
890,795.7875366210938,792.1611938476562,794.5787353515625,795.3846435546875
891,790.5494384765625,785.3113403320312,791.7582397460938,794.1758422851562
892,784.908447265625,786.923095703125,788.1318969726562,788.1318969726562
893,786.5201416015625,788.937744140625,786.1171875,784.5054931640625
894,786.5201416015625,786.923095703125,785.3113403320312,788.1318969726562
895,788.937744140625,792.967041015625,789.7435913085938,788.5347900390625
896,792.1611938476562,792.967041015625,794.981689453125,783.6996459960938
897,795.7875366210938,787.3259887695312,793.3699340820312,786.923095703125
898,788.937744140625,792.5640869140625,794.1758422851562,787.3259887695312
899,785.7142944335938,798.2051391601562,793.3699340820312,786.1171875
900,788.1318969726562,792.5640869140625,788.1318969726562,785.7142944335938
901,792.5640869140625,791.3552856445312,791.3552856445312,790.952392578125
902,797.3992919921875,796.5933837890625,794.5787353515625,791.3552856445312
903,792.1611938476562,795.7875366210938,796.1904907226562,784.5054931640625
904,787.3259887695312,792.5640869140625,798.2051391601562,780.4761962890625
905,786.923095703125,792.5640869140625,792.967041015625,783.6996459960938
906,792.1611938476562,794.981689453125,794.5787353515625,788.5347900390625
907,795.3846435546875,796.5933837890625,799.8168334960938,790.952392578125
908,794.981689453125,793.7728881835938,796.5933837890625,791.7582397460938
909,792.5640869140625,790.5494384765625,793.7728881835938,788.5347900390625
910,795.3846435546875,792.1611938476562,794.981689453125,790.5494384765625
911,802.2344360351562,795.7875366210938,798.2051391601562,795.7875366210938
912,805.8607788085938,798.6080322265625,803.040283203125,801.025634765625
913,803.8461303710938,799.4139404296875,802.2344360351562,799.4139404296875
914,799.010986328125,800.2197875976562,799.4139404296875,794.1758422851562
915,794.981689453125,796.996337890625,799.4139404296875,791.7582397460938
916,800.2197875976562,791.7582397460938,800.2197875976562,791.3552856445312
917,802.6373901367188,786.1171875,797.3992919921875,788.1318969726562
918,799.010986328125,788.5347900390625,795.7875366210938,784.5054931640625
919,800.6226806640625,795.7875366210938,798.2051391601562,790.952392578125
920,804.2490844726562,798.2051391601562,799.8168334960938,794.1758422851562
921,805.8607788085938,798.2051391601562,795.3846435546875,791.3552856445312
922,800.2197875976562,795.3846435546875,792.1611938476562,786.1171875
923,796.996337890625,791.7582397460938,796.996337890625,786.923095703125
924,796.996337890625,792.967041015625,799.010986328125,790.952392578125
925,792.967041015625,792.967041015625,803.040283203125,797.8021850585938
926,789.7435913085938,793.3699340820312,803.4432373046875,800.6226806640625
927,791.3552856445312,790.5494384765625,798.2051391601562,794.1758422851562
928,792.1611938476562,790.952392578125,793.3699340820312,796.1904907226562
929,787.7289428710938,796.1904907226562,791.7582397460938,799.4139404296875
930,784.908447265625,794.1758422851562,793.3699340820312,799.8168334960938
931,786.923095703125,796.1904907226562,790.952392578125,799.4139404296875
932,785.7142944335938,794.5787353515625,792.1611938476562,794.981689453125
933,781.2820434570312,792.967041015625,794.5787353515625,789.7435913085938
934,780.4761962890625,792.967041015625,792.5640869140625,788.937744140625
935,781.6849975585938,791.7582397460938,789.7435913085938,788.937744140625
936,780.879150390625,794.981689453125,791.7582397460938,784.908447265625
937,780.879150390625,789.7435913085938,788.937744140625,787.7289428710938
938,780.879150390625,789.3406372070312,788.5347900390625,789.3406372070312
939,781.2820434570312,796.1904907226562,791.7582397460938,784.1025390625
940,780.879150390625,793.3699340820312,792.5640869140625,781.6849975585938
941,780.0732421875,790.952392578125,794.981689453125,784.1025390625
942,779.2673950195312,789.3406372070312,791.7582397460938,780.879150390625
943,784.908447265625,786.5201416015625,787.7289428710938,782.4908447265625
944,794.5787353515625,788.5347900390625,790.952392578125,795.3846435546875
945,792.1611938476562,792.1611938476562,793.7728881835938,790.5494384765625
946,789.7435913085938,791.3552856445312,793.3699340820312,784.908447265625
947,789.3406372070312,786.1171875,792.5640869140625,787.7289428710938
948,788.1318969726562,790.952392578125,792.967041015625,785.7142944335938
949,785.3113403320312,791.3552856445312,790.5494384765625,781.2820434570312
950,781.2820434570312,786.1171875,790.1465454101562,777.2527465820312
951,785.3113403320312,786.923095703125,791.3552856445312,785.3113403320312
952,789.7435913085938,786.923095703125,788.1318969726562,787.7289428710938
953,794.1758422851562,794.981689453125,791.7582397460938,783.6996459960938
954,798.2051391601562,798.6080322265625,799.010986328125,788.5347900390625
955,793.7728881835938,789.7435913085938,799.010986328125,786.1171875
956,789.3406372070312,788.937744140625,794.5787353515625,786.1171875
957,791.7582397460938,792.967041015625,796.1904907226562,795.7875366210938
958,796.996337890625,794.5787353515625,796.1904907226562,801.025634765625
959,794.981689453125,792.1611938476562,789.7435913085938,794.981689453125
960,790.5494384765625,783.6996459960938,784.5054931640625,786.5201416015625
961,793.3699340820312,787.7289428710938,785.7142944335938,787.3259887695312
962,791.7582397460938,791.3552856445312,785.3113403320312,792.967041015625
963,787.7289428710938,789.3406372070312,784.5054931640625,801.025634765625
964,785.3113403320312,787.7289428710938,786.5201416015625,794.1758422851562
965,789.3406372070312,788.937744140625,782.893798828125,783.6996459960938
966,785.7142944335938,791.3552856445312,783.2966918945312,788.937744140625
967,786.923095703125,791.3552856445312,789.7435913085938,800.6226806640625
968,795.3846435546875,789.7435913085938,787.3259887695312,794.1758422851562
969,795.7875366210938,788.937744140625,784.1025390625,789.3406372070312
970,801.4285888671875,792.1611938476562,794.981689453125,798.2051391601562
971,802.2344360351562,792.967041015625,798.2051391601562,797.8021850585938
972,794.5787353515625,790.952392578125,795.3846435546875,788.937744140625
973,791.3552856445312,792.1611938476562,794.981689453125,792.1611938476562
974,787.7289428710938,792.5640869140625,796.1904907226562,796.996337890625
975,788.5347900390625,787.7289428710938,797.3992919921875,796.1904907226562
976,796.1904907226562,792.967041015625,796.1904907226562,806.2637329101562
977,795.7875366210938,793.7728881835938,800.6226806640625,811.5018310546875
978,794.981689453125,790.1465454101562,800.6226806640625,810.6959838867188
979,791.7582397460938,790.5494384765625,792.1611938476562,799.010986328125
980,779.2673950195312,791.7582397460938,788.937744140625,781.2820434570312
981,772.0146484375,791.7582397460938,793.7728881835938,775.6410522460938
982,782.087890625,788.1318969726562,792.5640869140625,785.7142944335938
983,791.3552856445312,788.1318969726562,792.5640869140625,792.967041015625
984,792.5640869140625,789.3406372070312,792.5640869140625,788.1318969726562
985,789.3406372070312,789.7435913085938,789.7435913085938,783.6996459960938
986,784.5054931640625,789.7435913085938,791.3552856445312,782.4908447265625
987,784.908447265625,783.6996459960938,793.3699340820312,778.8644409179688
988,791.3552856445312,781.6849975585938,795.3846435546875,781.2820434570312
989,788.1318969726562,786.923095703125,792.5640869140625,783.6996459960938
990,783.2966918945312,788.937744140625,789.7435913085938,787.3259887695312
991,786.5201416015625,790.5494384765625,793.7728881835938,789.7435913085938
992,790.952392578125,790.5494384765625,797.8021850585938,792.1611938476562
993,792.1611938476562,790.952392578125,795.3846435546875,795.3846435546875
994,792.967041015625,791.3552856445312,794.5787353515625,794.5787353515625
995,794.1758422851562,791.3552856445312,796.5933837890625,792.967041015625
996,788.937744140625,786.5201416015625,799.010986328125,792.5640869140625
997,783.6996459960938,777.6557006835938,797.3992919921875,791.3552856445312
998,787.7289428710938,782.087890625,795.7875366210938,794.1758422851562
999,790.1465454101562,790.5494384765625,799.8168334960938,796.996337890625
1000,787.7289428710938,785.7142944335938,797.3992919921875,793.3699340820312
1001,786.5201416015625,784.5054931640625,794.981689453125,798.2051391601562
1002,783.2966918945312,790.5494384765625,791.7582397460938,792.1611938476562
1003,785.7142944335938,793.3699340820312,796.1904907226562,786.1171875
1004,790.5494384765625,788.937744140625,800.2197875976562,792.967041015625
1005,786.923095703125,783.2966918945312,798.2051391601562,788.5347900390625
1006,783.6996459960938,785.3113403320312,796.996337890625,780.0732421875
1007,787.7289428710938,789.3406372070312,792.967041015625,779.6703491210938
1008,789.3406372070312,792.967041015625,791.3552856445312,781.2820434570312
1009,790.5494384765625,790.952392578125,792.967041015625,784.5054931640625
1010,790.1465454101562,790.5494384765625,794.1758422851562,788.1318969726562
1011,786.1171875,794.1758422851562,794.981689453125,788.1318969726562
1012,780.0732421875,795.7875366210938,792.967041015625,784.5054931640625
1013,782.4908447265625,794.1758422851562,796.5933837890625,793.3699340820312
1014,786.923095703125,795.7875366210938,796.5933837890625,792.967041015625
1015,786.1171875,792.5640869140625,794.981689453125,784.908447265625
1016,785.7142944335938,791.7582397460938,793.7728881835938,785.7142944335938
1017,786.5201416015625,792.967041015625,789.7435913085938,788.937744140625
1018,786.923095703125,788.937744140625,788.1318969726562,793.7728881835938
1019,789.7435913085938,789.7435913085938,791.3552856445312,796.1904907226562
1020,793.3699340820312,789.3406372070312,794.981689453125,797.3992919921875
1021,792.5640869140625,790.952392578125,796.5933837890625,792.5640869140625
1022,787.3259887695312,795.7875366210938,797.8021850585938,786.1171875
1023,790.952392578125,799.4139404296875,796.5933837890625,787.7289428710938
1024,799.010986328125,798.6080322265625,797.8021850585938,800.2197875976562
1025,796.1904907226562,796.1904907226562,793.7728881835938,805.4578857421875
1026,790.952392578125,796.5933837890625,786.923095703125,794.5787353515625
1027,789.7435913085938,791.7582397460938,786.923095703125,787.7289428710938
1028,793.3699340820312,789.3406372070312,787.3259887695312,792.967041015625
1029,792.967041015625,791.7582397460938,784.5054931640625,793.3699340820312
1030,794.1758422851562,790.5494384765625,780.879150390625,787.7289428710938
1031,796.5933837890625,788.5347900390625,781.2820434570312,785.3113403320312
1032,792.967041015625,789.7435913085938,784.1025390625,782.893798828125
1033,791.7582397460938,790.952392578125,783.2966918945312,779.6703491210938
1034,799.4139404296875,795.7875366210938,786.1171875,782.4908447265625
1035,798.6080322265625,792.5640869140625,787.7289428710938,786.923095703125
1036,789.3406372070312,788.1318969726562,791.3552856445312,782.4908447265625
1037,788.1318969726562,790.1465454101562,796.1904907226562,778.8644409179688
1038,785.7142944335938,783.6996459960938,795.3846435546875,780.4761962890625
1039,785.7142944335938,784.1025390625,794.1758422851562,791.3552856445312
1040,780.4761962890625,788.937744140625,796.1904907226562,791.7582397460938
1041,783.2966918945312,784.5054931640625,795.3846435546875,784.1025390625
1042,789.7435913085938,784.908447265625,791.3552856445312,789.7435913085938
1043,785.7142944335938,786.1171875,790.5494384765625,792.967041015625
1044,787.7289428710938,786.1171875,790.952392578125,791.3552856445312
1045,788.1318969726562,788.937744140625,787.7289428710938,785.7142944335938
1046,780.879150390625,788.937744140625,789.3406372070312,782.893798828125
1047,787.3259887695312,791.3552856445312,796.5933837890625,786.5201416015625
1048,788.1318969726562,790.952392578125,795.3846435546875,783.2966918945312
1049,781.6849975585938,790.5494384765625,791.3552856445312,778.8644409179688
1050,786.923095703125,791.3552856445312,791.3552856445312,782.893798828125
1051,787.3259887695312,786.5201416015625,792.1611938476562,786.1171875
1052,786.923095703125,788.1318969726562,792.5640869140625,780.879150390625
1053,790.952392578125,790.5494384765625,793.7728881835938,780.4761962890625
1054,789.3406372070312,787.3259887695312,793.3699340820312,778.4615478515625
1055,793.7728881835938,787.7289428710938,793.3699340820312,779.6703491210938
1056,794.1758422851562,788.1318969726562,789.3406372070312,776.8497924804688
1057,790.1465454101562,787.3259887695312,791.7582397460938,776.0439453125
1058,790.5494384765625,793.7728881835938,796.1904907226562,784.1025390625
1059,797.3992919921875,798.2051391601562,797.3992919921875,793.3699340820312
1060,798.2051391601562,793.3699340820312,799.4139404296875,795.3846435546875
1061,794.5787353515625,793.7728881835938,798.6080322265625,792.967041015625
1062,788.1318969726562,791.3552856445312,794.5787353515625,792.1611938476562
1063,787.3259887695312,788.1318969726562,792.1611938476562,798.2051391601562
1064,791.7582397460938,787.3259887695312,788.937744140625,798.6080322265625
1065,796.996337890625,784.908447265625,790.1465454101562,798.2051391601562
1066,801.8314819335938,790.5494384765625,789.7435913085938,807.069580078125
1067,794.981689453125,788.937744140625,790.1465454101562,804.6520385742188
1068,794.1758422851562,788.1318969726562,790.5494384765625,794.1758422851562
1069,794.1758422851562,786.1171875,793.3699340820312,791.3552856445312
1070,794.981689453125,782.893798828125,797.8021850585938,792.967041015625
1071,797.3992919921875,786.923095703125,798.6080322265625,795.7875366210938
1072,790.5494384765625,789.7435913085938,797.3992919921875,790.1465454101562
1073,782.087890625,784.908447265625,794.1758422851562,783.2966918945312
1074,783.2966918945312,781.6849975585938,794.1758422851562,786.923095703125
1075,788.1318969726562,790.952392578125,796.1904907226562,782.893798828125
1076,785.3113403320312,796.5933837890625,797.3992919921875,775.6410522460938
1077,784.5054931640625,796.5933837890625,794.981689453125,781.6849975585938
1078,786.1171875,798.6080322265625,792.1611938476562,784.1025390625
1079,789.7435913085938,796.5933837890625,792.1611938476562,784.1025390625
1080,798.6080322265625,798.2051391601562,795.3846435546875,789.3406372070312
1081,796.1904907226562,796.1904907226562,799.010986328125,789.3406372070312
1082,787.7289428710938,792.5640869140625,796.1904907226562,790.5494384765625
1083,780.4761962890625,789.7435913085938,793.7728881835938,788.937744140625
1084,780.879150390625,784.908447265625,793.3699340820312,780.4761962890625
1085,787.3259887695312,782.893798828125,795.3846435546875,783.6996459960938
1086,784.1025390625,785.3113403320312,794.1758422851562,790.5494384765625
1087,776.4468994140625,787.7289428710938,792.967041015625,781.6849975585938
1088,782.087890625,785.3113403320312,800.6226806640625,782.893798828125
1089,785.3113403320312,782.087890625,802.6373901367188,786.923095703125
1090,785.7142944335938,782.893798828125,803.4432373046875,787.7289428710938
1091,792.1611938476562,791.3552856445312,808.2783813476562,796.5933837890625
1092,793.3699340820312,796.1904907226562,806.2637329101562,796.1904907226562
1093,794.1758422851562,795.3846435546875,804.2490844726562,793.7728881835938
1094,795.3846435546875,793.7728881835938,802.6373901367188,795.3846435546875
1095,796.1904907226562,792.1611938476562,801.025634765625,797.8021850585938
1096,800.2197875976562,792.5640869140625,796.5933837890625,800.2197875976562
1097,799.010986328125,792.967041015625,799.8168334960938,804.2490844726562
1098,792.5640869140625,791.3552856445312,798.2051391601562,798.2051391601562
1099,789.3406372070312,793.3699340820312,794.5787353515625,786.5201416015625
1100,792.967041015625,794.1758422851562,789.3406372070312,790.952392578125
1101,793.3699340820312,795.7875366210938,792.1611938476562,801.8314819335938
1102,786.923095703125,799.4139404296875,796.5933837890625,793.7728881835938
1103,785.7142944335938,799.4139404296875,789.7435913085938,782.893798828125
1104,786.923095703125,794.981689453125,789.7435913085938,779.6703491210938
1105,791.3552856445312,794.981689453125,794.5787353515625,784.1025390625
1106,790.1465454101562,796.1904907226562,795.3846435546875,788.1318969726562
1107,788.5347900390625,794.981689453125,793.3699340820312,786.1171875
1108,790.952392578125,792.967041015625,796.5933837890625,787.3259887695312
1109,782.893798828125,792.5640869140625,797.3992919921875,789.7435913085938
1110,777.6557006835938,793.7728881835938,795.3846435546875,791.3552856445312
1111,785.7142944335938,797.3992919921875,796.1904907226562,793.3699340820312
1112,789.3406372070312,798.2051391601562,798.6080322265625,798.2051391601562
1113,785.7142944335938,794.1758422851562,798.2051391601562,796.5933837890625
1114,787.3259887695312,797.3992919921875,796.996337890625,786.923095703125
1115,790.952392578125,799.010986328125,798.2051391601562,788.1318969726562
1116,795.3846435546875,797.8021850585938,799.4139404296875,793.3699340820312
1117,796.5933837890625,795.3846435546875,795.7875366210938,790.952392578125
1118,794.981689453125,792.5640869140625,794.1758422851562,788.5347900390625
1119,794.981689453125,797.8021850585938,796.996337890625,787.7289428710938
1120,798.6080322265625,800.6226806640625,800.2197875976562,792.1611938476562
1121,796.996337890625,799.8168334960938,802.2344360351562,789.7435913085938
1122,791.3552856445312,799.010986328125,801.4285888671875,785.3113403320312
1123,788.937744140625,797.8021850585938,798.6080322265625,789.3406372070312
1124,788.1318969726562,793.3699340820312,796.996337890625,794.5787353515625
1125,784.1025390625,792.967041015625,794.5787353515625,791.3552856445312
1126,778.8644409179688,796.5933837890625,790.1465454101562,783.6996459960938
1127,780.4761962890625,796.1904907226562,791.7582397460938,784.908447265625
1128,783.6996459960938,795.3846435546875,792.5640869140625,783.6996459960938
1129,785.7142944335938,792.1611938476562,792.967041015625,777.6557006835938
1130,786.1171875,791.7582397460938,793.7728881835938,778.05859375
1131,788.937744140625,788.5347900390625,792.967041015625,782.087890625
1132,792.1611938476562,783.6996459960938,793.3699340820312,784.1025390625
1133,788.1318969726562,786.1171875,790.952392578125,785.3113403320312
1134,782.893798828125,787.3259887695312,788.1318969726562,782.087890625
1135,784.1025390625,787.7289428710938,782.893798828125,778.05859375
1136,790.952392578125,789.7435913085938,778.05859375,785.3113403320312
1137,787.3259887695312,791.7582397460938,783.6996459960938,780.879150390625
1138,781.6849975585938,791.3552856445312,789.7435913085938,775.6410522460938
1139,780.879150390625,788.937744140625,790.5494384765625,781.6849975585938
1140,776.8497924804688,786.1171875,789.7435913085938,780.0732421875
1141,773.6264038085938,785.3113403320312,790.5494384765625,774.8351440429688
1142,776.0439453125,782.087890625,793.3699340820312,777.6557006835938
1143,780.0732421875,780.4761962890625,792.5640869140625,786.1171875
1144,783.6996459960938,782.893798828125,792.967041015625,789.3406372070312
1145,786.1171875,788.1318969726562,796.5933837890625,789.7435913085938
1146,789.3406372070312,791.7582397460938,796.996337890625,791.3552856445312
1147,789.7435913085938,792.1611938476562,797.3992919921875,794.981689453125
1148,788.1318969726562,787.3259887695312,800.6226806640625,795.3846435546875
1149,786.1171875,786.923095703125,801.4285888671875,790.1465454101562
1150,788.5347900390625,788.5347900390625,805.054931640625,790.952392578125
1151,796.1904907226562,792.967041015625,805.4578857421875,803.8461303710938
1152,791.7582397460938,786.5201416015625,799.010986328125,800.6226806640625
1153,786.5201416015625,780.4761962890625,797.8021850585938,790.1465454101562
1154,787.7289428710938,790.1465454101562,796.1904907226562,789.3406372070312
1155,790.5494384765625,794.981689453125,792.1611938476562,796.996337890625
1156,797.8021850585938,790.1465454101562,792.1611938476562,796.5933837890625
1157,799.4139404296875,786.1171875,796.1904907226562,792.5640869140625
1158,797.3992919921875,789.3406372070312,798.2051391601562,795.7875366210938
1159,803.040283203125,792.5640869140625,797.3992919921875,796.5933837890625
1160,805.4578857421875,791.3552856445312,797.8021850585938,790.952392578125
1161,806.6666870117188,786.5201416015625,793.7728881835938,789.7435913085938
1162,807.069580078125,790.1465454101562,795.3846435546875,793.7728881835938
1163,806.2637329101562,799.010986328125,801.8314819335938,794.1758422851562
1164,797.8021850585938,797.3992919921875,798.6080322265625,788.937744140625
1165,792.1611938476562,795.3846435546875,790.1465454101562,788.1318969726562
1166,796.996337890625,796.5933837890625,791.3552856445312,789.3406372070312
1167,792.5640869140625,788.5347900390625,790.952392578125,784.908447265625
1168,788.1318969726562,787.3259887695312,782.893798828125,783.2966918945312
1169,784.908447265625,789.7435913085938,784.5054931640625,785.7142944335938
1170,778.4615478515625,784.1025390625,792.1611938476562,791.3552856445312
1171,778.8644409179688,788.937744140625,799.4139404296875,792.967041015625
1172,788.1318969726562,792.967041015625,804.6520385742188,787.7289428710938
1173,793.7728881835938,789.3406372070312,801.8314819335938,788.937744140625
1174,784.908447265625,788.1318969726562,792.967041015625,790.5494384765625
1175,789.7435913085938,790.952392578125,792.1611938476562,797.3992919921875
1176,799.010986328125,791.3552856445312,794.1758422851562,803.4432373046875
1177,799.8168334960938,788.937744140625,792.5640869140625,798.2051391601562
1178,802.2344360351562,789.7435913085938,793.3699340820312,791.7582397460938
1179,803.040283203125,796.996337890625,794.981689453125,790.1465454101562
1180,799.010986328125,799.8168334960938,793.7728881835938,784.1025390625
1181,795.7875366210938,794.1758422851562,793.3699340820312,780.0732421875
1182,794.981689453125,792.5640869140625,792.967041015625,787.7289428710938
1183,798.6080322265625,794.1758422851562,788.5347900390625,786.923095703125
1184,801.025634765625,792.967041015625,787.7289428710938,783.2966918945312
1185,802.6373901367188,794.1758422851562,794.981689453125,787.7289428710938
1186,802.6373901367188,795.7875366210938,796.5933837890625,790.1465454101562
1187,797.3992919921875,795.3846435546875,793.3699340820312,787.3259887695312
1188,795.7875366210938,789.7435913085938,796.996337890625,787.3259887695312
1189,790.952392578125,791.3552856445312,797.3992919921875,787.3259887695312
1190,786.1171875,796.5933837890625,798.2051391601562,788.5347900390625
1191,782.087890625,792.967041015625,797.3992919921875,783.6996459960938
1192,784.5054931640625,796.1904907226562,798.2051391601562,784.908447265625
1193,782.4908447265625,796.5933837890625,799.8168334960938,790.1465454101562
1194,773.6264038085938,789.7435913085938,798.2051391601562,781.6849975585938
1195,767.9853515625,792.1611938476562,796.5933837890625,778.05859375
1196,765.5677490234375,792.5640869140625,794.5787353515625,782.4908447265625
1197,772.4176025390625,790.5494384765625,793.7728881835938,788.5347900390625
1198,778.05859375,789.3406372070312,794.981689453125,786.5201416015625
1199,780.4761962890625,793.7728881835938,794.5787353515625,786.923095703125
1200,785.3113403320312,799.010986328125,793.3699340820312,797.3992919921875
1201,792.1611938476562,799.4139404296875,788.5347900390625,799.010986328125
1202,799.4139404296875,801.025634765625,788.5347900390625,796.5933837890625
1203,806.6666870117188,799.8168334960938,791.3552856445312,796.5933837890625
1204,807.4725341796875,797.3992919921875,794.981689453125,795.3846435546875
1205,803.040283203125,797.8021850585938,792.1611938476562,799.010986328125
1206,801.8314819335938,798.2051391601562,791.7582397460938,791.7582397460938
1207,803.040283203125,794.5787353515625,794.981689453125,785.3113403320312
1208,808.2783813476562,790.1465454101562,796.5933837890625,789.7435913085938
1209,804.2490844726562,793.3699340820312,799.010986328125,793.7728881835938
1210,800.6226806640625,795.7875366210938,798.2051391601562,795.3846435546875
1211,800.2197875976562,793.7728881835938,797.8021850585938,789.7435913085938
1212,804.2490844726562,794.1758422851562,803.040283203125,790.952392578125
1213,805.054931640625,795.3846435546875,803.4432373046875,794.981689453125
1214,797.3992919921875,788.1318969726562,801.4285888671875,787.7289428710938
1215,792.5640869140625,787.7289428710938,796.1904907226562,780.879150390625
1216,787.7289428710938,790.5494384765625,792.1611938476562,784.908447265625
1217,784.5054931640625,794.5787353515625,794.5787353515625,786.1171875
1218,787.7289428710938,794.5787353515625,791.7582397460938,785.3113403320312
1219,785.3113403320312,791.3552856445312,789.7435913085938,792.5640869140625
1220,778.05859375,784.908447265625,789.3406372070312,800.6226806640625
1221,775.2380981445312,787.7289428710938,792.967041015625,794.5787353515625
1222,774.8351440429688,790.5494384765625,794.1758422851562,783.2966918945312
1223,777.6557006835938,787.3259887695312,789.3406372070312,777.2527465820312
1224,779.2673950195312,786.923095703125,788.937744140625,777.2527465820312
1225,777.2527465820312,790.952392578125,793.3699340820312,780.4761962890625
1226,773.2234497070312,794.1758422851562,796.996337890625,777.6557006835938
1227,774.029296875,791.3552856445312,794.5787353515625,780.0732421875
1228,780.879150390625,790.5494384765625,796.1904907226562,786.923095703125
1229,781.2820434570312,789.3406372070312,799.4139404296875,782.893798828125
1230,774.8351440429688,785.7142944335938,795.7875366210938,776.8497924804688
1231,778.05859375,784.908447265625,795.3846435546875,783.2966918945312
1232,780.0732421875,785.3113403320312,795.7875366210938,790.952392578125
1233,780.4761962890625,781.2820434570312,793.7728881835938,789.7435913085938
1234,781.6849975585938,776.8497924804688,792.1611938476562,788.5347900390625
1235,784.5054931640625,783.2966918945312,794.5787353515625,786.923095703125
1236,782.893798828125,785.3113403320312,794.981689453125,781.2820434570312
1237,785.7142944335938,785.7142944335938,795.7875366210938,782.087890625
1238,794.981689453125,791.3552856445312,799.010986328125,788.1318969726562
1239,795.7875366210938,788.937744140625,799.010986328125,795.3846435546875
1240,789.7435913085938,783.6996459960938,791.3552856445312,791.7582397460938
1241,784.1025390625,785.3113403320312,787.3259887695312,787.3259887695312
1242,785.3113403320312,791.3552856445312,793.7728881835938,789.3406372070312
1243,784.5054931640625,791.3552856445312,794.5787353515625,791.7582397460938
1244,783.2966918945312,788.937744140625,794.1758422851562,785.7142944335938
1245,786.5201416015625,794.5787353515625,797.3992919921875,786.1171875
1246,784.908447265625,798.2051391601562,792.5640869140625,786.1171875
1247,780.879150390625,789.3406372070312,788.937744140625,780.0732421875
1248,784.1025390625,785.7142944335938,790.5494384765625,784.1025390625
1249,787.7289428710938,789.7435913085938,792.1611938476562,788.5347900390625
1250,791.7582397460938,791.7582397460938,795.3846435546875,788.937744140625
1251,794.981689453125,791.7582397460938,795.3846435546875,790.5494384765625
1252,789.3406372070312,793.3699340820312,796.5933837890625,791.3552856445312
1253,782.087890625,794.5787353515625,793.7728881835938,785.3113403320312
1254,783.2966918945312,791.7582397460938,788.937744140625,784.908447265625
1255,786.5201416015625,792.1611938476562,790.952392578125,788.5347900390625
1256,785.7142944335938,794.1758422851562,793.3699340820312,783.6996459960938
1257,784.5054931640625,792.1611938476562,794.5787353515625,780.4761962890625
1258,782.893798828125,794.5787353515625,793.7728881835938,780.879150390625
1259,792.1611938476562,794.5787353515625,796.996337890625,792.967041015625
1260,799.010986328125,795.3846435546875,800.6226806640625,798.6080322265625
1261,794.1758422851562,795.7875366210938,795.3846435546875,790.1465454101562
1262,796.5933837890625,793.3699340820312,794.1758422851562,792.967041015625
1263,799.4139404296875,794.981689453125,792.1611938476562,796.1904907226562
1264,802.2344360351562,798.2051391601562,793.3699340820312,795.7875366210938
1265,802.2344360351562,796.996337890625,796.5933837890625,794.1758422851562
1266,800.2197875976562,796.1904907226562,793.3699340820312,799.4139404296875
1267,796.996337890625,796.5933837890625,790.5494384765625,800.6226806640625
1268,794.981689453125,792.5640869140625,790.5494384765625,794.981689453125
1269,795.3846435546875,790.5494384765625,787.7289428710938,792.967041015625
1270,799.010986328125,792.967041015625,788.1318969726562,794.1758422851562
1271,794.981689453125,795.7875366210938,786.1171875,793.3699340820312
1272,789.3406372070312,791.3552856445312,779.6703491210938,782.4908447265625
1273,792.1611938476562,787.7289428710938,780.0732421875,780.0732421875
1274,794.5787353515625,790.5494384765625,782.4908447265625,784.1025390625
1275,794.5787353515625,796.1904907226562,787.3259887695312,780.879150390625
1276,792.1611938476562,794.1758422851562,788.937744140625,780.4761962890625
1277,792.1611938476562,796.1904907226562,792.5640869140625,788.937744140625
1278,792.1611938476562,796.1904907226562,794.1758422851562,792.5640869140625
1279,797.8021850585938,796.5933837890625,792.1611938476562,790.952392578125
1280,799.010986328125,799.8168334960938,792.967041015625,792.1611938476562
1281,793.7728881835938,799.4139404296875,790.5494384765625,790.1465454101562
1282,787.7289428710938,799.010986328125,789.7435913085938,786.5201416015625
1283,788.937744140625,801.4285888671875,788.937744140625,788.1318969726562
1284,787.7289428710938,794.5787353515625,785.3113403320312,788.1318969726562
1285,790.1465454101562,792.5640869140625,789.7435913085938,787.3259887695312
1286,792.967041015625,794.981689453125,794.1758422851562,788.5347900390625
1287,788.937744140625,794.981689453125,796.1904907226562,787.7289428710938
1288,787.7289428710938,792.5640869140625,794.1758422851562,788.5347900390625
1289,788.937744140625,792.5640869140625,788.1318969726562,793.7728881835938
1290,795.3846435546875,798.6080322265625,790.1465454101562,788.5347900390625
1291,800.6226806640625,795.3846435546875,791.7582397460938,780.4761962890625
1292,791.7582397460938,786.5201416015625,787.3259887695312,781.2820434570312
1293,781.2820434570312,788.1318969726562,788.937744140625,784.1025390625
1294,779.2673950195312,790.1465454101562,788.5347900390625,785.7142944335938
1295,784.1025390625,785.3113403320312,785.7142944335938,781.2820434570312
1296,782.087890625,783.2966918945312,788.937744140625,775.6410522460938
1297,784.908447265625,791.3552856445312,795.3846435546875,786.5201416015625
1298,788.5347900390625,794.5787353515625,796.1904907226562,790.1465454101562
1299,785.3113403320312,792.967041015625,793.7728881835938,784.908447265625
1300,791.3552856445312,794.1758422851562,790.5494384765625,785.7142944335938
1301,792.5640869140625,792.5640869140625,786.5201416015625,790.1465454101562
1302,791.7582397460938,791.3552856445312,786.1171875,788.937744140625
1303,790.5494384765625,791.3552856445312,790.5494384765625,786.923095703125
1304,786.923095703125,790.952392578125,794.1758422851562,791.7582397460938
1305,793.3699340820312,792.1611938476562,795.7875366210938,797.8021850585938
1306,795.7875366210938,792.5640869140625,793.7728881835938,792.5640869140625
1307,792.1611938476562,792.967041015625,792.1611938476562,788.5347900390625
1308,794.1758422851562,795.7875366210938,793.7728881835938,794.981689453125
1309,791.3552856445312,794.1758422851562,795.3846435546875,792.1611938476562
1310,790.952392578125,792.1611938476562,799.010986328125,784.908447265625
1311,790.1465454101562,792.5640869140625,796.996337890625,782.4908447265625
1312,783.6996459960938,792.1611938476562,790.952392578125,786.1171875
1313,784.5054931640625,787.3259887695312,789.7435913085938,784.1025390625
1314,781.2820434570312,786.923095703125,793.7728881835938,774.4322509765625
1315,784.1025390625,788.1318969726562,792.967041015625,778.05859375
1316,790.5494384765625,782.087890625,789.7435913085938,788.5347900390625
1317,787.3259887695312,781.6849975585938,789.7435913085938,786.5201416015625
1318,780.879150390625,785.7142944335938,791.7582397460938,781.6849975585938
1319,784.1025390625,788.937744140625,794.981689453125,784.1025390625
1320,786.5201416015625,788.937744140625,795.7875366210938,782.4908447265625
1321,787.7289428710938,791.7582397460938,797.3992919921875,786.923095703125
1322,788.937744140625,792.5640869140625,797.8021850585938,789.3406372070312
1323,787.7289428710938,792.967041015625,795.3846435546875,790.1465454101562
1324,784.5054931640625,791.7582397460938,794.5787353515625,794.5787353515625
1325,789.3406372070312,782.4908447265625,796.1904907226562,794.981689453125
1326,795.3846435546875,789.3406372070312,795.7875366210938,797.8021850585938
1327,790.1465454101562,796.1904907226562,794.1758422851562,793.7728881835938
1328,784.908447265625,789.7435913085938,792.1611938476562,786.923095703125
1329,786.5201416015625,787.3259887695312,792.5640869140625,782.893798828125
1330,791.3552856445312,786.5201416015625,794.981689453125,786.5201416015625
1331,795.7875366210938,788.5347900390625,795.7875366210938,792.967041015625
1332,795.3846435546875,789.3406372070312,796.1904907226562,792.967041015625
1333,789.7435913085938,784.5054931640625,793.7728881835938,786.5201416015625
1334,785.3113403320312,784.5054931640625,790.952392578125,787.7289428710938
1335,788.1318969726562,787.3259887695312,788.1318969726562,792.1611938476562
1336,789.3406372070312,785.3113403320312,790.1465454101562,788.937744140625
1337,789.7435913085938,782.893798828125,793.3699340820312,786.5201416015625
1338,785.7142944335938,783.6996459960938,797.3992919921875,785.3113403320312
1339,788.5347900390625,785.7142944335938,799.010986328125,786.923095703125
1340,791.7582397460938,785.7142944335938,799.4139404296875,786.5201416015625
1341,785.7142944335938,789.7435913085938,796.1904907226562,789.3406372070312
1342,786.5201416015625,789.3406372070312,796.996337890625,785.7142944335938
1343,790.5494384765625,787.3259887695312,794.1758422851562,778.4615478515625
1344,788.937744140625,788.5347900390625,790.5494384765625,779.2673950195312
1345,792.1611938476562,789.3406372070312,789.3406372070312,787.7289428710938
1346,795.7875366210938,796.1904907226562,790.1465454101562,797.8021850585938
1347,794.5787353515625,797.8021850585938,792.5640869140625,801.4285888671875
1348,795.7875366210938,797.3992919921875,790.952392578125,797.3992919921875
1349,789.3406372070312,795.3846435546875,786.5201416015625,787.7289428710938
1350,791.7582397460938,790.1465454101562,790.1465454101562,788.5347900390625
1351,797.3992919921875,784.1025390625,791.7582397460938,793.7728881835938
1352,795.7875366210938,785.7142944335938,792.1611938476562,791.3552856445312
1353,799.010986328125,790.5494384765625,796.5933837890625,790.952392578125
1354,795.7875366210938,788.5347900390625,794.1758422851562,788.1318969726562
1355,786.923095703125,787.3259887695312,796.1904907226562,784.5054931640625
1356,788.1318969726562,787.7289428710938,800.2197875976562,788.1318969726562
1357,791.7582397460938,788.1318969726562,797.8021850585938,794.5787353515625
1358,790.952392578125,785.7142944335938,796.996337890625,790.5494384765625
1359,790.5494384765625,786.5201416015625,799.8168334960938,782.893798828125
1360,786.1171875,787.7289428710938,798.6080322265625,783.6996459960938
1361,790.1465454101562,786.923095703125,799.010986328125,790.5494384765625
1362,796.1904907226562,788.937744140625,799.8168334960938,797.8021850585938
1363,793.7728881835938,786.1171875,797.8021850585938,792.5640869140625
1364,790.952392578125,782.4908447265625,800.6226806640625,787.7289428710938
1365,787.7289428710938,776.8497924804688,803.4432373046875,799.010986328125
1366,784.908447265625,776.0439453125,799.8168334960938,795.7875366210938
1367,789.7435913085938,781.2820434570312,796.5933837890625,788.937744140625
1368,790.1465454101562,786.5201416015625,798.2051391601562,790.952392578125
1369,785.7142944335938,787.7289428710938,797.8021850585938,790.5494384765625
1370,787.7289428710938,784.908447265625,793.3699340820312,786.1171875
1371,787.7289428710938,784.5054931640625,795.7875366210938,786.1171875
1372,789.7435913085938,787.7289428710938,797.8021850585938,791.3552856445312
1373,794.1758422851562,788.937744140625,790.5494384765625,793.7728881835938
1374,794.1758422851562,791.7582397460938,796.1904907226562,806.2637329101562
1375,791.3552856445312,794.981689453125,804.2490844726562,807.87548828125
1376,787.3259887695312,791.3552856445312,801.4285888671875,798.2051391601562
1377,789.7435913085938,792.967041015625,796.1904907226562,797.8021850585938
1378,788.1318969726562,796.1904907226562,796.996337890625,792.967041015625
1379,783.2966918945312,796.996337890625,801.4285888671875,787.3259887695312
1380,779.2673950195312,797.8021850585938,800.6226806640625,791.3552856445312
1381,779.2673950195312,799.010986328125,797.3992919921875,796.1904907226562
1382,787.3259887695312,798.2051391601562,800.6226806640625,793.7728881835938
1383,794.1758422851562,793.3699340820312,801.8314819335938,787.3259887695312
1384,790.5494384765625,794.5787353515625,795.3846435546875,790.952392578125
1385,783.6996459960938,796.5933837890625,795.3846435546875,791.7582397460938
1386,786.1171875,799.8168334960938,795.3846435546875,787.3259887695312
1387,787.3259887695312,803.4432373046875,793.3699340820312,786.5201416015625
1388,791.7582397460938,803.8461303710938,792.967041015625,788.937744140625
1389,788.5347900390625,799.4139404296875,792.1611938476562,781.6849975585938
1390,782.893798828125,794.981689453125,796.1904907226562,777.6557006835938
1391,786.1171875,796.1904907226562,796.996337890625,785.7142944335938
1392,789.7435913085938,796.996337890625,793.7728881835938,787.3259887695312
1393,792.5640869140625,794.5787353515625,788.5347900390625,784.5054931640625
1394,787.7289428710938,790.5494384765625,789.7435913085938,782.087890625
1395,784.1025390625,791.3552856445312,796.996337890625,782.4908447265625
1396,788.937744140625,787.7289428710938,794.981689453125,791.7582397460938
1397,792.5640869140625,782.4908447265625,794.5787353515625,802.6373901367188
1398,788.5347900390625,778.4615478515625,796.996337890625,792.1611938476562
1399,790.952392578125,778.4615478515625,796.996337890625,788.937744140625
1400,792.967041015625,784.908447265625,796.996337890625,793.7728881835938
1401,788.937744140625,788.1318969726562,795.7875366210938,786.1171875
1402,787.7289428710938,794.1758422851562,790.952392578125,784.5054931640625
1403,791.3552856445312,796.1904907226562,789.3406372070312,786.923095703125
1404,792.967041015625,790.952392578125,792.967041015625,784.5054931640625
1405,790.952392578125,792.1611938476562,793.7728881835938,786.1171875
1406,787.3259887695312,790.5494384765625,794.981689453125,785.7142944335938
1407,784.1025390625,785.3113403320312,793.7728881835938,780.4761962890625
1408,780.4761962890625,787.7289428710938,793.7728881835938,779.2673950195312
1409,778.8644409179688,788.5347900390625,791.7582397460938,778.05859375
1410,776.4468994140625,785.7142944335938,791.7582397460938,777.2527465820312
1411,784.1025390625,785.3113403320312,794.981689453125,777.2527465820312
1412,794.5787353515625,788.1318969726562,795.7875366210938,789.3406372070312
1413,791.7582397460938,792.967041015625,790.5494384765625,791.7582397460938
1414,792.967041015625,790.952392578125,785.7142944335938,782.893798828125
1415,794.981689453125,785.3113403320312,790.952392578125,783.2966918945312
1416,792.1611938476562,787.3259887695312,793.7728881835938,787.3259887695312
1417,792.967041015625,794.5787353515625,798.6080322265625,787.7289428710938
1418,796.996337890625,797.3992919921875,798.2051391601562,788.1318969726562
1419,803.040283203125,792.967041015625,795.3846435546875,789.7435913085938
1420,805.4578857421875,792.1611938476562,797.3992919921875,792.5640869140625
1421,799.010986328125,792.1611938476562,798.2051391601562,796.1904907226562
1422,799.8168334960938,787.3259887695312,799.8168334960938,799.8168334960938
1423,800.2197875976562,788.5347900390625,802.2344360351562,804.2490844726562
1424,797.3992919921875,794.1758422851562,802.2344360351562,806.6666870117188
1425,795.3846435546875,796.5933837890625,799.8168334960938,801.8314819335938
1426,788.1318969726562,796.5933837890625,798.6080322265625,792.967041015625
1427,784.5054931640625,797.3992919921875,798.2051391601562,789.3406372070312
1428,795.7875366210938,800.6226806640625,800.6226806640625,795.7875366210938
1429,797.3992919921875,795.7875366210938,801.025634765625,789.7435913085938
1430,784.5054931640625,788.5347900390625,798.2051391601562,776.0439453125
1431,776.8497924804688,787.3259887695312,793.7728881835938,770.8058471679688
1432,779.6703491210938,784.1025390625,790.1465454101562,775.6410522460938
1433,785.7142944335938,783.6996459960938,792.967041015625,781.2820434570312
1434,783.2966918945312,784.5054931640625,792.1611938476562,774.029296875
1435,781.6849975585938,783.2966918945312,784.1025390625,773.6264038085938
1436,782.087890625,787.7289428710938,780.879150390625,777.2527465820312
1437,785.7142944335938,792.967041015625,785.3113403320312,774.029296875
1438,790.1465454101562,793.7728881835938,787.3259887695312,778.4615478515625
1439,794.981689453125,793.7728881835938,791.3552856445312,784.1025390625
1440,790.5494384765625,795.7875366210938,788.937744140625,778.4615478515625
1441,781.6849975585938,792.5640869140625,784.5054931640625,778.05859375
1442,779.6703491210938,788.5347900390625,788.937744140625,780.4761962890625
1443,778.8644409179688,790.1465454101562,790.5494384765625,780.879150390625
1444,783.2966918945312,789.7435913085938,788.5347900390625,787.3259887695312
1445,784.908447265625,786.5201416015625,791.7582397460938,785.3113403320312
1446,788.937744140625,785.3113403320312,797.8021850585938,786.5201416015625
1447,794.5787353515625,784.5054931640625,801.4285888671875,791.7582397460938
1448,793.7728881835938,786.923095703125,800.2197875976562,785.3113403320312
1449,786.5201416015625,786.923095703125,792.967041015625,782.893798828125
1450,780.4761962890625,789.7435913085938,790.1465454101562,786.1171875
1451,784.5054931640625,793.7728881835938,790.952392578125,784.5054931640625
1452,788.937744140625,792.967041015625,792.1611938476562,785.7142944335938
1453,785.3113403320312,791.3552856445312,796.5933837890625,790.5494384765625
1454,789.3406372070312,791.3552856445312,795.7875366210938,795.7875366210938
1455,793.7728881835938,793.3699340820312,797.8021850585938,795.7875366210938
1456,790.1465454101562,791.3552856445312,800.2197875976562,792.5640869140625
1457,790.5494384765625,788.937744140625,801.025634765625,790.952392578125
1458,794.981689453125,790.5494384765625,803.4432373046875,804.6520385742188
1459,803.4432373046875,794.1758422851562,802.6373901367188,812.3076782226562
1460,803.4432373046875,797.8021850585938,799.8168334960938,799.4139404296875
1461,801.4285888671875,797.8021850585938,799.010986328125,790.5494384765625
1462,796.5933837890625,797.8021850585938,800.2197875976562,785.3113403320312
1463,790.1465454101562,797.8021850585938,794.981689453125,788.1318969726562
1464,797.8021850585938,796.5933837890625,791.3552856445312,793.3699340820312
1465,801.025634765625,793.7728881835938,794.981689453125,794.981689453125
1466,798.6080322265625,793.7728881835938,793.3699340820312,792.1611938476562
1467,799.010986328125,793.7728881835938,790.1465454101562,786.923095703125
1468,795.7875366210938,790.5494384765625,789.7435913085938,789.3406372070312
1469,796.996337890625,794.1758422851562,794.981689453125,794.981689453125
1470,796.1904907226562,796.996337890625,798.6080322265625,798.2051391601562
1471,788.5347900390625,787.7289428710938,790.952392578125,784.908447265625
1472,778.4615478515625,786.1171875,785.3113403320312,773.2234497070312
1473,780.4761962890625,788.937744140625,792.967041015625,781.2820434570312
1474,793.3699340820312,791.3552856445312,801.025634765625,788.937744140625
1475,792.5640869140625,793.7728881835938,793.7728881835938,780.879150390625
1476,781.6849975585938,791.7582397460938,790.1465454101562,776.0439453125
1477,786.5201416015625,789.3406372070312,794.1758422851562,779.6703491210938
1478,791.3552856445312,786.1171875,792.967041015625,784.1025390625
1479,793.7728881835938,785.3113403320312,791.3552856445312,789.3406372070312
1480,795.3846435546875,784.1025390625,793.7728881835938,790.5494384765625
1481,790.952392578125,783.6996459960938,791.7582397460938,791.7582397460938
1482,785.3113403320312,781.6849975585938,788.1318969726562,786.923095703125
1483,786.1171875,785.3113403320312,789.7435913085938,777.6557006835938
1484,792.967041015625,795.3846435546875,795.3846435546875,780.879150390625
1485,790.1465454101562,793.7728881835938,798.6080322265625,782.893798828125
1486,791.3552856445312,792.1611938476562,798.6080322265625,786.5201416015625
1487,794.5787353515625,796.5933837890625,800.2197875976562,793.3699340820312
1488,792.5640869140625,799.010986328125,798.2051391601562,797.8021850585938
1489,795.7875366210938,801.4285888671875,796.996337890625,796.996337890625
1490,800.2197875976562,798.2051391601562,799.010986328125,796.1904907226562
1491,801.4285888671875,792.1611938476562,799.4139404296875,797.8021850585938
1492,803.8461303710938,790.1465454101562,798.6080322265625,801.4285888671875
1493,801.8314819335938,799.010986328125,797.8021850585938,799.8168334960938
1494,799.8168334960938,804.2490844726562,797.3992919921875,797.3992919921875
1495,799.010986328125,805.8607788085938,798.2051391601562,801.4285888671875
1496,798.2051391601562,802.2344360351562,801.025634765625,804.2490844726562
1497,794.5787353515625,796.996337890625,799.010986328125,801.4285888671875
1498,787.7289428710938,796.996337890625,798.6080322265625,788.5347900390625
1499,786.923095703125,798.6080322265625,796.5933837890625,784.1025390625
1500,793.3699340820312,801.4285888671875,794.5787353515625,792.1611938476562
1501,797.8021850585938,797.3992919921875,796.996337890625,797.8021850585938
1502,796.5933837890625,791.7582397460938,795.7875366210938,788.937744140625
1503,794.1758422851562,788.937744140625,789.7435913085938,785.7142944335938
1504,797.3992919921875,787.3259887695312,789.7435913085938,790.952392578125
1505,798.2051391601562,793.3699340820312,794.1758422851562,791.3552856445312
1506,793.3699340820312,793.7728881835938,794.1758422851562,790.5494384765625
1507,793.3699340820312,793.7728881835938,796.1904907226562,792.1611938476562
1508,795.3846435546875,799.4139404296875,795.7875366210938,795.3846435546875
1509,791.7582397460938,799.010986328125,790.1465454101562,790.952392578125
1510,791.7582397460938,796.5933837890625,788.1318969726562,781.2820434570312
1511,796.5933837890625,790.952392578125,787.3259887695312,780.0732421875
1512,792.1611938476562,790.1465454101562,793.7728881835938,783.2966918945312
1513,787.3259887695312,794.1758422851562,799.010986328125,782.4908447265625
1514,793.3699340820312,796.996337890625,796.1904907226562,789.3406372070312
1515,796.996337890625,799.4139404296875,800.6226806640625,797.8021850585938
1516,794.1758422851562,794.5787353515625,801.4285888671875,801.025634765625
1517,789.7435913085938,793.3699340820312,800.2197875976562,802.6373901367188
1518,786.923095703125,798.6080322265625,803.4432373046875,798.2051391601562
1519,792.967041015625,801.4285888671875,806.6666870117188,799.4139404296875
1520,800.6226806640625,800.2197875976562,807.4725341796875,803.8461303710938
1521,797.8021850585938,794.5787353515625,807.4725341796875,801.4285888671875
1522,787.3259887695312,790.5494384765625,805.054931640625,792.967041015625
1523,790.5494384765625,794.981689453125,805.4578857421875,798.2051391601562
1524,798.2051391601562,798.2051391601562,805.054931640625,807.069580078125
1525,794.981689453125,792.967041015625,796.1904907226562,803.040283203125
1526,791.7582397460938,789.7435913085938,790.952392578125,793.7728881835938
1527,795.7875366210938,792.1611938476562,792.967041015625,797.3992919921875
1528,795.7875366210938,792.1611938476562,796.5933837890625,805.4578857421875
1529,797.8021850585938,792.967041015625,792.5640869140625,800.2197875976562
1530,802.2344360351562,792.1611938476562,796.996337890625,793.7728881835938
1531,802.2344360351562,788.5347900390625,797.3992919921875,795.7875366210938
1532,793.7728881835938,795.7875366210938,793.3699340820312,791.3552856445312
1533,784.908447265625,798.6080322265625,792.967041015625,786.5201416015625
1534,786.5201416015625,795.7875366210938,793.7728881835938,785.7142944335938
1535,790.1465454101562,797.3992919921875,796.5933837890625,788.937744140625
1536,790.952392578125,796.996337890625,797.3992919921875,793.3699340820312
1537,790.952392578125,794.981689453125,797.3992919921875,787.3259887695312
1538,789.7435913085938,791.7582397460938,795.7875366210938,784.1025390625
1539,790.5494384765625,793.7728881835938,793.7728881835938,789.3406372070312
1540,796.1904907226562,799.8168334960938,795.3846435546875,788.1318969726562
1541,798.2051391601562,799.8168334960938,796.1904907226562,784.908447265625
1542,798.2051391601562,802.2344360351562,799.010986328125,792.5640869140625
1543,793.3699340820312,803.8461303710938,800.2197875976562,794.5787353515625
1544,786.5201416015625,800.2197875976562,796.5933837890625,792.967041015625
1545,796.996337890625,793.7728881835938,795.7875366210938,796.1904907226562
1546,798.2051391601562,790.952392578125,796.1904907226562,791.3552856445312
1547,787.3259887695312,793.3699340820312,792.1611938476562,785.3113403320312
1548,782.4908447265625,794.5787353515625,789.3406372070312,784.908447265625
1549,786.1171875,796.1904907226562,787.3259887695312,787.3259887695312
1550,792.1611938476562,795.3846435546875,786.5201416015625,791.3552856445312
1551,794.1758422851562,794.5787353515625,784.5054931640625,788.1318969726562
1552,796.5933837890625,795.3846435546875,782.893798828125,786.923095703125
1553,791.7582397460938,797.3992919921875,784.5054931640625,790.1465454101562
1554,789.7435913085938,796.996337890625,786.5201416015625,801.025634765625
1555,795.7875366210938,795.3846435546875,787.7289428710938,804.2490844726562
1556,798.6080322265625,792.1611938476562,786.5201416015625,801.8314819335938
1557,800.6226806640625,789.7435913085938,783.2966918945312,803.040283203125
1558,799.4139404296875,788.5347900390625,783.6996459960938,796.996337890625
1559,796.1904907226562,789.3406372070312,785.7142944335938,796.1904907226562
1560,791.7582397460938,789.3406372070312,784.908447265625,799.8168334960938
1561,792.1611938476562,788.5347900390625,784.5054931640625,799.010986328125
1562,792.967041015625,785.3113403320312,786.5201416015625,795.3846435546875
1563,791.7582397460938,788.937744140625,793.7728881835938,801.4285888671875
1564,793.3699340820312,788.5347900390625,793.3699340820312,805.4578857421875
1565,794.1758422851562,782.893798828125,792.1611938476562,803.040283203125
1566,795.7875366210938,782.4908447265625,794.1758422851562,812.3076782226562
1567,796.5933837890625,786.1171875,794.1758422851562,809.084228515625
1568,792.1611938476562,787.3259887695312,794.1758422851562,793.3699340820312
1569,788.1318969726562,784.908447265625,794.5787353515625,791.3552856445312
1570,786.923095703125,785.7142944335938,793.3699340820312,792.1611938476562
1571,780.879150390625,786.1171875,786.5201416015625,783.2966918945312
1572,780.4761962890625,783.2966918945312,781.2820434570312,782.087890625
1573,783.6996459960938,784.1025390625,786.923095703125,788.937744140625
1574,778.4615478515625,781.6849975585938,790.5494384765625,787.7289428710938
1575,786.1171875,779.2673950195312,789.7435913085938,790.1465454101562
1576,790.952392578125,777.6557006835938,790.5494384765625,790.5494384765625
1577,786.5201416015625,777.2527465820312,790.952392578125,789.3406372070312
1578,790.5494384765625,784.5054931640625,794.981689453125,786.923095703125
1579,796.996337890625,782.087890625,792.5640869140625,786.923095703125
1580,797.8021850585938,782.087890625,789.3406372070312,789.7435913085938
1581,786.5201416015625,784.1025390625,784.1025390625,786.5201416015625
1582,785.7142944335938,782.087890625,784.1025390625,788.937744140625
1583,785.3113403320312,781.2820434570312,785.7142944335938,786.5201416015625
1584,781.6849975585938,784.908447265625,782.087890625,787.3259887695312
1585,788.1318969726562,788.1318969726562,794.1758422851562,796.996337890625
