timestamp,RAW_TP9,RAW_AF7,RAW_AF8,RAW_TP10
1,780.4761962890625,793.3699340820312,790.952392578125,786.1171875
2,786.1171875,790.1465454101562,786.5201416015625,787.7289428710938
3,797.8021850585938,795.7875366210938,788.5347900390625,786.923095703125
4,802.2344360351562,797.3992919921875,794.1758422851562,786.1171875
5,796.5933837890625,796.1904907226562,791.7582397460938,793.7728881835938
6,793.3699340820312,795.3846435546875,792.1611938476562,800.6226806640625
7,798.2051391601562,798.2051391601562,794.981689453125,796.1904907226562
8,795.3846435546875,789.3406372070312,794.981689453125,786.1171875
9,788.5347900390625,782.893798828125,790.1465454101562,780.4761962890625
10,787.3259887695312,790.1465454101562,789.3406372070312,781.6849975585938
11,786.923095703125,792.1611938476562,794.1758422851562,784.1025390625
12,790.5494384765625,792.5640869140625,793.3699340820312,786.923095703125
13,788.937744140625,794.981689453125,793.3699340820312,785.7142944335938
14,781.2820434570312,790.1465454101562,791.3552856445312,781.6849975585938
15,778.05859375,787.7289428710938,787.3259887695312,787.3259887695312
16,780.879150390625,791.3552856445312,787.7289428710938,785.3113403320312
17,783.6996459960938,786.1171875,788.1318969726562,781.6849975585938
18,782.087890625,782.087890625,790.1465454101562,787.3259887695312
19,776.8497924804688,785.7142944335938,788.937744140625,778.05859375
20,782.087890625,790.1465454101562,787.7289428710938,780.879150390625
21,786.923095703125,791.3552856445312,794.1758422851562,792.967041015625
22,786.5201416015625,788.937744140625,796.996337890625,794.5787353515625
23,793.7728881835938,785.3113403320312,799.4139404296875,796.5933837890625
24,793.3699340820312,788.937744140625,802.2344360351562,801.4285888671875
25,791.3552856445312,792.967041015625,800.2197875976562,801.4285888671875
26,791.3552856445312,788.1318969726562,796.996337890625,794.981689453125
27,788.937744140625,788.937744140625,795.3846435546875,793.3699340820312
28,794.981689453125,793.7728881835938,792.5640869140625,792.1611938476562
29,794.5787353515625,793.3699340820312,792.1611938476562,797.3992919921875
30,783.2966918945312,795.7875366210938,798.2051391601562,794.1758422851562
31,783.2966918945312,796.996337890625,799.8168334960938,795.7875366210938
32,788.1318969726562,794.5787353515625,794.5787353515625,800.6226806640625
33,788.937744140625,789.3406372070312,793.7728881835938,800.6226806640625
34,795.3846435546875,785.3113403320312,798.2051391601562,801.025634765625
35,790.952392578125,784.908447265625,794.5787353515625,792.967041015625
36,787.3259887695312,790.1465454101562,794.1758422851562,790.1465454101562
37,789.7435913085938,792.967041015625,798.2051391601562,794.5787353515625
38,788.1318969726562,792.967041015625,794.981689453125,790.952392578125
39,787.7289428710938,793.7728881835938,792.1611938476562,790.1465454101562
40,789.7435913085938,794.1758422851562,791.3552856445312,796.996337890625
41,789.3406372070312,791.7582397460938,790.5494384765625,798.2051391601562
42,784.5054931640625,790.952392578125,792.5640869140625,789.3406372070312
43,785.7142944335938,789.3406372070312,794.5787353515625,788.937744140625
44,786.5201416015625,787.3259887695312,790.1465454101562,790.5494384765625
45,782.087890625,786.923095703125,788.1318969726562,786.923095703125
46,784.1025390625,794.5787353515625,790.1465454101562,785.3113403320312
47,793.3699340820312,802.2344360351562,790.5494384765625,783.6996459960938
48,788.1318969726562,797.8021850585938,785.3113403320312,783.2966918945312
49,781.6849975585938,791.3552856445312,784.908447265625,779.6703491210938
50,784.1025390625,791.7582397460938,786.923095703125,780.4761962890625
51,785.3113403320312,794.1758422851562,784.5054931640625,786.1171875
52,788.937744140625,792.5640869140625,792.1611938476562,797.8021850585938
53,793.7728881835938,801.4285888671875,797.8021850585938,801.4285888671875
54,794.5787353515625,801.025634765625,794.1758422851562,794.981689453125
55,796.5933837890625,792.967041015625,788.5347900390625,793.7728881835938
56,796.1904907226562,785.3113403320312,787.7289428710938,794.5787353515625
57,784.5054931640625,782.087890625,789.3406372070312,783.2966918945312
58,787.7289428710938,796.1904907226562,794.5787353515625,784.908447265625
59,792.5640869140625,803.4432373046875,796.996337890625,796.996337890625
60,788.5347900390625,801.4285888671875,799.8168334960938,794.5787353515625
61,790.952392578125,793.3699340820312,798.2051391601562,793.3699340820312
62,794.5787353515625,795.7875366210938,794.981689453125,796.1904907226562
63,796.1904907226562,803.4432373046875,798.2051391601562,795.7875366210938
64,793.3699340820312,801.025634765625,797.8021850585938,792.967041015625
65,794.5787353515625,801.8314819335938,791.3552856445312,789.3406372070312
66,796.1904907226562,801.025634765625,792.1611938476562,785.7142944335938
67,798.2051391601562,796.996337890625,795.3846435546875,790.5494384765625
68,797.3992919921875,793.3699340820312,792.5640869140625,794.5787353515625
69,788.937744140625,796.5933837890625,794.1758422851562,785.7142944335938
70,788.1318969726562,795.7875366210938,794.1758422851562,786.923095703125
71,785.7142944335938,799.010986328125,791.3552856445312,789.7435913085938
72,785.3113403320312,802.2344360351562,791.3552856445312,788.937744140625
73,789.3406372070312,797.8021850585938,787.7289428710938,784.1025390625
74,788.937744140625,794.1758422851562,791.3552856445312,790.1465454101562
75,789.3406372070312,790.1465454101562,794.981689453125,796.5933837890625
76,790.5494384765625,786.5201416015625,799.010986328125,796.1904907226562
77,788.937744140625,782.4908447265625,801.4285888671875,791.3552856445312
78,791.3552856445312,784.908447265625,798.6080322265625,784.908447265625
79,796.5933837890625,786.5201416015625,797.3992919921875,790.952392578125
80,791.7582397460938,790.952392578125,796.996337890625,787.7289428710938
81,785.3113403320312,795.7875366210938,795.7875366210938,788.5347900390625
82,787.3259887695312,792.1611938476562,796.5933837890625,792.967041015625
83,790.1465454101562,788.5347900390625,796.1904907226562,787.7289428710938
84,790.5494384765625,794.981689453125,798.6080322265625,792.5640869140625
85,792.967041015625,800.2197875976562,796.1904907226562,800.2197875976562
86,792.967041015625,799.010986328125,793.3699340820312,798.6080322265625
87,793.7728881835938,794.1758422851562,797.3992919921875,796.996337890625
88,795.7875366210938,787.7289428710938,794.5787353515625,794.5787353515625
89,800.2197875976562,789.3406372070312,790.5494384765625,788.5347900390625
90,794.5787353515625,789.3406372070312,792.1611938476562,786.5201416015625
91,786.1171875,786.5201416015625,792.967041015625,792.967041015625
92,792.1611938476562,791.7582397460938,792.967041015625,786.923095703125
93,797.8021850585938,795.7875366210938,789.7435913085938,781.6849975585938
94,796.1904907226562,795.7875366210938,792.5640869140625,785.7142944335938
95,796.996337890625,796.1904907226562,792.5640869140625,785.7142944335938
96,792.967041015625,793.3699340820312,787.3259887695312,781.2820434570312
97,788.1318969726562,784.908447265625,791.3552856445312,784.1025390625
98,787.7289428710938,785.3113403320312,792.967041015625,790.1465454101562
99,787.3259887695312,792.967041015625,792.967041015625,792.967041015625
100,787.3259887695312,791.7582397460938,788.937744140625,790.5494384765625
101,787.7289428710938,789.3406372070312,789.3406372070312,795.7875366210938
102,792.967041015625,790.952392578125,792.967041015625,809.084228515625
103,794.1758422851562,795.7875366210938,792.5640869140625,803.4432373046875
104,798.2051391601562,793.3699340820312,790.5494384765625,799.010986328125
105,801.8314819335938,793.3699340820312,790.952392578125,802.6373901367188
106,796.1904907226562,797.8021850585938,798.2051391601562,799.8168334960938
107,796.5933837890625,791.3552856445312,798.6080322265625,799.4139404296875
108,798.6080322265625,785.3113403320312,795.7875366210938,793.3699340820312
109,796.5933837890625,792.1611938476562,792.5640869140625,786.5201416015625
110,798.2051391601562,794.5787353515625,792.967041015625,793.3699340820312
111,801.025634765625,794.981689453125,793.7728881835938,799.010986328125
112,799.8168334960938,796.1904907226562,788.5347900390625,795.7875366210938
113,797.3992919921875,795.7875366210938,785.7142944335938,790.5494384765625
114,797.8021850585938,795.3846435546875,786.923095703125,796.1904907226562
115,798.6080322265625,790.952392578125,792.967041015625,793.3699340820312
116,796.1904907226562,796.1904907226562,795.7875366210938,792.1611938476562
117,796.5933837890625,800.6226806640625,798.6080322265625,799.010986328125
118,796.996337890625,795.7875366210938,799.4139404296875,799.010986328125
119,799.8168334960938,795.7875366210938,797.3992919921875,799.010986328125
120,802.2344360351562,796.1904907226562,795.3846435546875,801.025634765625
121,795.3846435546875,788.1318969726562,790.952392578125,797.3992919921875
122,788.1318969726562,785.7142944335938,788.937744140625,792.5640869140625
123,787.7289428710938,795.3846435546875,792.5640869140625,790.1465454101562
124,791.3552856445312,799.8168334960938,792.1611938476562,790.5494384765625
125,790.1465454101562,793.7728881835938,788.1318969726562,797.8021850585938
126,784.908447265625,798.6080322265625,790.952392578125,795.7875366210938
127,782.893798828125,803.040283203125,794.5787353515625,784.908447265625
128,784.1025390625,794.981689453125,795.3846435546875,787.3259887695312
129,785.3113403320312,791.3552856445312,792.967041015625,793.7728881835938
130,788.1318969726562,794.5787353515625,792.1611938476562,788.5347900390625
131,794.981689453125,790.5494384765625,791.7582397460938,791.3552856445312
132,796.996337890625,790.5494384765625,787.7289428710938,798.2051391601562
133,798.6080322265625,797.8021850585938,793.3699340820312,797.3992919921875
134,803.8461303710938,798.2051391601562,798.2051391601562,800.2197875976562
135,807.069580078125,796.1904907226562,791.7582397460938,794.5787353515625
136,799.8168334960938,796.996337890625,789.7435913085938,791.7582397460938
137,794.5787353515625,798.6080322265625,791.3552856445312,797.8021850585938
138,795.7875366210938,803.040283203125,793.3699340820312,796.5933837890625
139,792.1611938476562,794.1758422851562,791.3552856445312,798.6080322265625
140,794.5787353515625,789.3406372070312,792.1611938476562,802.6373901367188
141,793.7728881835938,792.5640869140625,794.5787353515625,798.2051391601562
142,784.908447265625,782.087890625,796.1904907226562,790.952392578125
143,780.4761962890625,790.1465454101562,796.1904907226562,788.1318969726562
144,788.5347900390625,803.4432373046875,799.8168334960938,790.952392578125
145,790.952392578125,801.4285888671875,799.8168334960938,794.981689453125
146,790.1465454101562,794.5787353515625,798.2051391601562,798.2051391601562
147,794.981689453125,791.3552856445312,797.8021850585938,796.996337890625
148,796.1904907226562,787.7289428710938,798.6080322265625,799.010986328125
149,788.1318969726562,785.3113403320312,801.4285888671875,799.010986328125
150,788.1318969726562,790.5494384765625,796.996337890625,794.1758422851562
151,792.1611938476562,788.1318969726562,787.7289428710938,784.908447265625
152,791.3552856445312,789.3406372070312,789.3406372070312,785.3113403320312
153,794.981689453125,797.8021850585938,795.7875366210938,788.5347900390625
154,795.3846435546875,796.5933837890625,793.7728881835938,784.1025390625
155,792.967041015625,792.1611938476562,792.967041015625,790.5494384765625
156,796.5933837890625,792.5640869140625,793.3699340820312,790.5494384765625
157,796.996337890625,788.1318969726562,790.952392578125,791.7582397460938
158,795.7875366210938,786.5201416015625,789.7435913085938,788.5347900390625
159,794.981689453125,792.967041015625,788.5347900390625,781.2820434570312
160,789.7435913085938,790.952392578125,790.5494384765625,782.893798828125
161,785.3113403320312,790.1465454101562,794.981689453125,784.908447265625
162,786.1171875,796.996337890625,792.967041015625,789.3406372070312
163,788.1318969726562,795.7875366210938,788.937744140625,788.937744140625
164,787.3259887695312,794.1758422851562,790.1465454101562,788.1318969726562
165,784.5054931640625,793.3699340820312,787.3259887695312,784.5054931640625
166,780.0732421875,790.5494384765625,789.3406372070312,784.5054931640625
167,775.2380981445312,792.967041015625,786.1171875,791.7582397460938
168,776.8497924804688,788.5347900390625,784.5054931640625,791.3552856445312
169,781.6849975585938,787.3259887695312,788.937744140625,792.1611938476562
170,780.4761962890625,787.7289428710938,788.5347900390625,792.1611938476562
171,778.05859375,778.4615478515625,780.879150390625,788.1318969726562
172,780.879150390625,786.923095703125,778.8644409179688,785.3113403320312
173,790.952392578125,800.6226806640625,784.908447265625,784.1025390625
174,797.8021850585938,803.4432373046875,786.5201416015625,788.937744140625
175,788.1318969726562,804.6520385742188,789.3406372070312,791.7582397460938
176,780.0732421875,803.8461303710938,788.1318969726562,778.8644409179688
177,784.1025390625,801.8314819335938,790.5494384765625,776.4468994140625
178,791.3552856445312,803.040283203125,795.7875366210938,789.7435913085938
179,796.5933837890625,803.040283203125,792.5640869140625,796.996337890625
180,792.1611938476562,799.8168334960938,789.3406372070312,793.7728881835938
181,789.7435913085938,800.2197875976562,791.7582397460938,789.3406372070312
182,791.7582397460938,792.5640869140625,791.3552856445312,789.3406372070312
183,792.967041015625,784.1025390625,788.5347900390625,789.7435913085938
184,788.5347900390625,794.1758422851562,790.1465454101562,784.908447265625
185,783.2966918945312,801.025634765625,796.5933837890625,785.7142944335938
186,786.923095703125,797.8021850585938,797.8021850585938,794.1758422851562
187,792.967041015625,798.6080322265625,793.7728881835938,795.3846435546875
188,790.1465454101562,798.6080322265625,794.5787353515625,786.923095703125
189,789.7435913085938,793.3699340820312,790.5494384765625,784.908447265625
190,789.7435913085938,791.3552856445312,789.7435913085938,785.3113403320312
191,790.5494384765625,792.1611938476562,797.3992919921875,788.1318969726562
192,794.981689453125,795.7875366210938,801.025634765625,798.2051391601562
193,793.3699340820312,795.3846435546875,798.6080322265625,797.8021850585938
194,793.3699340820312,786.1171875,794.981689453125,799.010986328125
195,796.1904907226562,780.4761962890625,798.6080322265625,800.6226806640625
196,797.3992919921875,792.5640869140625,802.6373901367188,799.8168334960938
197,793.7728881835938,800.6226806640625,798.6080322265625,801.025634765625
198,794.5787353515625,795.7875366210938,795.3846435546875,800.2197875976562
199,796.996337890625,793.7728881835938,797.8021850585938,800.2197875976562
200,802.2344360351562,792.967041015625,805.4578857421875,796.5933837890625
201,811.5018310546875,794.5787353515625,803.4432373046875,801.025634765625
202,804.2490844726562,791.7582397460938,796.996337890625,804.6520385742188
203,800.6226806640625,784.1025390625,796.996337890625,807.4725341796875
204,800.2197875976562,780.4761962890625,794.981689453125,809.4871826171875
205,791.7582397460938,786.5201416015625,793.7728881835938,803.040283203125
206,790.5494384765625,792.5640869140625,792.5640869140625,800.2197875976562
207,791.7582397460938,790.952392578125,800.2197875976562,799.010986328125
208,786.923095703125,794.5787353515625,802.6373901367188,791.3552856445312
209,782.893798828125,794.981689453125,795.7875366210938,791.3552856445312
210,784.1025390625,793.3699340820312,796.1904907226562,801.8314819335938
211,785.7142944335938,797.3992919921875,801.8314819335938,794.981689453125
212,790.952392578125,801.025634765625,803.8461303710938,794.981689453125
213,796.1904907226562,803.8461303710938,801.8314819335938,805.054931640625
214,791.7582397460938,806.6666870117188,803.4432373046875,801.025634765625
215,794.981689453125,808.2783813476562,812.7106323242188,799.4139404296875
216,791.7582397460938,802.6373901367188,802.6373901367188,791.7582397460938
217,789.7435913085938,800.6226806640625,794.1758422851562,782.087890625
218,791.3552856445312,811.098876953125,802.2344360351562,786.1171875
219,778.05859375,800.6226806640625,790.952392578125,778.05859375
220,774.4322509765625,800.6226806640625,792.967041015625,772.8204956054688
221,771.2088012695312,814.7252807617188,803.4432373046875,765.970703125
222,759.5238037109375,816.3369750976562,799.4139404296875,757.5091552734375
223,754.6886596679688,825.6043701171875,815.5311279296875,757.912109375
224,750.6593627929688,834.4688720703125,809.4871826171875,748.2417602539062
225,740.1831665039062,825.6043701171875,790.5494384765625,738.974365234375
226,720.03662109375,815.5311279296875,806.6666870117188,728.09521484375
227,702.7106323242188,820.7692260742188,817.5457763671875,711.1721801757812
228,696.6666870117188,828.8278198242188,822.7838745117188,704.7252807617188
229,687.3992919921875,834.4688720703125,826.4102783203125,691.4285888671875
230,682.5640869140625,840.5128173828125,825.6043701171875,678.5347900390625
231,685.7875366210938,832.8571166992188,828.4249267578125,676.923095703125
232,685.3846435546875,834.8717651367188,828.8278198242188,678.1318969726562
233,689.4139404296875,839.3040161132812,832.05126953125,691.4285888671875
234,688.6080322265625,830.8424682617188,839.7069702148438,691.4285888671875
235,683.3699340820312,831.2454223632812,835.6776733398438,689.4139404296875
236,695.4578857421875,826.4102783203125,826.8131713867188,705.5311279296875
237,703.91943359375,824.7985229492188,823.1868286132812,716.4102783203125
238,702.3076782226562,827.6190185546875,821.1721801757812,715.2014770507812
239,712.3809814453125,819.5604248046875,818.3516235351562,722.4542236328125
240,725.2747192382812,811.90478515625,810.2930297851562,736.5567626953125
241,736.1538696289062,809.084228515625,808.2783813476562,740.989013671875
242,751.8681030273438,803.4432373046875,807.069580078125,751.062255859375
243,767.9853515625,805.4578857421875,803.040283203125,771.2088012695312
244,774.8351440429688,801.025634765625,804.2490844726562,786.923095703125
245,772.4176025390625,796.1904907226562,799.4139404296875,786.923095703125
246,776.8497924804688,790.952392578125,791.3552856445312,782.893798828125
247,784.5054931640625,784.5054931640625,788.1318969726562,785.3113403320312
248,788.1318969726562,784.1025390625,792.5640869140625,794.5787353515625
249,790.1465454101562,782.4908447265625,788.937744140625,798.2051391601562
250,799.8168334960938,788.1318969726562,784.5054931640625,801.4285888671875
251,807.87548828125,794.1758422851562,788.5347900390625,811.90478515625
252,806.2637329101562,786.5201416015625,783.6996459960938,808.2783813476562
253,809.89013671875,782.087890625,776.4468994140625,800.6226806640625
254,818.3516235351562,781.2820434570312,778.4615478515625,812.7106323242188
255,821.1721801757812,779.6703491210938,783.6996459960938,821.97802734375
256,819.1575317382812,782.087890625,784.908447265625,821.1721801757812
257,819.5604248046875,778.4615478515625,780.0732421875,816.7399291992188
258,826.8131713867188,780.0732421875,778.4615478515625,820.3662719726562
259,828.4249267578125,785.3113403320312,779.6703491210938,830.03662109375
260,823.1868286132812,779.6703491210938,776.8497924804688,829.2307739257812
261,820.7692260742188,779.2673950195312,778.05859375,828.8278198242188
262,823.99267578125,784.908447265625,779.2673950195312,836.4835205078125
263,834.4688720703125,776.4468994140625,782.087890625,848.974365234375
264,838.901123046875,771.2088012695312,783.2966918945312,839.3040161132812
265,834.4688720703125,779.6703491210938,782.087890625,820.3662719726562
266,833.6630249023438,780.879150390625,782.4908447265625,823.99267578125
267,833.2600708007812,780.4761962890625,780.4761962890625,829.2307739257812
268,832.8571166992188,782.893798828125,779.6703491210938,823.99267578125
269,833.2600708007812,784.1025390625,780.879150390625,821.1721801757812
270,832.4542236328125,783.2966918945312,783.6996459960938,824.3956298828125
271,839.7069702148438,783.6996459960938,783.2966918945312,828.8278198242188
272,842.12451171875,783.6996459960938,788.1318969726562,819.1575317382812
273,841.3186645507812,781.6849975585938,790.1465454101562,815.1282348632812
274,841.7216186523438,787.7289428710938,788.5347900390625,823.5897216796875
275,836.08056640625,790.952392578125,784.5054931640625,821.97802734375
276,832.4542236328125,788.5347900390625,782.893798828125,824.7985229492188
277,836.08056640625,785.3113403320312,783.2966918945312,830.03662109375
278,837.6923217773438,782.087890625,785.3113403320312,825.2014770507812
279,830.4395751953125,786.923095703125,788.5347900390625,823.5897216796875
280,825.2014770507812,792.967041015625,790.5494384765625,826.00732421875
281,825.2014770507812,791.7582397460938,795.3846435546875,831.2454223632812
282,819.96337890625,779.6703491210938,791.7582397460938,835.2747192382812
283,825.6043701171875,767.9853515625,788.1318969726562,840.5128173828125
284,827.2161254882812,782.087890625,794.5787353515625,836.886474609375
285,813.91943359375,788.1318969726562,795.3846435546875,832.8571166992188
286,813.5164794921875,788.1318969726562,792.1611938476562,832.8571166992188
287,821.5750732421875,790.5494384765625,791.3552856445312,824.7985229492188
288,821.97802734375,787.7289428710938,786.1171875,816.7399291992188
289,815.1282348632812,786.1171875,782.4908447265625,815.1282348632812
290,805.8607788085938,781.6849975585938,782.087890625,811.90478515625
291,804.2490844726562,779.6703491210938,778.8644409179688,806.6666870117188
292,809.4871826171875,784.1025390625,779.2673950195312,811.90478515625
293,813.113525390625,786.923095703125,782.4908447265625,815.5311279296875
294,813.91943359375,786.1171875,783.2966918945312,814.7252807617188
295,812.7106323242188,793.3699340820312,787.7289428710938,811.5018310546875
296,816.3369750976562,796.5933837890625,790.1465454101562,799.8168334960938
297,816.3369750976562,793.7728881835938,790.952392578125,801.4285888671875
298,814.3223266601562,794.981689453125,793.3699340820312,806.6666870117188
299,815.1282348632812,795.3846435546875,793.3699340820312,808.6813354492188
300,811.90478515625,787.3259887695312,794.981689453125,803.8461303710938
301,801.8314819335938,788.5347900390625,792.5640869140625,796.996337890625
302,801.4285888671875,797.8021850585938,789.3406372070312,799.4139404296875
303,810.2930297851562,796.996337890625,792.967041015625,808.2783813476562
304,811.098876953125,792.967041015625,796.996337890625,807.069580078125
305,808.2783813476562,787.3259887695312,794.5787353515625,813.5164794921875
306,804.2490844726562,784.5054931640625,793.3699340820312,816.7399291992188
307,801.8314819335938,787.7289428710938,794.981689453125,806.2637329101562
308,805.4578857421875,785.3113403320312,794.981689453125,812.3076782226562
309,805.054931640625,783.2966918945312,794.5787353515625,814.7252807617188
310,803.040283203125,788.5347900390625,793.7728881835938,809.89013671875
311,797.8021850585938,791.3552856445312,786.1171875,799.4139404296875
312,800.2197875976562,788.5347900390625,784.5054931640625,790.952392578125
313,804.6520385742188,793.3699340820312,788.5347900390625,796.996337890625
314,799.8168334960938,794.5787353515625,793.7728881835938,799.8168334960938
315,799.8168334960938,792.967041015625,797.8021850585938,795.7875366210938
316,805.054931640625,796.1904907226562,793.7728881835938,798.2051391601562
317,809.89013671875,793.3699340820312,796.5933837890625,809.89013671875
318,803.8461303710938,792.1611938476562,794.981689453125,799.010986328125
319,796.996337890625,795.7875366210938,786.5201416015625,783.2966918945312
320,798.2051391601562,791.7582397460938,789.3406372070312,784.908447265625
321,799.010986328125,794.5787353515625,792.967041015625,791.7582397460938
322,796.1904907226562,792.5640869140625,790.5494384765625,792.5640869140625
323,802.6373901367188,786.5201416015625,789.3406372070312,785.7142944335938
324,803.8461303710938,789.7435913085938,788.937744140625,790.952392578125
325,799.010986328125,787.7289428710938,792.5640869140625,800.2197875976562
326,790.1465454101562,786.1171875,794.1758422851562,796.5933837890625
327,787.7289428710938,793.7728881835938,787.3259887695312,796.5933837890625
328,792.967041015625,791.7582397460938,785.7142944335938,798.2051391601562
329,793.3699340820312,788.937744140625,788.5347900390625,797.8021850585938
330,795.7875366210938,791.7582397460938,788.1318969726562,788.5347900390625
331,799.010986328125,791.3552856445312,789.7435913085938,784.1025390625
332,803.040283203125,792.1611938476562,794.5787353515625,791.3552856445312
333,809.89013671875,790.5494384765625,794.1758422851562,793.7728881835938
334,807.87548828125,794.1758422851562,794.1758422851562,793.3699340820312
335,801.025634765625,795.7875366210938,797.3992919921875,794.981689453125
336,795.3846435546875,784.5054931640625,792.1611938476562,793.7728881835938
337,790.1465454101562,780.879150390625,788.1318969726562,792.5640869140625
338,791.7582397460938,783.2966918945312,788.937744140625,796.5933837890625
339,794.1758422851562,785.3113403320312,787.3259887695312,797.3992919921875
340,794.1758422851562,790.1465454101562,788.937744140625,798.6080322265625
341,792.5640869140625,791.7582397460938,796.996337890625,794.981689453125
342,791.7582397460938,788.5347900390625,799.010986328125,786.5201416015625
343,789.7435913085938,788.937744140625,790.5494384765625,781.6849975585938
344,786.5201416015625,790.952392578125,787.7289428710938,782.4908447265625
345,785.7142944335938,790.5494384765625,791.7582397460938,791.3552856445312
346,785.3113403320312,782.893798828125,786.923095703125,794.981689453125
347,785.3113403320312,780.879150390625,782.893798828125,790.1465454101562
348,784.908447265625,788.5347900390625,788.937744140625,790.1465454101562
349,790.952392578125,791.3552856445312,792.1611938476562,799.8168334960938
350,794.1758422851562,798.2051391601562,795.7875366210938,805.054931640625
351,790.952392578125,796.5933837890625,797.8021850585938,804.2490844726562
352,788.937744140625,788.937744140625,792.1611938476562,811.098876953125
353,786.5201416015625,793.3699340820312,793.3699340820312,802.2344360351562
354,790.1465454101562,793.7728881835938,798.6080322265625,792.5640869140625
355,795.7875366210938,792.5640869140625,796.5933837890625,797.3992919921875
356,799.010986328125,796.5933837890625,794.5787353515625,794.5787353515625
357,798.2051391601562,793.7728881835938,794.1758422851562,787.7289428710938
358,794.981689453125,786.923095703125,796.1904907226562,794.1758422851562
359,793.7728881835938,788.1318969726562,800.6226806640625,808.2783813476562
360,796.5933837890625,794.981689453125,800.6226806640625,804.6520385742188
361,796.996337890625,791.3552856445312,799.4139404296875,796.5933837890625
362,789.7435913085938,786.5201416015625,798.2051391601562,791.7582397460938
363,789.7435913085938,795.7875366210938,796.1904907226562,791.7582397460938
364,796.1904907226562,804.2490844726562,798.6080322265625,798.6080322265625
365,792.5640869140625,801.4285888671875,803.8461303710938,800.2197875976562
366,790.5494384765625,796.5933837890625,805.8607788085938,796.1904907226562
367,794.5787353515625,793.7728881835938,807.069580078125,804.6520385742188
368,795.7875366210938,793.7728881835938,809.89013671875,807.069580078125
369,798.6080322265625,794.981689453125,804.2490844726562,799.010986328125
370,801.4285888671875,786.1171875,797.8021850585938,804.6520385742188
371,799.8168334960938,790.1465454101562,796.1904907226562,805.054931640625
372,793.3699340820312,800.2197875976562,792.967041015625,794.1758422851562
373,790.5494384765625,798.6080322265625,792.5640869140625,787.7289428710938
374,794.981689453125,796.1904907226562,790.5494384765625,790.5494384765625
375,797.8021850585938,794.981689453125,788.5347900390625,797.8021850585938
376,789.7435913085938,796.1904907226562,788.5347900390625,798.2051391601562
377,782.4908447265625,796.1904907226562,786.923095703125,794.981689453125
378,790.1465454101562,790.5494384765625,782.893798828125,801.025634765625
379,801.4285888671875,786.923095703125,786.5201416015625,807.87548828125
380,795.7875366210938,790.1465454101562,792.967041015625,795.7875366210938
381,792.5640869140625,790.1465454101562,791.3552856445312,788.937744140625
382,799.8168334960938,782.893798828125,789.3406372070312,798.2051391601562
383,799.8168334960938,784.1025390625,792.1611938476562,801.8314819335938
384,793.7728881835938,791.7582397460938,792.967041015625,792.5640869140625
385,798.6080322265625,790.5494384765625,790.952392578125,787.7289428710938
386,801.025634765625,790.5494384765625,790.1465454101562,789.3406372070312
387,797.3992919921875,793.3699340820312,793.3699340820312,790.952392578125
388,796.5933837890625,796.1904907226562,796.996337890625,794.981689453125
389,799.8168334960938,796.1904907226562,796.996337890625,795.3846435546875
390,802.6373901367188,790.5494384765625,791.7582397460938,796.5933837890625
391,795.3846435546875,788.1318969726562,788.5347900390625,791.7582397460938
392,796.1904907226562,791.7582397460938,792.1611938476562,790.952392578125
393,793.3699340820312,793.3699340820312,798.6080322265625,791.7582397460938
394,792.5640869140625,789.7435913085938,799.8168334960938,794.1758422851562
395,794.1758422851562,785.3113403320312,788.1318969726562,798.6080322265625
396,795.3846435546875,787.7289428710938,785.7142944335938,804.2490844726562
397,798.2051391601562,794.981689453125,790.952392578125,796.996337890625
398,792.1611938476562,796.1904907226562,792.5640869140625,788.1318969726562
399,792.1611938476562,792.1611938476562,792.1611938476562,790.952392578125
400,796.996337890625,788.937744140625,796.5933837890625,792.5640869140625
401,792.967041015625,790.952392578125,797.3992919921875,798.2051391601562
402,790.952392578125,796.5933837890625,794.1758422851562,802.6373901367188
403,790.1465454101562,796.5933837890625,796.5933837890625,796.1904907226562
404,788.1318969726562,792.1611938476562,794.981689453125,796.5933837890625
405,785.7142944335938,790.952392578125,790.952392578125,794.5787353515625
406,783.2966918945312,786.923095703125,792.1611938476562,792.967041015625
407,784.1025390625,794.981689453125,798.6080322265625,798.2051391601562
408,785.7142944335938,800.6226806640625,795.3846435546875,801.8314819335938
409,788.937744140625,794.5787353515625,788.1318969726562,801.8314819335938
410,784.1025390625,789.7435913085938,793.3699340820312,801.025634765625
411,787.3259887695312,786.923095703125,796.5933837890625,800.6226806640625
412,788.5347900390625,782.893798828125,789.3406372070312,791.7582397460938
413,786.923095703125,792.967041015625,788.5347900390625,794.981689453125
414,786.1171875,802.6373901367188,788.937744140625,790.1465454101562
415,780.0732421875,799.4139404296875,786.5201416015625,782.087890625
416,781.6849975585938,797.3992919921875,784.5054931640625,784.1025390625
417,787.7289428710938,798.6080322265625,787.3259887695312,784.5054931640625
418,791.7582397460938,796.1904907226562,792.967041015625,790.5494384765625
419,792.1611938476562,795.3846435546875,789.3406372070312,789.3406372070312
420,795.3846435546875,791.3552856445312,785.7142944335938,785.7142944335938
421,796.5933837890625,794.1758422851562,788.937744140625,793.7728881835938
422,795.7875366210938,801.4285888671875,790.5494384765625,795.7875366210938
423,792.5640869140625,793.3699340820312,785.7142944335938,788.5347900390625
424,788.937744140625,791.7582397460938,786.5201416015625,792.5640869140625
425,794.5787353515625,799.4139404296875,794.1758422851562,802.2344360351562
426,792.5640869140625,800.2197875976562,795.3846435546875,799.4139404296875
427,786.923095703125,798.6080322265625,793.3699340820312,799.010986328125
428,784.908447265625,796.5933837890625,792.5640869140625,799.8168334960938
429,785.7142944335938,796.5933837890625,792.1611938476562,799.4139404296875
430,790.5494384765625,787.3259887695312,792.1611938476562,798.6080322265625
431,792.967041015625,789.3406372070312,790.1465454101562,790.952392578125
432,795.7875366210938,799.8168334960938,790.5494384765625,786.5201416015625
433,795.3846435546875,796.996337890625,792.1611938476562,787.7289428710938
434,783.6996459960938,793.7728881835938,791.7582397460938,790.1465454101562
435,781.6849975585938,795.3846435546875,790.1465454101562,790.5494384765625
436,791.7582397460938,796.1904907226562,789.7435913085938,790.952392578125
437,793.7728881835938,796.996337890625,793.3699340820312,794.981689453125
438,794.5787353515625,796.996337890625,799.8168334960938,795.7875366210938
439,792.5640869140625,791.3552856445312,797.8021850585938,789.3406372070312
440,792.5640869140625,794.981689453125,791.7582397460938,788.937744140625
441,791.3552856445312,796.1904907226562,800.2197875976562,790.1465454101562
442,786.923095703125,785.7142944335938,801.4285888671875,776.8497924804688
443,789.7435913085938,784.908447265625,797.3992919921875,779.2673950195312
444,793.3699340820312,790.952392578125,799.010986328125,794.5787353515625
445,795.7875366210938,801.4285888671875,796.1904907226562,800.6226806640625
446,800.6226806640625,801.4285888671875,797.3992919921875,803.040283203125
447,796.996337890625,801.025634765625,801.4285888671875,796.5933837890625
448,783.2966918945312,801.4285888671875,798.6080322265625,781.6849975585938
449,785.7142944335938,794.1758422851562,795.3846435546875,782.4908447265625
450,795.3846435546875,794.1758422851562,792.967041015625,788.937744140625
451,794.1758422851562,794.5787353515625,795.3846435546875,797.8021850585938
452,794.5787353515625,796.1904907226562,798.6080322265625,804.2490844726562
453,797.3992919921875,795.3846435546875,799.010986328125,792.5640869140625
454,792.5640869140625,789.7435913085938,794.5787353515625,786.923095703125
455,788.1318969726562,788.937744140625,793.3699340820312,783.2966918945312
456,787.7289428710938,790.5494384765625,795.7875366210938,784.908447265625
457,795.3846435546875,800.6226806640625,795.7875366210938,792.5640869140625
458,799.010986328125,798.2051391601562,793.3699340820312,796.5933837890625
459,792.5640869140625,782.4908447265625,790.1465454101562,796.5933837890625
460,788.937744140625,784.908447265625,792.1611938476562,789.3406372070312
461,786.923095703125,795.3846435546875,796.5933837890625,785.7142944335938
462,785.7142944335938,795.3846435546875,789.7435913085938,786.923095703125
463,789.3406372070312,789.7435913085938,787.7289428710938,796.1904907226562
464,787.7289428710938,792.1611938476562,794.5787353515625,790.952392578125
465,786.1171875,790.1465454101562,795.3846435546875,778.05859375
466,792.967041015625,788.1318969726562,789.3406372070312,783.6996459960938
467,792.967041015625,792.1611938476562,785.7142944335938,783.6996459960938
468,790.5494384765625,792.967041015625,790.5494384765625,785.3113403320312
469,791.7582397460938,790.952392578125,792.5640869140625,794.1758422851562
470,793.3699340820312,788.1318969726562,792.967041015625,790.952392578125
471,793.3699340820312,789.3406372070312,794.981689453125,787.3259887695312
472,797.8021850585938,790.5494384765625,796.996337890625,787.7289428710938
473,804.2490844726562,794.5787353515625,794.981689453125,792.967041015625
474,808.2783813476562,798.2051391601562,793.7728881835938,799.010986328125
475,803.4432373046875,795.7875366210938,794.981689453125,801.4285888671875
476,795.7875366210938,793.3699340820312,792.5640869140625,794.1758422851562
477,798.2051391601562,794.5787353515625,791.3552856445312,785.7142944335938
478,796.1904907226562,788.937744140625,789.3406372070312,793.3699340820312
479,792.1611938476562,789.3406372070312,790.5494384765625,802.2344360351562
480,794.981689453125,796.5933837890625,795.7875366210938,798.6080322265625
481,795.7875366210938,793.3699340820312,791.3552856445312,797.3992919921875
482,794.981689453125,791.7582397460938,787.7289428710938,796.5933837890625
483,794.981689453125,790.1465454101562,790.952392578125,790.5494384765625
484,788.5347900390625,789.3406372070312,790.952392578125,784.5054931640625
485,784.908447265625,791.7582397460938,788.1318969726562,783.6996459960938
486,784.5054931640625,785.7142944335938,786.1171875,791.3552856445312
487,786.1171875,786.5201416015625,790.952392578125,790.5494384765625
488,788.1318969726562,794.5787353515625,791.7582397460938,787.3259887695312
489,790.5494384765625,795.7875366210938,790.5494384765625,792.1611938476562
490,792.967041015625,790.952392578125,790.1465454101562,789.7435913085938
491,792.5640869140625,786.923095703125,789.7435913085938,784.5054931640625
492,794.5787353515625,793.3699340820312,792.5640869140625,783.2966918945312
493,795.7875366210938,799.8168334960938,793.3699340820312,782.4908447265625
494,794.1758422851562,797.8021850585938,799.4139404296875,788.5347900390625
495,794.1758422851562,797.8021850585938,801.4285888671875,791.3552856445312
496,795.7875366210938,798.2051391601562,803.4432373046875,789.7435913085938
497,791.7582397460938,796.996337890625,802.6373901367188,790.5494384765625
498,790.1465454101562,796.996337890625,798.2051391601562,797.3992919921875
499,792.5640869140625,799.010986328125,799.4139404296875,797.8021850585938
500,788.5347900390625,800.6226806640625,796.5933837890625,797.8021850585938
501,787.3259887695312,796.1904907226562,795.3846435546875,794.981689453125
502,789.7435913085938,794.5787353515625,794.981689453125,789.3406372070312
503,792.1611938476562,794.5787353515625,793.7728881835938,790.5494384765625
504,790.952392578125,786.1171875,794.5787353515625,791.7582397460938
505,787.7289428710938,783.6996459960938,791.3552856445312,794.981689453125
506,788.937744140625,786.1171875,789.3406372070312,798.2051391601562
507,794.981689453125,788.5347900390625,791.3552856445312,795.7875366210938
508,799.4139404296875,794.981689453125,790.952392578125,791.3552856445312
509,797.8021850585938,795.3846435546875,786.923095703125,795.3846435546875
510,792.5640869140625,791.7582397460938,787.3259887695312,790.1465454101562
511,797.3992919921875,791.7582397460938,792.5640869140625,782.4908447265625
512,804.6520385742188,793.3699340820312,792.967041015625,786.923095703125
513,810.6959838867188,794.5787353515625,789.3406372070312,794.5787353515625
514,815.93408203125,793.7728881835938,794.5787353515625,796.5933837890625
515,801.025634765625,797.3992919921875,800.2197875976562,785.7142944335938
516,786.1171875,792.967041015625,791.7582397460938,778.4615478515625
517,790.5494384765625,784.908447265625,790.952392578125,779.2673950195312
518,796.5933837890625,792.5640869140625,794.1758422851562,785.3113403320312
519,795.3846435546875,802.6373901367188,792.5640869140625,790.1465454101562
520,792.1611938476562,803.040283203125,794.5787353515625,790.952392578125
521,787.3259887695312,796.1904907226562,792.5640869140625,793.7728881835938
522,789.7435913085938,797.3992919921875,797.3992919921875,797.8021850585938
523,792.5640869140625,794.981689453125,800.6226806640625,799.4139404296875
524,794.1758422851562,785.3113403320312,796.5933837890625,804.6520385742188
525,796.1904907226562,786.923095703125,800.2197875976562,802.2344360351562
526,790.5494384765625,794.1758422851562,802.2344360351562,788.1318969726562
527,783.6996459960938,784.908447265625,799.4139404296875,782.893798828125
528,787.3259887695312,780.879150390625,796.1904907226562,784.5054931640625
529,786.5201416015625,790.1465454101562,794.1758422851562,782.4908447265625
530,781.6849975585938,798.6080322265625,796.5933837890625,783.6996459960938
531,790.1465454101562,803.8461303710938,799.010986328125,793.7728881835938
532,794.981689453125,799.8168334960938,799.4139404296875,798.6080322265625
533,790.5494384765625,795.7875366210938,799.010986328125,790.952392578125
534,794.5787353515625,793.3699340820312,797.8021850585938,787.7289428710938
535,802.2344360351562,791.3552856445312,801.025634765625,796.5933837890625
536,801.025634765625,788.937744140625,799.8168334960938,805.4578857421875
537,801.8314819335938,794.5787353515625,796.5933837890625,801.4285888671875
538,802.6373901367188,802.6373901367188,797.3992919921875,797.3992919921875
539,798.2051391601562,800.2197875976562,799.8168334960938,797.3992919921875
540,801.8314819335938,794.981689453125,797.3992919921875,792.967041015625
541,798.2051391601562,790.5494384765625,792.1611938476562,790.952392578125
542,792.1611938476562,791.7582397460938,788.1318969726562,794.5787353515625
543,795.3846435546875,797.3992919921875,793.7728881835938,800.6226806640625
544,801.025634765625,801.025634765625,796.1904907226562,797.3992919921875
545,798.6080322265625,799.8168334960938,794.981689453125,797.3992919921875
546,789.7435913085938,791.3552856445312,797.3992919921875,800.2197875976562
547,788.1318969726562,786.923095703125,792.967041015625,799.8168334960938
548,790.952392578125,785.7142944335938,787.7289428710938,800.2197875976562
549,787.7289428710938,786.923095703125,787.3259887695312,791.7582397460938
550,784.5054931640625,788.1318969726562,790.5494384765625,789.3406372070312
551,788.1318969726562,790.5494384765625,791.7582397460938,791.3552856445312
552,790.5494384765625,793.7728881835938,794.981689453125,792.1611938476562
553,791.3552856445312,791.7582397460938,797.8021850585938,787.3259887695312
554,788.1318969726562,783.2966918945312,793.7728881835938,784.1025390625
555,787.3259887695312,784.1025390625,787.3259887695312,788.5347900390625
556,790.1465454101562,796.996337890625,784.1025390625,794.5787353515625
557,790.952392578125,802.2344360351562,788.937744140625,794.981689453125
558,795.3846435546875,795.7875366210938,792.5640869140625,796.1904907226562
559,799.4139404296875,790.5494384765625,788.5347900390625,799.010986328125
560,796.5933837890625,792.1611938476562,792.967041015625,794.981689453125
561,797.3992919921875,794.981689453125,793.7728881835938,795.7875366210938
562,799.4139404296875,799.010986328125,788.5347900390625,798.2051391601562
563,795.7875366210938,799.4139404296875,792.1611938476562,797.3992919921875
564,796.1904907226562,798.6080322265625,793.7728881835938,793.7728881835938
565,803.8461303710938,794.981689453125,790.952392578125,792.1611938476562
566,802.6373901367188,791.7582397460938,792.5640869140625,796.1904907226562
567,796.1904907226562,792.1611938476562,794.1758422851562,798.2051391601562
568,796.5933837890625,790.5494384765625,790.952392578125,799.4139404296875
569,798.6080322265625,791.3552856445312,792.5640869140625,796.1904907226562
570,799.4139404296875,795.3846435546875,792.5640869140625,795.3846435546875
571,801.8314819335938,802.2344360351562,790.1465454101562,802.2344360351562
572,804.2490844726562,801.8314819335938,794.981689453125,806.6666870117188
573,805.8607788085938,803.4432373046875,790.952392578125,802.2344360351562
574,799.010986328125,796.996337890625,786.1171875,788.5347900390625
575,790.1465454101562,783.6996459960938,791.7582397460938,779.6703491210938
576,784.908447265625,788.5347900390625,790.5494384765625,776.0439453125
577,784.1025390625,793.3699340820312,789.3406372070312,784.1025390625
578,783.6996459960938,791.7582397460938,788.1318969726562,797.3992919921875
579,782.087890625,788.5347900390625,784.908447265625,789.7435913085938
580,782.893798828125,781.6849975585938,787.7289428710938,784.908447265625
581,786.5201416015625,786.5201416015625,789.7435913085938,792.967041015625
582,792.967041015625,788.1318969726562,791.3552856445312,801.8314819335938
583,794.981689453125,789.7435913085938,792.967041015625,796.996337890625
584,790.5494384765625,791.7582397460938,792.967041015625,789.3406372070312
585,788.1318969726562,790.5494384765625,791.7582397460938,791.7582397460938
586,792.1611938476562,794.1758422851562,792.967041015625,792.5640869140625
587,791.3552856445312,794.1758422851562,791.3552856445312,790.5494384765625
588,788.5347900390625,794.5787353515625,786.5201416015625,787.3259887695312
589,792.1611938476562,795.3846435546875,790.1465454101562,788.1318969726562
590,797.3992919921875,789.7435913085938,796.1904907226562,792.1611938476562
591,797.8021850585938,787.7289428710938,799.4139404296875,796.5933837890625
592,793.7728881835938,793.3699340820312,795.7875366210938,792.1611938476562
593,793.7728881835938,792.967041015625,790.5494384765625,790.5494384765625
594,792.967041015625,790.1465454101562,788.937744140625,793.7728881835938
595,789.3406372070312,798.6080322265625,790.1465454101562,788.5347900390625
596,793.3699340820312,797.8021850585938,790.1465454101562,787.7289428710938
597,794.981689453125,786.1171875,793.7728881835938,788.937744140625
598,790.5494384765625,786.923095703125,791.3552856445312,782.087890625
599,783.6996459960938,792.5640869140625,790.1465454101562,782.4908447265625
600,786.5201416015625,790.1465454101562,793.7728881835938,788.5347900390625
601,794.1758422851562,792.1611938476562,789.3406372070312,788.5347900390625
602,790.5494384765625,796.1904907226562,788.937744140625,788.1318969726562
603,790.5494384765625,795.3846435546875,793.7728881835938,794.1758422851562
604,797.8021850585938,788.1318969726562,796.1904907226562,800.6226806640625
605,800.2197875976562,790.1465454101562,794.981689453125,801.4285888671875
606,800.2197875976562,799.4139404296875,796.1904907226562,793.7728881835938
607,801.8314819335938,794.981689453125,795.7875366210938,791.7582397460938
608,797.3992919921875,796.1904907226562,790.952392578125,786.1171875
609,793.7728881835938,798.6080322265625,790.1465454101562,784.5054931640625
610,797.8021850585938,792.967041015625,792.1611938476562,790.5494384765625
611,794.5787353515625,786.923095703125,789.7435913085938,785.7142944335938
612,788.5347900390625,788.937744140625,788.1318969726562,782.893798828125
613,788.937744140625,792.1611938476562,792.967041015625,789.7435913085938
614,794.5787353515625,790.1465454101562,796.996337890625,794.5787353515625
615,796.5933837890625,793.7728881835938,794.981689453125,791.7582397460938
616,793.7728881835938,783.2966918945312,792.967041015625,796.1904907226562
617,791.3552856445312,780.0732421875,792.5640869140625,805.054931640625
618,788.5347900390625,794.981689453125,792.1611938476562,794.5787353515625
619,792.1611938476562,798.6080322265625,792.967041015625,798.6080322265625
620,792.1611938476562,793.7728881835938,788.937744140625,804.6520385742188
621,790.952392578125,794.5787353515625,793.7728881835938,795.3846435546875
622,793.3699340820312,796.5933837890625,797.8021850585938,793.7728881835938
623,795.7875366210938,790.952392578125,800.6226806640625,790.5494384765625
624,790.5494384765625,789.3406372070312,796.1904907226562,784.908447265625
625,788.5347900390625,793.3699340820312,793.3699340820312,786.5201416015625
626,791.3552856445312,787.3259887695312,797.3992919921875,788.1318969726562
627,794.981689453125,778.05859375,792.5640869140625,787.3259887695312
628,792.5640869140625,788.5347900390625,787.7289428710938,796.996337890625
629,785.7142944335938,797.3992919921875,788.1318969726562,792.5640869140625
630,788.1318969726562,797.3992919921875,785.3113403320312,784.1025390625
631,792.967041015625,796.996337890625,787.7289428710938,784.908447265625
632,790.952392578125,796.1904907226562,790.5494384765625,784.908447265625
633,788.5347900390625,798.6080322265625,792.1611938476562,781.2820434570312
634,792.5640869140625,795.3846435546875,795.3846435546875,782.087890625
635,793.3699340820312,788.937744140625,789.7435913085938,781.6849975585938
636,790.1465454101562,794.1758422851562,790.1465454101562,789.7435913085938
637,792.5640869140625,798.6080322265625,801.025634765625,793.7728881835938
638,789.3406372070312,794.5787353515625,801.025634765625,788.5347900390625
639,790.952392578125,797.3992919921875,800.2197875976562,791.3552856445312
640,796.1904907226562,801.025634765625,797.8021850585938,796.5933837890625
641,795.3846435546875,802.6373901367188,793.3699340820312,792.967041015625
642,799.8168334960938,796.5933837890625,792.1611938476562,801.8314819335938
643,804.6520385742188,786.923095703125,791.3552856445312,821.1721801757812
644,799.8168334960938,786.5201416015625,796.1904907226562,818.3516235351562
645,780.879150390625,794.1758422851562,795.3846435546875,785.3113403320312
646,776.4468994140625,796.996337890625,791.3552856445312,771.6116943359375
647,784.908447265625,797.8021850585938,796.996337890625,778.8644409179688
648,783.6996459960938,798.6080322265625,801.8314819335938,780.879150390625
649,786.5201416015625,797.3992919921875,802.6373901367188,779.2673950195312
650,788.1318969726562,794.1758422851562,801.025634765625,780.879150390625
651,792.5640869140625,790.5494384765625,795.3846435546875,790.1465454101562
652,795.3846435546875,794.981689453125,797.3992919921875,789.7435913085938
653,789.7435913085938,798.6080322265625,802.6373901367188,787.7289428710938
654,787.7289428710938,798.2051391601562,795.3846435546875,794.981689453125
655,791.3552856445312,799.4139404296875,793.3699340820312,794.5787353515625
656,786.5201416015625,792.1611938476562,795.7875366210938,786.5201416015625
657,790.5494384765625,782.4908447265625,795.7875366210938,791.3552856445312
658,791.7582397460938,782.087890625,792.967041015625,793.7728881835938
659,785.3113403320312,787.7289428710938,790.1465454101562,790.952392578125
660,786.1171875,798.6080322265625,790.5494384765625,792.1611938476562
661,784.1025390625,799.8168334960938,790.952392578125,788.1318969726562
662,789.3406372070312,798.2051391601562,792.5640869140625,790.1465454101562
663,794.1758422851562,799.010986328125,789.3406372070312,794.1758422851562
664,788.5347900390625,795.7875366210938,785.3113403320312,787.3259887695312
665,785.7142944335938,798.6080322265625,788.5347900390625,786.1171875
666,795.3846435546875,797.3992919921875,796.1904907226562,795.3846435546875
667,803.4432373046875,791.3552856445312,795.3846435546875,802.2344360351562
668,801.025634765625,793.7728881835938,794.1758422851562,794.5787353515625
669,801.4285888671875,799.8168334960938,792.967041015625,794.1758422851562
670,806.6666870117188,799.4139404296875,790.1465454101562,799.8168334960938
671,813.5164794921875,798.6080322265625,796.5933837890625,799.4139404296875
672,809.89013671875,793.7728881835938,797.3992919921875,802.2344360351562
673,802.2344360351562,797.3992919921875,792.5640869140625,801.025634765625
674,803.4432373046875,802.2344360351562,791.7582397460938,802.2344360351562
675,804.6520385742188,797.8021850585938,789.7435913085938,801.4285888671875
676,807.069580078125,792.967041015625,792.1611938476562,803.040283203125
677,806.6666870117188,794.1758422851562,799.010986328125,807.87548828125
678,803.4432373046875,794.981689453125,798.2051391601562,813.91943359375
679,801.025634765625,794.5787353515625,795.7875366210938,810.6959838867188
680,796.996337890625,796.996337890625,796.1904907226562,790.1465454101562
681,792.967041015625,789.7435913085938,794.981689453125,781.2820434570312
682,794.1758422851562,785.3113403320312,794.1758422851562,783.6996459960938
683,791.7582397460938,785.7142944335938,790.952392578125,788.1318969726562
684,786.923095703125,789.7435913085938,791.3552856445312,788.937744140625
685,784.1025390625,792.1611938476562,789.3406372070312,787.3259887695312
686,787.3259887695312,786.923095703125,789.3406372070312,784.5054931640625
687,791.3552856445312,789.3406372070312,792.5640869140625,781.6849975585938
688,790.5494384765625,796.5933837890625,792.967041015625,784.5054931640625
689,794.1758422851562,795.3846435546875,791.3552856445312,788.937744140625
690,799.010986328125,793.3699340820312,791.3552856445312,794.1758422851562
691,797.3992919921875,805.054931640625,795.7875366210938,792.5640869140625
692,797.8021850585938,805.8607788085938,790.952392578125,789.3406372070312
693,800.6226806640625,795.7875366210938,788.5347900390625,792.1611938476562
694,797.8021850585938,795.7875366210938,792.967041015625,792.1611938476562
695,789.3406372070312,792.967041015625,793.3699340820312,788.1318969726562
696,788.5347900390625,796.1904907226562,793.3699340820312,794.1758422851562
697,794.5787353515625,800.2197875976562,791.7582397460938,800.6226806640625
698,794.981689453125,798.2051391601562,796.1904907226562,796.5933837890625
699,792.967041015625,793.7728881835938,794.981689453125,793.7728881835938
700,794.981689453125,792.1611938476562,795.7875366210938,797.8021850585938
701,801.8314819335938,790.5494384765625,799.010986328125,802.2344360351562
702,804.2490844726562,788.5347900390625,801.8314819335938,796.5933837890625
703,799.8168334960938,792.967041015625,803.040283203125,797.3992919921875
704,793.7728881835938,790.1465454101562,796.1904907226562,800.2197875976562
705,790.1465454101562,792.5640869140625,793.7728881835938,796.996337890625
706,790.952392578125,795.3846435546875,794.981689453125,792.5640869140625
707,789.7435913085938,786.923095703125,791.3552856445312,787.7289428710938
708,786.5201416015625,794.5787353515625,790.952392578125,789.3406372070312
709,782.087890625,801.4285888671875,792.967041015625,793.3699340820312
710,780.0732421875,790.952392578125,788.937744140625,798.6080322265625
711,781.2820434570312,785.7142944335938,790.1465454101562,795.3846435546875
712,785.3113403320312,787.3259887695312,791.3552856445312,794.981689453125
713,790.5494384765625,786.1171875,791.7582397460938,799.8168334960938
714,788.1318969726562,788.5347900390625,792.967041015625,790.5494384765625
715,790.5494384765625,795.3846435546875,795.7875366210938,794.1758422851562
716,792.1611938476562,798.2051391601562,796.1904907226562,802.2344360351562
717,789.3406372070312,800.6226806640625,791.7582397460938,800.2197875976562
718,789.7435913085938,795.7875366210938,791.3552856445312,797.8021850585938
719,788.937744140625,796.1904907226562,792.967041015625,799.4139404296875
720,790.1465454101562,799.010986328125,793.3699340820312,806.2637329101562
721,788.1318969726562,791.7582397460938,794.981689453125,802.2344360351562
722,789.3406372070312,793.7728881835938,791.3552856445312,797.3992919921875
723,790.1465454101562,794.5787353515625,785.3113403320312,791.3552856445312
724,791.3552856445312,788.937744140625,786.5201416015625,792.967041015625
725,791.7582397460938,791.7582397460938,790.5494384765625,795.3846435546875
726,790.1465454101562,790.952392578125,796.996337890625,789.3406372070312
727,788.5347900390625,791.7582397460938,798.2051391601562,791.7582397460938
728,786.923095703125,794.5787353515625,794.981689453125,797.3992919921875
729,793.7728881835938,790.5494384765625,799.4139404296875,797.8021850585938
730,791.3552856445312,786.923095703125,798.6080322265625,788.5347900390625
731,788.1318969726562,792.967041015625,794.5787353515625,787.7289428710938
732,792.5640869140625,796.1904907226562,795.7875366210938,797.3992919921875
733,792.5640869140625,794.5787353515625,793.7728881835938,794.1758422851562
734,793.3699340820312,794.1758422851562,795.3846435546875,781.2820434570312
735,794.981689453125,789.7435913085938,792.5640869140625,785.7142944335938
736,794.1758422851562,791.3552856445312,795.7875366210938,801.8314819335938
737,794.5787353515625,796.1904907226562,802.6373901367188,799.4139404296875
738,795.3846435546875,795.7875366210938,797.8021850585938,793.3699340820312
739,792.967041015625,789.3406372070312,791.7582397460938,786.923095703125
740,792.967041015625,790.1465454101562,786.1171875,782.4908447265625
741,794.981689453125,793.7728881835938,788.5347900390625,784.1025390625
742,794.1758422851562,793.7728881835938,795.3846435546875,788.5347900390625
743,799.8168334960938,793.3699340820312,791.3552856445312,794.981689453125
744,805.8607788085938,793.3699340820312,793.3699340820312,802.2344360351562
745,797.8021850585938,794.5787353515625,800.6226806640625,799.4139404296875
746,792.967041015625,786.923095703125,797.8021850585938,792.5640869140625
747,795.3846435546875,786.1171875,794.1758422851562,798.2051391601562
748,793.3699340820312,790.952392578125,793.3699340820312,798.2051391601562
749,794.981689453125,794.5787353515625,795.3846435546875,791.3552856445312
750,796.1904907226562,796.5933837890625,792.967041015625,785.3113403320312
751,792.1611938476562,794.5787353515625,789.3406372070312,790.952392578125
752,786.1171875,794.1758422851562,789.7435913085938,793.7728881835938
753,787.3259887695312,790.1465454101562,788.1318969726562,787.3259887695312
754,794.981689453125,784.908447265625,788.5347900390625,790.5494384765625
755,793.3699340820312,783.6996459960938,789.3406372070312,790.5494384765625
756,783.6996459960938,792.5640869140625,785.7142944335938,785.7142944335938
757,784.1025390625,794.5787353515625,784.1025390625,784.5054931640625
758,791.3552856445312,786.923095703125,786.5201416015625,787.3259887695312
759,793.7728881835938,783.2966918945312,789.3406372070312,790.1465454101562
760,796.5933837890625,784.5054931640625,792.5640869140625,791.3552856445312
761,794.5787353515625,783.6996459960938,795.3846435546875,786.923095703125
762,789.7435913085938,789.7435913085938,790.5494384765625,785.3113403320312
763,789.7435913085938,792.967041015625,784.908447265625,790.1465454101562
764,788.1318969726562,790.952392578125,790.1465454101562,787.3259887695312
765,787.7289428710938,794.5787353515625,793.3699340820312,787.3259887695312
766,788.937744140625,794.1758422851562,791.3552856445312,789.7435913085938
767,790.5494384765625,790.5494384765625,794.981689453125,790.952392578125
768,788.937744140625,790.1465454101562,791.7582397460938,793.7728881835938
769,788.937744140625,793.3699340820312,787.7289428710938,791.3552856445312
770,787.3259887695312,790.5494384765625,792.1611938476562,783.6996459960938
771,783.6996459960938,788.5347900390625,791.3552856445312,782.4908447265625
772,787.7289428710938,796.1904907226562,792.5640869140625,786.1171875
773,787.3259887695312,791.3552856445312,796.996337890625,788.5347900390625
774,784.5054931640625,788.937744140625,793.7728881835938,798.6080322265625
775,782.893798828125,791.3552856445312,792.1611938476562,798.2051391601562
776,782.087890625,788.1318969726562,795.7875366210938,792.967041015625
777,783.2966918945312,795.3846435546875,793.7728881835938,794.981689453125
778,786.1171875,795.3846435546875,793.7728881835938,796.1904907226562
779,790.5494384765625,791.3552856445312,796.1904907226562,792.1611938476562
780,789.7435913085938,794.1758422851562,795.3846435546875,790.952392578125
781,788.1318969726562,799.010986328125,791.7582397460938,790.1465454101562
782,782.087890625,791.3552856445312,794.981689453125,781.2820434570312
783,784.1025390625,786.5201416015625,794.1758422851562,782.4908447265625
784,787.3259887695312,792.5640869140625,789.7435913085938,786.923095703125
785,782.4908447265625,790.5494384765625,787.7289428710938,784.1025390625
786,786.5201416015625,788.5347900390625,789.3406372070312,790.1465454101562
787,786.923095703125,789.7435913085938,792.1611938476562,787.3259887695312
788,792.1611938476562,786.923095703125,793.7728881835938,786.923095703125
789,800.2197875976562,786.5201416015625,792.967041015625,789.7435913085938
790,799.010986328125,787.7289428710938,793.7728881835938,790.5494384765625
791,794.1758422851562,785.7142944335938,794.1758422851562,790.1465454101562
792,792.967041015625,785.7142944335938,796.996337890625,791.7582397460938
793,797.8021850585938,783.6996459960938,802.2344360351562,796.1904907226562
794,797.8021850585938,778.4615478515625,799.010986328125,790.5494384765625
795,798.2051391601562,784.908447265625,797.3992919921875,794.5787353515625
796,794.981689453125,796.5933837890625,793.7728881835938,793.3699340820312
797,791.3552856445312,789.7435913085938,786.5201416015625,791.3552856445312
798,790.952392578125,786.5201416015625,790.1465454101562,790.5494384765625
799,788.5347900390625,794.5787353515625,790.952392578125,780.879150390625
800,789.7435913085938,796.1904907226562,788.1318969726562,780.879150390625
801,795.3846435546875,796.1904907226562,790.952392578125,784.5054931640625
802,796.5933837890625,792.967041015625,792.967041015625,782.4908447265625
803,793.7728881835938,787.3259887695312,792.967041015625,786.923095703125
804,794.1758422851562,789.3406372070312,791.7582397460938,791.3552856445312
805,788.1318969726562,790.5494384765625,788.937744140625,788.937744140625
806,784.5054931640625,790.5494384765625,788.937744140625,790.1465454101562
807,790.952392578125,794.1758422851562,792.967041015625,795.7875366210938
808,791.3552856445312,795.3846435546875,793.7728881835938,796.5933837890625
809,792.1611938476562,794.981689453125,794.981689453125,796.996337890625
810,790.952392578125,791.7582397460938,794.1758422851562,786.923095703125
811,790.1465454101562,790.5494384765625,788.1318969726562,783.2966918945312
812,797.3992919921875,796.1904907226562,794.981689453125,796.1904907226562
813,797.8021850585938,792.1611938476562,800.2197875976562,793.3699340820312
814,794.1758422851562,790.5494384765625,798.6080322265625,786.923095703125
815,797.8021850585938,795.3846435546875,794.981689453125,795.7875366210938
816,800.2197875976562,785.3113403320312,794.5787353515625,801.8314819335938
817,795.3846435546875,784.1025390625,793.7728881835938,795.3846435546875
818,792.5640869140625,792.967041015625,792.1611938476562,791.7582397460938
819,789.3406372070312,792.967041015625,791.3552856445312,787.7289428710938
820,787.3259887695312,788.937744140625,783.6996459960938,790.1465454101562
821,790.952392578125,793.3699340820312,787.3259887695312,799.4139404296875
822,787.7289428710938,798.6080322265625,795.3846435546875,792.5640869140625
823,781.2820434570312,793.3699340820312,789.7435913085938,787.3259887695312
824,780.879150390625,790.952392578125,786.5201416015625,791.3552856445312
825,787.3259887695312,791.3552856445312,788.1318969726562,796.996337890625
826,790.5494384765625,789.7435913085938,790.5494384765625,801.025634765625
827,788.937744140625,790.1465454101562,790.952392578125,796.1904907226562
828,787.3259887695312,794.5787353515625,795.3846435546875,794.1758422851562
829,788.1318969726562,788.937744140625,796.996337890625,798.2051391601562
830,790.5494384765625,777.2527465820312,789.3406372070312,792.967041015625
831,793.7728881835938,782.4908447265625,786.5201416015625,792.5640869140625
832,793.7728881835938,792.5640869140625,790.1465454101562,795.3846435546875
833,788.5347900390625,798.2051391601562,790.5494384765625,791.7582397460938
834,787.3259887695312,798.6080322265625,791.3552856445312,789.3406372070312
835,792.967041015625,795.3846435546875,788.937744140625,794.5787353515625
836,788.937744140625,791.7582397460938,782.087890625,797.3992919921875
837,788.937744140625,793.7728881835938,781.6849975585938,791.7582397460938
838,793.7728881835938,796.5933837890625,788.1318969726562,785.7142944335938
839,790.1465454101562,792.5640869140625,788.937744140625,781.6849975585938
840,792.967041015625,795.7875366210938,784.908447265625,782.4908447265625
841,793.7728881835938,795.3846435546875,792.5640869140625,788.5347900390625
842,790.952392578125,787.7289428710938,795.7875366210938,792.1611938476562
843,790.5494384765625,788.5347900390625,793.3699340820312,792.1611938476562
844,787.7289428710938,793.7728881835938,794.981689453125,792.967041015625
845,792.967041015625,797.3992919921875,794.981689453125,789.3406372070312
846,798.2051391601562,799.010986328125,794.5787353515625,786.5201416015625
847,795.7875366210938,793.3699340820312,790.5494384765625,795.3846435546875
848,792.967041015625,792.967041015625,793.7728881835938,801.8314819335938
849,795.3846435546875,798.6080322265625,796.5933837890625,803.040283203125
850,801.025634765625,796.5933837890625,794.1758422851562,806.6666870117188
851,797.3992919921875,793.3699340820312,790.952392578125,804.2490844726562
852,792.967041015625,794.1758422851562,791.7582397460938,801.4285888671875
853,790.5494384765625,793.3699340820312,787.3259887695312,795.3846435546875
854,788.937744140625,794.5787353515625,781.2820434570312,791.3552856445312
855,782.4908447265625,790.1465454101562,789.3406372070312,787.7289428710938
856,780.0732421875,787.3259887695312,793.7728881835938,783.6996459960938
857,788.1318969726562,790.1465454101562,792.967041015625,786.5201416015625
858,792.1611938476562,785.7142944335938,793.7728881835938,793.7728881835938
859,796.1904907226562,790.5494384765625,794.981689453125,801.025634765625
860,790.952392578125,798.6080322265625,792.5640869140625,794.5787353515625
861,785.3113403320312,792.5640869140625,790.1465454101562,784.1025390625
862,790.952392578125,786.5201416015625,789.3406372070312,784.5054931640625
863,783.6996459960938,790.5494384765625,790.1465454101562,785.3113403320312
864,778.8644409179688,794.5787353515625,792.967041015625,786.923095703125
865,780.4761962890625,790.952392578125,795.3846435546875,788.937744140625
866,779.6703491210938,786.923095703125,797.8021850585938,791.3552856445312
867,785.7142944335938,793.3699340820312,796.1904907226562,792.5640869140625
868,788.5347900390625,790.5494384765625,792.967041015625,787.3259887695312
869,788.937744140625,784.1025390625,795.3846435546875,778.4615478515625
870,796.996337890625,792.5640869140625,796.1904907226562,791.3552856445312
871,799.010986328125,798.6080322265625,794.1758422851562,796.1904907226562
872,800.2197875976562,799.8168334960938,790.5494384765625,784.5054931640625
873,799.010986328125,797.8021850585938,790.952392578125,788.1318969726562
874,789.3406372070312,798.2051391601562,793.3699340820312,787.3259887695312
875,780.0732421875,798.6080322265625,793.3699340820312,777.6557006835938
876,786.5201416015625,796.996337890625,792.5640869140625,779.6703491210938
877,799.4139404296875,797.8021850585938,792.1611938476562,789.3406372070312
878,792.967041015625,796.1904907226562,791.7582397460938,784.5054931640625
879,780.4761962890625,791.3552856445312,784.5054931640625,774.4322509765625
880,783.6996459960938,790.1465454101562,785.3113403320312,775.6410522460938
881,787.7289428710938,790.1465454101562,786.5201416015625,780.4761962890625
882,786.1171875,787.3259887695312,782.4908447265625,781.6849975585938
883,787.7289428710938,788.5347900390625,782.4908447265625,775.6410522460938
884,784.908447265625,790.5494384765625,785.7142944335938,779.2673950195312
885,784.5054931640625,798.6080322265625,788.1318969726562,788.937744140625
886,789.3406372070312,803.4432373046875,788.5347900390625,787.3259887695312
887,787.3259887695312,799.8168334960938,793.3699340820312,784.1025390625
888,782.087890625,796.5933837890625,794.981689453125,784.5054931640625
889,782.893798828125,796.1904907226562,792.967041015625,787.7289428710938
890,780.879150390625,793.7728881835938,793.3699340820312,788.5347900390625
891,782.087890625,787.7289428710938,792.967041015625,788.1318969726562
892,788.937744140625,786.923095703125,790.1465454101562,791.7582397460938
893,790.1465454101562,791.3552856445312,790.952392578125,802.2344360351562
894,790.952392578125,792.5640869140625,801.8314819335938,800.6226806640625
895,794.5787353515625,792.967041015625,809.4871826171875,796.996337890625
896,796.996337890625,796.996337890625,803.4432373046875,802.6373901367188
897,794.981689453125,794.5787353515625,799.010986328125,799.010986328125
898,794.1758422851562,797.3992919921875,797.3992919921875,799.4139404296875
899,805.8607788085938,800.6226806640625,796.996337890625,803.8461303710938
900,807.4725341796875,795.3846435546875,801.025634765625,801.8314819335938
901,792.967041015625,791.3552856445312,803.8461303710938,787.7289428710938
902,788.5347900390625,795.7875366210938,798.2051391601562,777.6557006835938
903,794.5787353515625,799.4139404296875,795.3846435546875,781.2820434570312
904,800.2197875976562,797.8021850585938,798.6080322265625,788.1318969726562
905,799.8168334960938,792.967041015625,794.1758422851562,783.6996459960938
906,793.3699340820312,792.5640869140625,788.5347900390625,779.6703491210938
907,791.3552856445312,796.5933837890625,792.5640869140625,785.7142944335938
908,791.3552856445312,795.7875366210938,790.5494384765625,786.5201416015625
909,783.6996459960938,796.996337890625,788.1318969726562,783.6996459960938
910,784.908447265625,797.8021850585938,790.5494384765625,785.7142944335938
911,788.1318969726562,796.996337890625,795.3846435546875,788.1318969726562
912,785.3113403320312,795.3846435546875,790.5494384765625,792.5640869140625
913,795.3846435546875,795.7875366210938,790.1465454101562,799.4139404296875
914,795.7875366210938,797.3992919921875,798.6080322265625,793.3699340820312
915,792.1611938476562,792.1611938476562,802.2344360351562,794.1758422851562
916,796.1904907226562,791.7582397460938,798.2051391601562,811.90478515625
917,799.8168334960938,792.967041015625,798.6080322265625,813.5164794921875
918,803.040283203125,798.2051391601562,804.6520385742188,809.4871826171875
919,804.2490844726562,801.8314819335938,803.040283203125,813.5164794921875
920,803.040283203125,797.3992919921875,795.7875366210938,818.3516235351562
921,799.8168334960938,795.7875366210938,793.7728881835938,813.5164794921875
922,796.1904907226562,796.1904907226562,798.2051391601562,811.098876953125
923,794.5787353515625,799.010986328125,801.025634765625,814.3223266601562
924,794.981689453125,796.996337890625,803.8461303710938,805.054931640625
925,797.8021850585938,796.5933837890625,801.8314819335938,794.981689453125
926,799.4139404296875,794.981689453125,798.2051391601562,796.1904907226562
927,794.5787353515625,789.7435913085938,796.1904907226562,796.5933837890625
928,790.952392578125,784.1025390625,793.7728881835938,791.3552856445312
929,789.3406372070312,787.3259887695312,794.1758422851562,787.7289428710938
930,789.7435913085938,794.981689453125,792.967041015625,785.3113403320312
931,799.4139404296875,798.2051391601562,796.5933837890625,791.7582397460938
932,797.8021850585938,798.6080322265625,796.996337890625,795.7875366210938
933,786.923095703125,794.981689453125,794.981689453125,792.1611938476562
934,785.7142944335938,786.1171875,796.5933837890625,796.996337890625
935,787.7289428710938,784.1025390625,794.981689453125,794.1758422851562
936,783.2966918945312,790.5494384765625,793.3699340820312,784.908447265625
937,782.893798828125,798.6080322265625,791.7582397460938,783.2966918945312
938,786.1171875,797.3992919921875,790.5494384765625,782.893798828125
939,787.3259887695312,792.1611938476562,787.3259887695312,780.4761962890625
940,786.923095703125,796.1904907226562,785.7142944335938,777.6557006835938
941,785.7142944335938,794.981689453125,788.1318969726562,776.0439453125
942,792.1611938476562,788.937744140625,788.5347900390625,786.1171875
943,796.996337890625,790.952392578125,789.3406372070312,801.4285888671875
944,799.8168334960938,795.3846435546875,794.1758422851562,798.2051391601562
945,801.8314819335938,792.5640869140625,795.7875366210938,794.981689453125
946,799.4139404296875,785.7142944335938,790.1465454101562,796.996337890625
947,799.010986328125,790.952392578125,788.1318969726562,793.7728881835938
948,800.2197875976562,795.3846435546875,786.923095703125,792.967041015625
949,799.4139404296875,791.7582397460938,784.908447265625,792.5640869140625
950,801.4285888671875,790.5494384765625,788.937744140625,793.7728881835938
951,805.054931640625,792.1611938476562,795.3846435546875,799.4139404296875
952,799.4139404296875,790.952392578125,795.3846435546875,796.1904907226562
953,791.7582397460938,792.1611938476562,791.7582397460938,789.7435913085938
954,789.3406372070312,792.967041015625,791.7582397460938,794.1758422851562
955,787.3259887695312,789.3406372070312,793.3699340820312,797.8021850585938
956,786.1171875,792.967041015625,792.967041015625,790.952392578125
957,782.4908447265625,793.7728881835938,788.5347900390625,786.1171875
958,781.6849975585938,789.3406372070312,786.1171875,780.0732421875
959,786.923095703125,791.3552856445312,788.937744140625,776.4468994140625
960,790.1465454101562,790.1465454101562,793.3699340820312,771.6116943359375
961,785.7142944335938,779.6703491210938,789.3406372070312,759.9267578125
962,785.7142944335938,785.7142944335938,783.6996459960938,759.120849609375
963,788.937744140625,791.7582397460938,784.1025390625,765.1648559570312
964,786.5201416015625,794.1758422851562,784.5054931640625,765.970703125
965,790.1465454101562,790.1465454101562,786.923095703125,766.7765502929688
966,792.1611938476562,786.1171875,782.087890625,777.6557006835938
967,785.7142944335938,796.5933837890625,784.1025390625,780.0732421875
968,789.3406372070312,800.6226806640625,790.952392578125,784.1025390625
969,797.8021850585938,797.8021850585938,787.3259887695312,797.3992919921875
970,797.8021850585938,800.6226806640625,789.7435913085938,801.025634765625
971,802.2344360351562,803.4432373046875,793.7728881835938,805.054931640625
972,806.6666870117188,790.5494384765625,794.1758422851562,808.6813354492188
973,804.6520385742188,788.937744140625,795.3846435546875,810.2930297851562
974,805.8607788085938,799.8168334960938,798.2051391601562,811.098876953125
975,809.084228515625,797.3992919921875,804.2490844726562,815.5311279296875
976,802.6373901367188,790.1465454101562,806.2637329101562,817.94873046875
977,796.1904907226562,790.5494384765625,805.4578857421875,811.5018310546875
978,794.5787353515625,796.5933837890625,804.6520385742188,804.2490844726562
979,786.5201416015625,799.010986328125,809.4871826171875,799.010986328125
980,778.8644409179688,796.1904907226562,810.6959838867188,792.967041015625
981,777.6557006835938,791.3552856445312,803.8461303710938,796.996337890625
982,772.8204956054688,788.5347900390625,801.8314819335938,802.2344360351562
983,775.2380981445312,787.7289428710938,803.8461303710938,794.5787353515625
984,783.6996459960938,788.937744140625,799.8168334960938,788.5347900390625
985,784.908447265625,786.5201416015625,798.6080322265625,783.2966918945312
986,782.087890625,782.4908447265625,799.010986328125,776.0439453125
987,780.0732421875,788.1318969726562,793.3699340820312,775.2380981445312
988,776.8497924804688,788.5347900390625,793.3699340820312,775.6410522460938
989,770.8058471679688,788.937744140625,792.5640869140625,780.0732421875
990,771.6116943359375,795.3846435546875,790.5494384765625,781.6849975585938
991,772.4176025390625,793.3699340820312,790.952392578125,772.4176025390625
992,776.4468994140625,787.7289428710938,793.3699340820312,775.2380981445312
993,786.1171875,794.1758422851562,796.1904907226562,790.5494384765625
994,789.7435913085938,796.1904907226562,794.981689453125,794.981689453125
995,791.3552856445312,789.7435913085938,788.1318969726562,792.1611938476562
996,802.2344360351562,786.5201416015625,789.7435913085938,799.4139404296875
997,808.6813354492188,787.7289428710938,795.3846435546875,803.040283203125
998,813.113525390625,799.4139404296875,796.1904907226562,802.2344360351562
999,818.3516235351562,801.8314819335938,792.967041015625,809.084228515625
1000,826.00732421875,803.8461303710938,792.967041015625,819.1575317382812
1001,824.7985229492188,808.6813354492188,794.981689453125,828.02197265625
1002,817.1428833007812,809.4871826171875,798.6080322265625,821.97802734375
1003,814.7252807617188,805.8607788085938,801.8314819335938,813.91943359375
1004,812.7106323242188,800.2197875976562,795.3846435546875,811.90478515625
1005,808.2783813476562,801.4285888671875,794.981689453125,806.6666870117188
1006,803.040283203125,801.025634765625,799.8168334960938,802.6373901367188
1007,789.7435913085938,793.3699340820312,797.8021850585938,797.8021850585938
1008,784.1025390625,792.1611938476562,799.8168334960938,790.952392578125
1009,784.5054931640625,791.7582397460938,803.8461303710938,795.7875366210938
1010,778.4615478515625,785.7142944335938,799.010986328125,796.1904907226562
1011,775.6410522460938,781.6849975585938,790.952392578125,790.5494384765625
1012,768.7911987304688,784.1025390625,790.952392578125,793.3699340820312
1013,762.3442993164062,786.1171875,796.1904907226562,788.5347900390625
1014,766.3735961914062,786.5201416015625,798.2051391601562,779.6703491210938
1015,767.9853515625,787.7289428710938,794.1758422851562,776.4468994140625
1016,763.5531005859375,787.3259887695312,785.3113403320312,776.8497924804688
1017,757.912109375,785.3113403320312,785.7142944335938,774.029296875
1018,753.8828125,787.7289428710938,787.3259887695312,772.4176025390625
1019,759.120849609375,787.3259887695312,788.937744140625,776.8497924804688
1020,762.3442993164062,785.3113403320312,791.3552856445312,782.893798828125
1021,761.1355590820312,784.5054931640625,792.1611938476562,786.1171875
1022,767.5823974609375,787.3259887695312,795.7875366210938,791.3552856445312
1023,775.6410522460938,782.893798828125,796.996337890625,799.4139404296875
1024,779.2673950195312,785.7142944335938,794.1758422851562,803.8461303710938
1025,781.6849975585938,790.1465454101562,790.952392578125,801.4285888671875
1026,785.7142944335938,792.5640869140625,792.1611938476562,799.8168334960938
1027,794.981689453125,796.1904907226562,793.7728881835938,801.4285888671875
1028,805.8607788085938,792.967041015625,794.981689453125,797.3992919921875
1029,807.87548828125,793.7728881835938,796.996337890625,789.7435913085938
1030,816.7399291992188,797.8021850585938,798.6080322265625,796.1904907226562
1031,817.5457763671875,794.5787353515625,793.7728881835938,804.6520385742188
1032,809.084228515625,796.996337890625,792.5640869140625,794.5787353515625
1033,808.2783813476562,800.6226806640625,794.5787353515625,791.7582397460938
1034,805.054931640625,792.1611938476562,792.967041015625,788.937744140625
1035,804.6520385742188,781.6849975585938,790.952392578125,785.7142944335938
1036,807.4725341796875,791.7582397460938,788.937744140625,790.1465454101562
1037,809.4871826171875,805.8607788085938,792.967041015625,790.1465454101562
1038,808.2783813476562,803.040283203125,794.1758422851562,791.3552856445312
1039,807.069580078125,793.7728881835938,794.5787353515625,793.3699340820312
1040,803.8461303710938,794.1758422851562,795.7875366210938,786.1171875
1041,797.3992919921875,794.1758422851562,790.952392578125,780.4761962890625
1042,791.3552856445312,788.5347900390625,790.5494384765625,776.8497924804688
1043,787.3259887695312,788.1318969726562,790.952392578125,773.2234497070312
1044,782.893798828125,787.7289428710938,790.5494384765625,770.8058471679688
1045,779.2673950195312,788.5347900390625,794.981689453125,765.5677490234375
1046,776.0439453125,789.7435913085938,796.1904907226562,764.3589477539062
1047,774.029296875,789.3406372070312,794.981689453125,766.7765502929688
1048,772.8204956054688,791.7582397460938,790.5494384765625,763.9560546875
1049,772.8204956054688,782.087890625,788.5347900390625,761.94140625
1050,780.4761962890625,783.6996459960938,788.5347900390625,770.0
1051,786.923095703125,796.1904907226562,786.5201416015625,782.087890625
1052,788.5347900390625,798.2051391601562,788.5347900390625,783.2966918945312
1053,799.010986328125,797.8021850585938,788.5347900390625,788.5347900390625
1054,804.2490844726562,793.7728881835938,782.4908447265625,796.1904907226562
1055,807.87548828125,800.6226806640625,786.923095703125,796.1904907226562
1056,813.113525390625,808.6813354492188,788.937744140625,799.4139404296875
1057,817.5457763671875,808.6813354492188,780.879150390625,803.8461303710938
1058,814.7252807617188,807.069580078125,783.2966918945312,808.6813354492188
1059,812.7106323242188,796.5933837890625,788.5347900390625,810.6959838867188
1060,809.4871826171875,793.7728881835938,784.1025390625,805.054931640625
1061,803.8461303710938,796.1904907226562,783.6996459960938,796.5933837890625
1062,805.054931640625,792.5640869140625,784.908447265625,802.6373901367188
1063,802.2344360351562,798.2051391601562,790.5494384765625,805.8607788085938
1064,797.8021850585938,801.4285888671875,794.981689453125,794.5787353515625
1065,799.010986328125,799.8168334960938,795.7875366210938,797.3992919921875
1066,796.5933837890625,801.025634765625,797.3992919921875,802.2344360351562
1067,790.1465454101562,798.2051391601562,796.996337890625,793.3699340820312
1068,786.1171875,792.967041015625,792.967041015625,789.7435913085938
1069,784.908447265625,786.1171875,791.7582397460938,790.1465454101562
1070,777.6557006835938,790.5494384765625,796.996337890625,779.2673950195312
1071,776.8497924804688,793.7728881835938,795.3846435546875,773.2234497070312
1072,778.8644409179688,788.937744140625,796.1904907226562,777.6557006835938
1073,774.4322509765625,780.879150390625,796.5933837890625,769.1941528320312
1074,777.2527465820312,785.3113403320312,791.7582397460938,770.0
1075,777.6557006835938,784.908447265625,794.5787353515625,772.8204956054688
1076,776.0439453125,782.893798828125,794.5787353515625,773.6264038085938
1077,780.879150390625,791.3552856445312,793.3699340820312,782.893798828125
1078,785.7142944335938,788.937744140625,792.1611938476562,785.7142944335938
1079,796.5933837890625,792.1611938476562,794.1758422851562,790.5494384765625
1080,802.6373901367188,795.3846435546875,792.967041015625,790.5494384765625
1081,802.2344360351562,799.010986328125,786.923095703125,790.1465454101562
1082,805.054931640625,804.2490844726562,785.7142944335938,797.3992919921875
1083,807.069580078125,801.025634765625,786.923095703125,801.8314819335938
1084,810.2930297851562,798.2051391601562,785.3113403320312,809.084228515625
1085,820.3662719726562,796.996337890625,786.5201416015625,821.97802734375
1086,822.3809814453125,797.8021850585938,794.5787353515625,821.97802734375
1087,822.3809814453125,798.6080322265625,803.040283203125,819.96337890625
1088,825.2014770507812,802.2344360351562,799.010986328125,819.96337890625
1089,826.4102783203125,799.8168334960938,791.7582397460938,819.5604248046875
1090,818.3516235351562,794.981689453125,790.952392578125,816.7399291992188
1091,803.040283203125,801.025634765625,787.3259887695312,801.8314819335938
1092,793.7728881835938,807.069580078125,792.967041015625,792.1611938476562
1093,790.5494384765625,803.4432373046875,798.6080322265625,790.952392578125
1094,793.7728881835938,799.8168334960938,794.5787353515625,790.5494384765625
1095,792.1611938476562,795.3846435546875,795.3846435546875,788.5347900390625
1096,789.7435913085938,791.3552856445312,797.3992919921875,785.3113403320312
1097,792.967041015625,788.937744140625,796.1904907226562,790.1465454101562
1098,794.5787353515625,786.923095703125,794.981689453125,788.5347900390625
1099,794.1758422851562,786.1171875,796.996337890625,780.0732421875
1100,794.1758422851562,798.6080322265625,797.8021850585938,776.0439453125
1101,794.1758422851562,807.069580078125,797.8021850585938,780.4761962890625
1102,795.3846435546875,802.6373901367188,798.2051391601562,781.2820434570312
1103,792.1611938476562,798.6080322265625,793.7728881835938,773.2234497070312
1104,786.1171875,800.2197875976562,788.937744140625,776.8497924804688
1105,782.893798828125,802.2344360351562,791.3552856445312,777.2527465820312
1106,783.2966918945312,800.2197875976562,792.5640869140625,770.4029541015625
1107,786.5201416015625,799.010986328125,794.981689453125,777.6557006835938
1108,787.7289428710938,796.1904907226562,796.5933837890625,788.5347900390625
1109,790.5494384765625,791.3552856445312,799.010986328125,787.7289428710938
1110,795.7875366210938,789.3406372070312,795.7875366210938,792.5640869140625
1111,801.4285888671875,794.5787353515625,793.3699340820312,805.054931640625
1112,804.6520385742188,801.4285888671875,797.3992919921875,804.6520385742188
1113,807.069580078125,802.2344360351562,800.6226806640625,802.6373901367188
1114,810.6959838867188,799.010986328125,796.996337890625,807.069580078125
1115,805.054931640625,794.5787353515625,792.5640869140625,808.2783813476562
1116,800.2197875976562,790.5494384765625,794.1758422851562,807.069580078125
1117,800.2197875976562,794.981689453125,800.2197875976562,805.054931640625
1118,799.8168334960938,804.2490844726562,802.2344360351562,805.054931640625
1119,801.025634765625,805.054931640625,796.5933837890625,809.4871826171875
1120,799.8168334960938,798.2051391601562,794.1758422851562,813.113525390625
1121,798.2051391601562,799.8168334960938,798.6080322265625,809.89013671875
1122,805.4578857421875,803.4432373046875,802.6373901367188,807.87548828125
1123,807.87548828125,801.4285888671875,800.6226806640625,805.8607788085938
1124,803.040283203125,798.6080322265625,799.4139404296875,803.040283203125
1125,799.010986328125,802.2344360351562,796.1904907226562,794.5787353515625
1126,799.4139404296875,807.87548828125,790.5494384765625,782.4908447265625
1127,801.4285888671875,808.2783813476562,790.5494384765625,781.6849975585938
1128,795.3846435546875,804.6520385742188,790.952392578125,786.923095703125
1129,790.5494384765625,800.6226806640625,784.908447265625,781.6849975585938
1130,787.7289428710938,803.040283203125,783.2966918945312,776.4468994140625
1131,783.6996459960938,795.7875366210938,787.3259887695312,782.4908447265625
1132,783.6996459960938,789.3406372070312,785.7142944335938,774.4322509765625
1133,788.937744140625,796.996337890625,787.7289428710938,763.1502075195312
1134,786.5201416015625,793.3699340820312,790.1465454101562,774.029296875
1135,778.05859375,785.7142944335938,788.5347900390625,784.908447265625
1136,778.8644409179688,792.5640869140625,792.5640869140625,783.2966918945312
1137,786.5201416015625,801.025634765625,794.5787353515625,791.7582397460938
1138,786.923095703125,792.967041015625,793.7728881835938,803.040283203125
1139,784.1025390625,782.087890625,794.981689453125,796.5933837890625
1140,784.908447265625,789.7435913085938,800.6226806640625,799.010986328125
1141,784.1025390625,794.5787353515625,804.2490844726562,807.87548828125
1142,780.4761962890625,784.1025390625,799.010986328125,805.8607788085938
1143,782.893798828125,780.879150390625,794.1758422851562,804.2490844726562
1144,785.3113403320312,784.908447265625,793.7728881835938,805.8607788085938
1145,782.087890625,781.2820434570312,789.3406372070312,799.010986328125
1146,787.7289428710938,780.879150390625,790.1465454101562,803.040283203125
1147,794.5787353515625,785.7142944335938,791.7582397460938,815.1282348632812
1148,793.3699340820312,792.5640869140625,797.3992919921875,808.2783813476562
1149,800.2197875976562,792.1611938476562,801.4285888671875,809.4871826171875
1150,806.2637329101562,788.937744140625,800.2197875976562,813.113525390625
1151,800.2197875976562,788.937744140625,796.996337890625,799.010986328125
1152,797.3992919921875,791.3552856445312,792.967041015625,787.7289428710938
1153,800.2197875976562,790.1465454101562,787.7289428710938,788.937744140625
1154,799.4139404296875,787.3259887695312,788.1318969726562,794.5787353515625
1155,794.981689453125,785.7142944335938,793.3699340820312,788.1318969726562
1156,796.5933837890625,786.923095703125,794.981689453125,784.1025390625
1157,800.2197875976562,786.923095703125,797.3992919921875,795.3846435546875
1158,796.996337890625,783.2966918945312,799.8168334960938,811.90478515625
1159,790.5494384765625,790.1465454101562,796.996337890625,811.5018310546875
1160,786.1171875,791.3552856445312,794.5787353515625,803.040283203125
1161,778.8644409179688,785.3113403320312,795.3846435546875,803.8461303710938
1162,779.6703491210938,793.7728881835938,799.8168334960938,803.040283203125
1163,782.893798828125,799.8168334960938,801.025634765625,796.5933837890625
1164,781.6849975585938,795.3846435546875,804.2490844726562,794.981689453125
1165,784.1025390625,793.3699340820312,801.8314819335938,794.981689453125
1166,786.5201416015625,796.996337890625,795.7875366210938,789.7435913085938
1167,785.3113403320312,792.1611938476562,796.1904907226562,784.1025390625
1168,789.7435913085938,793.3699340820312,793.7728881835938,786.1171875
1169,796.1904907226562,802.6373901367188,792.5640869140625,788.5347900390625
1170,794.981689453125,800.6226806640625,793.3699340820312,786.923095703125
1171,793.7728881835938,794.5787353515625,793.3699340820312,781.2820434570312
1172,790.952392578125,800.6226806640625,787.7289428710938,782.4908447265625
1173,786.1171875,803.8461303710938,791.7582397460938,785.7142944335938
1174,788.937744140625,794.5787353515625,791.7582397460938,785.3113403320312
1175,790.5494384765625,791.3552856445312,788.937744140625,786.1171875
1176,788.937744140625,793.3699340820312,795.3846435546875,788.5347900390625
1177,795.3846435546875,797.8021850585938,796.1904907226562,788.937744140625
1178,803.040283203125,802.6373901367188,793.7728881835938,792.5640869140625
1179,805.054931640625,799.8168334960938,796.1904907226562,802.6373901367188
1180,804.6520385742188,800.6226806640625,793.7728881835938,807.069580078125
1181,804.2490844726562,800.6226806640625,790.952392578125,817.1428833007812
1182,802.2344360351562,801.025634765625,792.967041015625,819.5604248046875
1183,799.010986328125,803.040283203125,792.5640869140625,804.2490844726562
1184,798.2051391601562,796.996337890625,793.3699340820312,798.6080322265625
1185,798.6080322265625,790.1465454101562,792.1611938476562,801.8314819335938
1186,796.996337890625,787.3259887695312,790.1465454101562,796.5933837890625
1187,791.7582397460938,795.3846435546875,792.1611938476562,790.1465454101562
1188,791.7582397460938,798.2051391601562,794.981689453125,790.952392578125
1189,792.967041015625,794.5787353515625,800.2197875976562,792.967041015625
1190,790.952392578125,792.5640869140625,799.010986328125,791.7582397460938
1191,785.3113403320312,791.7582397460938,793.7728881835938,788.1318969726562
1192,788.937744140625,794.5787353515625,795.7875366210938,793.7728881835938
1193,796.5933837890625,795.7875366210938,803.040283203125,810.2930297851562
1194,793.3699340820312,796.5933837890625,804.6520385742188,798.6080322265625
1195,793.7728881835938,795.3846435546875,799.010986328125,786.5201416015625
1196,796.5933837890625,790.5494384765625,793.3699340820312,793.3699340820312
1197,796.996337890625,792.967041015625,792.5640869140625,792.1611938476562
1198,794.981689453125,797.3992919921875,793.3699340820312,786.5201416015625
1199,792.5640869140625,800.6226806640625,793.3699340820312,792.5640869140625
1200,794.5787353515625,801.025634765625,794.1758422851562,798.6080322265625
1201,798.6080322265625,800.6226806640625,793.7728881835938,791.3552856445312
1202,805.8607788085938,800.6226806640625,788.5347900390625,793.3699340820312
1203,805.4578857421875,799.010986328125,790.5494384765625,796.1904907226562
1204,793.7728881835938,796.996337890625,793.7728881835938,786.1171875
1205,787.3259887695312,799.010986328125,790.5494384765625,779.6703491210938
1206,789.3406372070312,795.3846435546875,790.5494384765625,785.7142944335938
1207,796.996337890625,794.5787353515625,790.1465454101562,790.5494384765625
1208,799.4139404296875,796.996337890625,785.7142944335938,794.981689453125
1209,797.3992919921875,796.5933837890625,789.7435913085938,799.4139404296875
1210,793.7728881835938,795.3846435546875,792.967041015625,788.937744140625
1211,796.5933837890625,790.5494384765625,795.7875366210938,792.5640869140625
1212,799.010986328125,787.3259887695312,794.1758422851562,809.4871826171875
1213,801.8314819335938,797.8021850585938,794.5787353515625,810.6959838867188
1214,801.025634765625,802.2344360351562,800.6226806640625,812.3076782226562
1215,791.3552856445312,790.5494384765625,801.4285888671875,817.94873046875
1216,792.5640869140625,785.7142944335938,801.8314819335938,819.1575317382812
1217,791.3552856445312,789.3406372070312,800.6226806640625,811.5018310546875
1218,793.3699340820312,795.3846435546875,803.040283203125,812.3076782226562
1219,795.3846435546875,792.1611938476562,796.1904907226562,816.3369750976562
1220,795.7875366210938,787.7289428710938,790.1465454101562,815.1282348632812
1221,798.6080322265625,792.1611938476562,793.3699340820312,804.2490844726562
1222,794.981689453125,792.967041015625,792.1611938476562,790.1465454101562
1223,789.7435913085938,782.893798828125,788.937744140625,781.2820434570312
1224,795.3846435546875,781.6849975585938,788.1318969726562,780.0732421875
1225,800.2197875976562,791.7582397460938,788.937744140625,784.5054931640625
1226,797.3992919921875,790.5494384765625,791.3552856445312,789.7435913085938
1227,794.5787353515625,786.5201416015625,790.1465454101562,794.981689453125
1228,791.7582397460938,786.5201416015625,788.5347900390625,796.1904907226562
1229,792.5640869140625,784.5054931640625,791.3552856445312,790.5494384765625
1230,793.7728881835938,787.3259887695312,791.7582397460938,785.7142944335938
1231,792.5640869140625,787.3259887695312,788.1318969726562,792.967041015625
1232,793.7728881835938,792.1611938476562,790.952392578125,792.1611938476562
1233,794.1758422851562,798.6080322265625,792.967041015625,782.893798828125
1234,791.7582397460938,795.7875366210938,788.5347900390625,776.8497924804688
1235,788.1318969726562,795.7875366210938,786.5201416015625,776.4468994140625
1236,783.2966918945312,796.1904907226562,783.2966918945312,778.8644409179688
1237,785.3113403320312,788.5347900390625,784.5054931640625,784.908447265625
1238,785.3113403320312,783.6996459960938,788.1318969726562,789.7435913085938
1239,782.087890625,787.7289428710938,781.6849975585938,778.8644409179688
1240,787.3259887695312,789.3406372070312,779.2673950195312,778.05859375
1241,788.937744140625,793.7728881835938,785.7142944335938,787.3259887695312
1242,784.5054931640625,790.952392578125,785.7142944335938,796.5933837890625
1243,788.937744140625,782.4908447265625,786.1171875,807.87548828125
1244,792.1611938476562,774.4322509765625,786.1171875,800.2197875976562
1245,796.5933837890625,776.8497924804688,784.1025390625,793.3699340820312
1246,806.6666870117188,789.3406372070312,790.1465454101562,806.6666870117188
1247,805.4578857421875,786.5201416015625,796.1904907226562,810.6959838867188
1248,807.069580078125,786.1171875,799.010986328125,811.098876953125
1249,816.7399291992188,789.7435913085938,800.6226806640625,816.3369750976562
1250,819.1575317382812,786.1171875,800.2197875976562,817.1428833007812
1251,815.93408203125,787.3259887695312,798.6080322265625,810.6959838867188
1252,813.113525390625,790.1465454101562,798.2051391601562,805.8607788085938
1253,810.6959838867188,789.3406372070312,797.8021850585938,807.4725341796875
1254,810.2930297851562,785.7142944335938,798.6080322265625,808.6813354492188
1255,805.4578857421875,784.1025390625,805.8607788085938,807.87548828125
1256,799.010986328125,787.3259887695312,806.2637329101562,801.4285888671875
1257,795.7875366210938,792.5640869140625,805.4578857421875,797.8021850585938
1258,791.7582397460938,794.1758422851562,800.6226806640625,793.3699340820312
1259,788.5347900390625,792.5640869140625,795.7875366210938,780.879150390625
1260,787.3259887695312,788.937744140625,793.3699340820312,777.6557006835938
1261,781.6849975585938,788.5347900390625,790.952392578125,773.6264038085938
1262,778.05859375,798.6080322265625,790.1465454101562,768.3883056640625
1263,778.05859375,803.4432373046875,788.5347900390625,771.6116943359375
1264,779.2673950195312,794.5787353515625,787.7289428710938,771.6116943359375
1265,784.908447265625,789.7435913085938,782.893798828125,772.4176025390625
1266,788.937744140625,792.5640869140625,782.893798828125,778.8644409179688
1267,782.4908447265625,795.3846435546875,787.7289428710938,770.4029541015625
1268,782.4908447265625,794.1758422851562,787.7289428710938,772.4176025390625
1269,784.5054931640625,791.7582397460938,787.7289428710938,779.2673950195312
1270,789.3406372070312,794.981689453125,792.5640869140625,786.5201416015625
1271,792.5640869140625,797.8021850585938,789.7435913085938,797.8021850585938
1272,789.7435913085938,792.967041015625,790.5494384765625,795.3846435546875
1273,787.7289428710938,785.7142944335938,795.3846435546875,796.1904907226562
1274,794.5787353515625,790.1465454101562,797.3992919921875,807.4725341796875
1275,803.8461303710938,789.3406372070312,797.8021850585938,813.113525390625
1276,803.040283203125,786.5201416015625,799.010986328125,809.084228515625
1277,802.6373901367188,798.6080322265625,801.025634765625,816.3369750976562
1278,801.4285888671875,802.2344360351562,799.4139404296875,815.5311279296875
1279,794.5787353515625,796.5933837890625,794.5787353515625,799.8168334960938
1280,795.7875366210938,794.5787353515625,792.967041015625,799.010986328125
1281,798.6080322265625,793.3699340820312,792.1611938476562,797.3992919921875
1282,790.5494384765625,792.967041015625,790.1465454101562,792.1611938476562
1283,792.5640869140625,794.5787353515625,795.3846435546875,795.3846435546875
1284,796.5933837890625,795.7875366210938,796.996337890625,793.7728881835938
1285,793.3699340820312,794.1758422851562,790.5494384765625,793.3699340820312
1286,793.7728881835938,789.3406372070312,787.7289428710938,790.952392578125
1287,790.1465454101562,790.952392578125,791.7582397460938,784.908447265625
1288,788.1318969726562,795.3846435546875,795.7875366210938,784.908447265625
1289,790.1465454101562,796.5933837890625,795.3846435546875,792.967041015625
1290,784.908447265625,794.1758422851562,798.2051391601562,788.5347900390625
1291,780.0732421875,795.7875366210938,801.8314819335938,781.2820434570312
1292,782.087890625,797.8021850585938,799.4139404296875,787.7289428710938
1293,784.908447265625,797.3992919921875,799.8168334960938,785.3113403320312
1294,781.2820434570312,802.2344360351562,796.996337890625,780.4761962890625
1295,777.2527465820312,801.8314819335938,792.5640869140625,790.952392578125
1296,775.6410522460938,796.996337890625,792.1611938476562,792.967041015625
1297,778.8644409179688,798.2051391601562,790.1465454101562,788.5347900390625
1298,786.1171875,795.3846435546875,787.3259887695312,794.981689453125
1299,788.937744140625,786.1171875,789.7435913085938,801.4285888671875
1300,788.5347900390625,790.1465454101562,797.3992919921875,796.5933837890625
1301,789.7435913085938,799.8168334960938,794.981689453125,787.3259887695312
1302,792.5640869140625,798.6080322265625,789.7435913085938,790.1465454101562
1303,797.3992919921875,794.981689453125,790.1465454101562,793.3699340820312
1304,797.8021850585938,796.1904907226562,790.1465454101562,790.5494384765625
1305,796.1904907226562,797.8021850585938,788.5347900390625,786.1171875
1306,795.7875366210938,795.3846435546875,789.7435913085938,784.5054931640625
1307,801.4285888671875,792.1611938476562,794.5787353515625,791.3552856445312
1308,811.90478515625,794.5787353515625,797.8021850585938,808.6813354492188
1309,809.4871826171875,797.3992919921875,801.8314819335938,815.1282348632812
1310,807.4725341796875,794.1758422851562,799.010986328125,803.4432373046875
1311,813.113525390625,789.3406372070312,797.3992919921875,805.8607788085938
1312,808.6813354492188,787.3259887695312,790.952392578125,807.069580078125
1313,798.6080322265625,793.7728881835938,788.5347900390625,801.4285888671875
1314,790.952392578125,797.3992919921875,792.967041015625,803.8461303710938
1315,794.1758422851562,795.7875366210938,794.1758422851562,805.4578857421875
1316,799.4139404296875,794.5787353515625,795.7875366210938,809.89013671875
1317,797.3992919921875,794.1758422851562,802.2344360351562,806.6666870117188
1318,794.5787353515625,796.996337890625,805.054931640625,790.1465454101562
1319,795.7875366210938,791.7582397460938,799.010986328125,789.7435913085938
1320,794.1758422851562,787.3259887695312,797.3992919921875,791.3552856445312
1321,793.3699340820312,791.7582397460938,801.8314819335938,785.3113403320312
1322,800.6226806640625,790.5494384765625,800.2197875976562,786.5201416015625
1323,800.6226806640625,780.0732421875,801.025634765625,788.1318969726562
1324,794.981689453125,780.0732421875,800.2197875976562,779.6703491210938
1325,794.981689453125,796.996337890625,792.1611938476562,776.4468994140625
1326,796.1904907226562,799.8168334960938,792.1611938476562,783.2966918945312
1327,801.025634765625,794.1758422851562,791.7582397460938,789.7435913085938
1328,801.4285888671875,792.1611938476562,792.967041015625,794.5787353515625
1329,782.4908447265625,785.7142944335938,801.8314819335938,788.5347900390625
1330,772.4176025390625,790.1465454101562,801.025634765625,775.2380981445312
1331,782.4908447265625,797.3992919921875,794.5787353515625,777.6557006835938
1332,786.1171875,800.2197875976562,796.996337890625,781.2820434570312
1333,787.3259887695312,807.4725341796875,795.3846435546875,782.4908447265625
1334,788.1318969726562,804.2490844726562,797.8021850585938,788.937744140625
1335,778.8644409179688,794.1758422851562,800.2197875976562,787.3259887695312
1336,776.8497924804688,799.4139404296875,798.2051391601562,785.7142944335938
1337,782.893798828125,799.4139404296875,802.2344360351562,791.7582397460938
1338,786.923095703125,789.7435913085938,797.3992919921875,795.7875366210938
1339,786.923095703125,786.5201416015625,793.7728881835938,801.8314819335938
1340,789.3406372070312,790.5494384765625,799.010986328125,799.8168334960938
1341,791.3552856445312,796.996337890625,798.2051391601562,791.7582397460938
1342,791.7582397460938,801.4285888671875,793.3699340820312,786.1171875
1343,792.5640869140625,800.2197875976562,798.6080322265625,786.1171875
1344,787.7289428710938,801.025634765625,805.054931640625,788.1318969726562
1345,788.1318969726562,796.996337890625,797.3992919921875,786.5201416015625
1346,790.5494384765625,792.5640869140625,790.5494384765625,787.7289428710938
1347,788.5347900390625,794.981689453125,795.7875366210938,784.1025390625
1348,786.5201416015625,794.981689453125,799.010986328125,783.2966918945312
1349,786.1171875,791.3552856445312,802.2344360351562,790.952392578125
1350,784.1025390625,786.923095703125,801.025634765625,799.4139404296875
1351,782.4908447265625,790.1465454101562,798.2051391601562,793.3699340820312
1352,783.2966918945312,795.7875366210938,804.2490844726562,783.6996459960938
1353,784.908447265625,798.2051391601562,803.040283203125,783.6996459960938
1354,781.2820434570312,792.5640869140625,794.5787353515625,788.1318969726562
1355,776.0439453125,787.7289428710938,799.8168334960938,793.7728881835938
1356,777.2527465820312,786.923095703125,800.6226806640625,793.7728881835938
1357,780.879150390625,790.5494384765625,800.2197875976562,799.8168334960938
1358,782.087890625,795.3846435546875,802.6373901367188,804.6520385742188
1359,783.6996459960938,797.8021850585938,799.4139404296875,803.040283203125
1360,788.1318969726562,802.2344360351562,796.996337890625,803.040283203125
1361,791.7582397460938,798.2051391601562,794.981689453125,797.8021850585938
1362,792.1611938476562,795.7875366210938,798.2051391601562,799.4139404296875
1363,795.3846435546875,797.3992919921875,805.054931640625,804.6520385742188
1364,806.2637329101562,788.937744140625,801.8314819335938,802.6373901367188
1365,809.4871826171875,796.1904907226562,799.8168334960938,796.996337890625
1366,803.8461303710938,799.010986328125,796.996337890625,790.952392578125
1367,797.3992919921875,793.3699340820312,788.937744140625,792.1611938476562
1368,797.3992919921875,794.1758422851562,783.2966918945312,794.981689453125
1369,805.4578857421875,794.981689453125,787.7289428710938,800.2197875976562
1370,806.2637329101562,796.1904907226562,794.1758422851562,793.3699340820312
1371,796.5933837890625,796.1904907226562,787.3259887695312,781.2820434570312
1372,799.4139404296875,801.025634765625,784.908447265625,785.3113403320312
1373,805.8607788085938,798.2051391601562,788.937744140625,795.7875366210938
1374,802.6373901367188,793.7728881835938,791.7582397460938,792.967041015625
1375,799.010986328125,801.8314819335938,791.7582397460938,786.923095703125
1376,791.3552856445312,800.2197875976562,785.7142944335938,785.3113403320312
1377,781.6849975585938,788.5347900390625,783.2966918945312,782.4908447265625
1378,780.4761962890625,790.1465454101562,783.2966918945312,786.923095703125
1379,788.1318969726562,796.1904907226562,780.879150390625,788.1318969726562
1380,785.3113403320312,791.3552856445312,781.2820434570312,788.1318969726562
1381,781.2820434570312,790.5494384765625,788.1318969726562,803.4432373046875
1382,784.908447265625,791.7582397460938,790.952392578125,810.6959838867188
1383,787.7289428710938,785.7142944335938,792.1611938476562,804.2490844726562
1384,794.1758422851562,784.908447265625,796.996337890625,805.4578857421875
1385,793.7728881835938,788.5347900390625,796.5933837890625,813.113525390625
1386,787.7289428710938,782.893798828125,793.7728881835938,800.2197875976562
1387,788.5347900390625,780.4761962890625,796.1904907226562,795.3846435546875
1388,797.8021850585938,786.923095703125,798.6080322265625,805.054931640625
1389,798.6080322265625,788.1318969726562,800.2197875976562,800.6226806640625
1390,801.025634765625,788.937744140625,801.025634765625,797.8021850585938
1391,809.084228515625,795.3846435546875,798.6080322265625,800.2197875976562
1392,805.4578857421875,800.6226806640625,798.2051391601562,798.6080322265625
1393,804.6520385742188,799.010986328125,792.967041015625,792.1611938476562
1394,806.2637329101562,792.1611938476562,787.3259887695312,787.3259887695312
1395,801.4285888671875,790.1465454101562,788.1318969726562,789.7435913085938
1396,795.3846435546875,795.3846435546875,788.5347900390625,796.1904907226562
1397,790.1465454101562,796.5933837890625,791.7582397460938,791.7582397460938
1398,791.3552856445312,788.937744140625,797.3992919921875,786.5201416015625
1399,789.3406372070312,791.7582397460938,795.7875366210938,788.937744140625
1400,786.1171875,802.6373901367188,790.952392578125,789.7435913085938
1401,783.2966918945312,803.040283203125,791.7582397460938,784.908447265625
1402,782.087890625,798.6080322265625,795.3846435546875,787.7289428710938
1403,781.2820434570312,790.952392578125,790.5494384765625,789.7435913085938
1404,781.2820434570312,791.3552856445312,787.3259887695312,790.1465454101562
1405,784.1025390625,792.1611938476562,796.996337890625,792.967041015625
1406,781.2820434570312,786.1171875,793.3699340820312,787.7289428710938
1407,782.893798828125,782.893798828125,788.1318969726562,790.952392578125
1408,776.8497924804688,785.7142944335938,793.7728881835938,789.3406372070312
1409,772.8204956054688,786.1171875,791.7582397460938,783.6996459960938
1410,782.893798828125,789.7435913085938,788.5347900390625,782.893798828125
1411,782.087890625,797.3992919921875,785.7142944335938,784.1025390625
1412,790.5494384765625,796.996337890625,786.5201416015625,786.5201416015625
1413,795.7875366210938,794.5787353515625,788.1318969726562,784.1025390625
1414,790.1465454101562,788.5347900390625,784.908447265625,782.087890625
1415,800.2197875976562,790.1465454101562,784.908447265625,784.5054931640625
1416,800.6226806640625,794.5787353515625,788.5347900390625,792.5640869140625
1417,789.3406372070312,792.5640869140625,788.5347900390625,793.3699340820312
1418,796.5933837890625,792.967041015625,785.7142944335938,788.5347900390625
1419,804.6520385742188,795.3846435546875,787.3259887695312,788.5347900390625
1420,806.2637329101562,799.8168334960938,789.7435913085938,794.1758422851562
1421,809.4871826171875,800.2197875976562,794.5787353515625,792.1611938476562
1422,804.2490844726562,799.010986328125,790.1465454101562,784.1025390625
1423,809.084228515625,797.8021850585938,785.7142944335938,794.5787353515625
1424,817.1428833007812,800.6226806640625,790.5494384765625,800.6226806640625
1425,807.069580078125,799.4139404296875,796.5933837890625,789.3406372070312
1426,790.952392578125,795.7875366210938,799.010986328125,783.2966918945312
1427,788.1318969726562,792.967041015625,794.981689453125,788.937744140625
1428,790.1465454101562,792.5640869140625,794.981689453125,790.952392578125
1429,785.7142944335938,793.3699340820312,795.7875366210938,786.5201416015625
1430,787.7289428710938,797.8021850585938,798.6080322265625,790.1465454101562
1431,790.952392578125,799.4139404296875,799.8168334960938,796.5933837890625
1432,790.952392578125,801.025634765625,801.4285888671875,800.2197875976562
1433,786.923095703125,798.6080322265625,800.2197875976562,796.5933837890625
1434,780.4761962890625,791.7582397460938,796.996337890625,790.952392578125
1435,785.7142944335938,792.1611938476562,796.996337890625,801.025634765625
1436,789.7435913085938,790.5494384765625,795.3846435546875,801.8314819335938
1437,788.1318969726562,794.1758422851562,798.2051391601562,794.981689453125
1438,793.7728881835938,795.3846435546875,796.996337890625,793.7728881835938
1439,796.5933837890625,796.1904907226562,799.010986328125,787.7289428710938
1440,791.7582397460938,798.6080322265625,796.996337890625,784.1025390625
1441,790.5494384765625,794.1758422851562,793.3699340820312,782.4908447265625
1442,790.1465454101562,792.967041015625,797.8021850585938,786.923095703125
1443,781.6849975585938,788.937744140625,792.1611938476562,776.4468994140625
1444,783.6996459960938,786.5201416015625,792.1611938476562,769.5970458984375
1445,793.3699340820312,792.1611938476562,798.6080322265625,782.4908447265625
1446,795.3846435546875,792.967041015625,798.6080322265625,794.981689453125
1447,788.937744140625,784.5054931640625,799.8168334960938,790.1465454101562
1448,784.908447265625,787.3259887695312,795.7875366210938,782.4908447265625
1449,784.908447265625,798.2051391601562,794.5787353515625,788.5347900390625
1450,788.937744140625,801.8314819335938,799.010986328125,790.5494384765625
1451,790.952392578125,799.010986328125,802.6373901367188,790.5494384765625
1452,790.1465454101562,796.5933837890625,799.4139404296875,790.1465454101562
1453,786.5201416015625,791.7582397460938,790.952392578125,786.923095703125
1454,786.5201416015625,791.7582397460938,787.7289428710938,791.7582397460938
1455,793.3699340820312,792.5640869140625,787.3259887695312,797.8021850585938
1456,794.5787353515625,790.952392578125,788.5347900390625,796.5933837890625
1457,793.7728881835938,786.1171875,790.5494384765625,801.4285888671875
1458,794.5787353515625,792.967041015625,792.967041015625,801.8314819335938
1459,796.1904907226562,803.040283203125,792.1611938476562,790.952392578125
1460,804.2490844726562,807.4725341796875,790.5494384765625,788.937744140625
1461,805.8607788085938,807.87548828125,794.1758422851562,789.3406372070312
1462,799.4139404296875,803.040283203125,790.5494384765625,786.1171875
1463,794.1758422851562,794.981689453125,784.5054931640625,793.7728881835938
1464,789.7435913085938,789.3406372070312,788.5347900390625,794.1758422851562
1465,794.1758422851562,789.3406372070312,786.1171875,789.3406372070312
1466,801.025634765625,785.3113403320312,784.908447265625,793.7728881835938
1467,796.996337890625,779.6703491210938,783.6996459960938,790.5494384765625
1468,795.3846435546875,789.3406372070312,781.6849975585938,790.1465454101562
1469,800.6226806640625,800.6226806640625,782.087890625,797.8021850585938
1470,802.2344360351562,801.8314819335938,785.7142944335938,795.3846435546875
1471,797.3992919921875,805.4578857421875,792.967041015625,789.3406372070312
1472,795.3846435546875,806.2637329101562,794.1758422851562,788.5347900390625
1473,797.3992919921875,801.8314819335938,788.5347900390625,793.7728881835938
1474,796.996337890625,803.4432373046875,792.5640869140625,794.981689453125
1475,796.996337890625,806.2637329101562,798.2051391601562,796.996337890625
1476,796.5933837890625,802.2344360351562,797.8021850585938,799.4139404296875
1477,788.937744140625,792.1611938476562,796.1904907226562,796.1904907226562
1478,787.7289428710938,790.5494384765625,796.1904907226562,793.7728881835938
1479,792.1611938476562,796.996337890625,796.5933837890625,790.952392578125
1480,796.1904907226562,796.1904907226562,799.010986328125,792.967041015625
1481,801.025634765625,797.3992919921875,798.2051391601562,796.996337890625
1482,797.3992919921875,801.8314819335938,795.3846435546875,784.908447265625
1483,791.3552856445312,800.6226806640625,794.1758422851562,776.8497924804688
1484,788.1318969726562,797.3992919921875,792.5640869140625,778.4615478515625
1485,783.6996459960938,792.5640869140625,790.5494384765625,776.8497924804688
1486,784.5054931640625,792.967041015625,794.5787353515625,773.2234497070312
1487,785.3113403320312,793.7728881835938,799.4139404296875,776.0439453125
1488,778.05859375,788.5347900390625,798.2051391601562,781.6849975585938
1489,777.2527465820312,787.3259887695312,795.7875366210938,780.879150390625
1490,784.5054931640625,788.1318969726562,791.7582397460938,778.4615478515625
1491,784.1025390625,792.1611938476562,788.1318969726562,780.0732421875
1492,783.6996459960938,792.967041015625,787.7289428710938,779.6703491210938
1493,785.7142944335938,790.5494384765625,792.1611938476562,780.879150390625
1494,785.7142944335938,793.7728881835938,796.5933837890625,788.5347900390625
1495,788.937744140625,797.8021850585938,793.3699340820312,793.3699340820312
1496,793.7728881835938,794.5787353515625,791.7582397460938,795.3846435546875
1497,791.7582397460938,792.967041015625,793.7728881835938,795.3846435546875
1498,783.6996459960938,796.1904907226562,794.981689453125,788.1318969726562
1499,786.923095703125,799.4139404296875,793.7728881835938,792.5640869140625
1500,792.1611938476562,799.8168334960938,790.5494384765625,797.3992919921875
1501,792.967041015625,801.4285888671875,792.5640869140625,794.981689453125
1502,794.981689453125,799.010986328125,792.967041015625,798.6080322265625
1503,792.967041015625,791.3552856445312,791.3552856445312,794.1758422851562
1504,792.5640869140625,786.923095703125,792.967041015625,790.1465454101562
1505,792.967041015625,796.996337890625,792.1611938476562,792.967041015625
1506,796.5933837890625,795.3846435546875,792.967041015625,796.1904907226562
1507,797.8021850585938,789.3406372070312,791.7582397460938,801.8314819335938
1508,793.7728881835938,798.2051391601562,790.5494384765625,800.6226806640625
1509,794.1758422851562,799.4139404296875,794.5787353515625,794.5787353515625
1510,795.7875366210938,798.6080322265625,796.1904907226562,789.3406372070312
1511,795.3846435546875,801.025634765625,795.3846435546875,792.967041015625
1512,797.3992919921875,797.3992919921875,792.967041015625,791.7582397460938
1513,800.2197875976562,797.3992919921875,790.5494384765625,784.908447265625
1514,805.4578857421875,798.2051391601562,788.1318969726562,790.1465454101562
1515,805.054931640625,792.1611938476562,790.1465454101562,800.2197875976562
1516,805.054931640625,792.1611938476562,792.1611938476562,801.8314819335938
1517,801.025634765625,792.967041015625,788.5347900390625,795.3846435546875
1518,793.3699340820312,794.5787353515625,788.937744140625,797.3992919921875
1519,790.5494384765625,801.025634765625,787.3259887695312,802.2344360351562
1520,784.5054931640625,797.3992919921875,787.7289428710938,799.010986328125
1521,783.6996459960938,790.952392578125,793.3699340820312,798.2051391601562
1522,788.1318969726562,792.5640869140625,792.967041015625,800.6226806640625
1523,793.7728881835938,795.3846435546875,794.1758422851562,802.2344360351562
1524,794.981689453125,792.1611938476562,796.1904907226562,795.7875366210938
1525,791.3552856445312,791.7582397460938,793.3699340820312,794.5787353515625
1526,785.7142944335938,792.1611938476562,796.1904907226562,792.5640869140625
1527,784.5054931640625,784.5054931640625,798.2051391601562,785.3113403320312
1528,787.7289428710938,784.5054931640625,794.5787353515625,784.1025390625
1529,785.3113403320312,794.981689453125,796.1904907226562,782.4908447265625
1530,785.3113403320312,792.5640869140625,792.967041015625,786.1171875
1531,788.1318969726562,786.923095703125,783.2966918945312,794.1758422851562
1532,785.3113403320312,790.1465454101562,785.7142944335938,784.5054931640625
1533,784.5054931640625,790.952392578125,790.952392578125,778.4615478515625
1534,790.5494384765625,789.3406372070312,790.1465454101562,780.879150390625
1535,793.3699340820312,794.981689453125,789.7435913085938,778.4615478515625
1536,787.3259887695312,796.1904907226562,790.952392578125,783.6996459960938
1537,787.3259887695312,789.3406372070312,791.3552856445312,789.3406372070312
1538,793.7728881835938,790.5494384765625,790.1465454101562,790.952392578125
1539,792.967041015625,790.1465454101562,786.1171875,785.7142944335938
1540,794.5787353515625,791.7582397460938,783.2966918945312,782.893798828125
1541,797.3992919921875,797.3992919921875,786.923095703125,789.7435913085938
1542,800.6226806640625,788.5347900390625,787.3259887695312,806.2637329101562
1543,799.8168334960938,790.1465454101562,789.3406372070312,809.084228515625
1544,794.5787353515625,798.2051391601562,792.5640869140625,797.8021850585938
1545,797.8021850585938,793.7728881835938,795.3846435546875,800.6226806640625
1546,802.2344360351562,794.981689453125,798.2051391601562,799.8168334960938
1547,794.981689453125,796.5933837890625,799.010986328125,794.5787353515625
1548,791.3552856445312,792.5640869140625,801.025634765625,794.981689453125
1549,790.1465454101562,793.7728881835938,799.8168334960938,793.3699340820312
1550,786.923095703125,793.3699340820312,801.4285888671875,791.3552856445312
1551,792.1611938476562,791.7582397460938,800.6226806640625,795.3846435546875
1552,799.8168334960938,788.5347900390625,799.010986328125,803.8461303710938
1553,799.4139404296875,786.923095703125,799.8168334960938,806.2637329101562
1554,794.1758422851562,794.1758422851562,798.2051391601562,807.4725341796875
1555,787.3259887695312,796.5933837890625,797.3992919921875,796.996337890625
1556,782.893798828125,796.1904907226562,795.7875366210938,790.5494384765625
1557,789.7435913085938,799.010986328125,797.3992919921875,805.4578857421875
1558,794.1758422851562,798.2051391601562,798.6080322265625,811.5018310546875
1559,789.7435913085938,795.3846435546875,797.3992919921875,798.6080322265625
1560,791.7582397460938,793.7728881835938,796.5933837890625,796.1904907226562
1561,795.3846435546875,789.3406372070312,800.6226806640625,797.8021850585938
1562,797.3992919921875,794.981689453125,804.2490844726562,796.1904907226562
1563,800.6226806640625,791.7582397460938,800.6226806640625,793.3699340820312
1564,798.2051391601562,783.6996459960938,792.5640869140625,786.923095703125
1565,795.3846435546875,792.967041015625,791.3552856445312,791.7582397460938
1566,788.1318969726562,796.996337890625,790.952392578125,786.923095703125
1567,787.3259887695312,798.6080322265625,784.5054931640625,779.2673950195312
1568,794.5787353515625,797.8021850585938,784.5054931640625,786.1171875
1569,790.952392578125,792.5640869140625,788.937744140625,784.5054931640625
1570,784.5054931640625,792.1611938476562,787.3259887695312,780.879150390625
1571,783.2966918945312,787.3259887695312,788.1318969726562,780.0732421875
1572,786.5201416015625,780.4761962890625,789.3406372070312,783.2966918945312
1573,794.1758422851562,789.3406372070312,788.1318969726562,792.967041015625
1574,792.967041015625,794.981689453125,791.3552856445312,792.5640869140625
1575,794.1758422851562,788.937744140625,794.981689453125,791.7582397460938
1576,797.3992919921875,788.937744140625,790.1465454101562,798.2051391601562
1577,796.996337890625,791.3552856445312,788.1318969726562,805.4578857421875
1578,794.5787353515625,797.8021850585938,793.3699340820312,803.040283203125
1579,785.3113403320312,795.7875366210938,788.937744140625,794.1758422851562
1580,774.4322509765625,791.3552856445312,785.7142944335938,782.893798828125
1581,780.4761962890625,792.967041015625,788.937744140625,786.1171875
1582,782.893798828125,790.5494384765625,787.7289428710938,790.5494384765625
