timestamp,RAW_TP9,RAW_AF7,RAW_AF8,RAW_TP10
1,806.2637329101562,801.8314819335938,795.7875366210938,801.8314819335938
2,790.952392578125,796.1904907226562,801.8314819335938,785.7142944335938
3,781.2820434570312,793.3699340820312,801.025634765625,774.4322509765625
4,782.893798828125,795.3846435546875,798.6080322265625,779.2673950195312
5,782.087890625,790.952392578125,802.2344360351562,784.1025390625
6,786.5201416015625,790.952392578125,804.2490844726562,790.5494384765625
7,786.5201416015625,791.3552856445312,805.054931640625,791.7582397460938
8,779.2673950195312,789.3406372070312,799.010986328125,782.893798828125
9,775.6410522460938,791.3552856445312,796.1904907226562,781.6849975585938
10,775.2380981445312,791.7582397460938,799.010986328125,785.3113403320312
11,784.908447265625,790.952392578125,800.6226806640625,782.087890625
12,783.6996459960938,786.923095703125,796.5933837890625,774.4322509765625
13,782.087890625,783.6996459960938,800.6226806640625,781.6849975585938
14,780.879150390625,790.1465454101562,809.89013671875,790.1465454101562
15,779.6703491210938,792.5640869140625,809.4871826171875,786.5201416015625
16,784.908447265625,790.1465454101562,807.069580078125,782.087890625
17,785.3113403320312,788.937744140625,802.6373901367188,781.6849975585938
18,786.1171875,788.937744140625,801.8314819335938,782.4908447265625
19,786.5201416015625,788.5347900390625,801.8314819335938,784.5054931640625
20,789.3406372070312,790.1465454101562,797.3992919921875,790.1465454101562
21,794.1758422851562,795.3846435546875,798.6080322265625,792.967041015625
22,791.7582397460938,792.5640869140625,800.6226806640625,792.5640869140625
23,790.1465454101562,791.3552856445312,800.2197875976562,787.7289428710938
24,792.5640869140625,793.3699340820312,799.4139404296875,785.7142944335938
25,790.5494384765625,797.3992919921875,796.1904907226562,794.1758422851562
26,787.3259887695312,799.010986328125,795.3846435546875,792.967041015625
27,786.5201416015625,795.7875366210938,796.5933837890625,792.1611938476562
28,790.5494384765625,797.8021850585938,804.2490844726562,794.981689453125
29,787.7289428710938,801.8314819335938,804.2490844726562,790.5494384765625
30,782.4908447265625,798.2051391601562,797.8021850585938,788.1318969726562
31,788.937744140625,796.1904907226562,796.1904907226562,785.7142944335938
32,792.5640869140625,798.2051391601562,796.5933837890625,788.937744140625
33,793.3699340820312,793.7728881835938,793.7728881835938,792.5640869140625
34,791.7582397460938,783.6996459960938,790.1465454101562,788.937744140625
35,788.937744140625,785.3113403320312,790.5494384765625,785.7142944335938
36,794.1758422851562,789.7435913085938,794.1758422851562,794.1758422851562
37,794.5787353515625,786.1171875,792.967041015625,798.6080322265625
38,785.3113403320312,786.1171875,790.5494384765625,785.7142944335938
39,780.879150390625,786.923095703125,793.3699340820312,780.879150390625
40,790.1465454101562,790.952392578125,798.6080322265625,788.5347900390625
41,798.2051391601562,793.3699340820312,802.2344360351562,794.981689453125
42,801.8314819335938,792.967041015625,804.6520385742188,799.8168334960938
43,805.054931640625,794.5787353515625,802.6373901367188,798.6080322265625
44,804.2490844726562,794.5787353515625,793.7728881835938,790.5494384765625
45,799.4139404296875,796.1904907226562,792.967041015625,790.5494384765625
46,796.1904907226562,797.3992919921875,795.7875366210938,790.1465454101562
47,792.967041015625,797.8021850585938,790.5494384765625,786.923095703125
48,789.7435913085938,797.3992919921875,792.967041015625,797.8021850585938
49,789.3406372070312,797.8021850585938,794.1758422851562,797.8021850585938
50,788.937744140625,799.4139404296875,793.7728881835938,785.3113403320312
51,787.7289428710938,796.996337890625,797.8021850585938,790.1465454101562
52,788.1318969726562,791.7582397460938,799.8168334960938,802.6373901367188
53,785.7142944335938,788.937744140625,800.2197875976562,797.3992919921875
54,781.2820434570312,792.1611938476562,796.996337890625,787.3259887695312
55,780.0732421875,792.5640869140625,797.3992919921875,784.5054931640625
56,786.923095703125,796.1904907226562,795.7875366210938,786.5201416015625
57,792.5640869140625,800.6226806640625,796.5933837890625,788.937744140625
58,789.3406372070312,802.2344360351562,796.1904907226562,786.5201416015625
59,787.3259887695312,802.6373901367188,795.7875366210938,789.3406372070312
60,792.1611938476562,799.4139404296875,790.5494384765625,788.937744140625
61,795.7875366210938,800.2197875976562,786.5201416015625,784.1025390625
62,798.2051391601562,797.8021850585938,786.1171875,783.2966918945312
63,802.2344360351562,796.5933837890625,783.6996459960938,783.6996459960938
64,800.6226806640625,799.4139404296875,786.5201416015625,778.8644409179688
65,794.5787353515625,796.1904907226562,781.6849975585938,774.4322509765625
66,797.8021850585938,797.3992919921875,784.5054931640625,779.6703491210938
67,798.6080322265625,803.8461303710938,794.5787353515625,782.4908447265625
68,803.040283203125,807.069580078125,795.7875366210938,778.8644409179688
69,804.6520385742188,806.2637329101562,790.1465454101562,774.8351440429688
70,793.3699340820312,801.4285888671875,788.5347900390625,773.6264038085938
71,795.3846435546875,794.1758422851562,792.1611938476562,782.4908447265625
72,799.4139404296875,795.3846435546875,788.5347900390625,789.3406372070312
73,788.5347900390625,796.996337890625,788.1318969726562,783.2966918945312
74,786.1171875,798.6080322265625,792.967041015625,783.6996459960938
75,787.3259887695312,799.8168334960938,793.7728881835938,782.4908447265625
76,781.2820434570312,795.7875366210938,792.5640869140625,778.4615478515625
77,780.4761962890625,796.5933837890625,793.3699340820312,783.2966918945312
78,784.5054931640625,796.5933837890625,796.5933837890625,787.7289428710938
79,781.2820434570312,796.5933837890625,799.010986328125,787.3259887695312
80,779.6703491210938,794.981689453125,796.996337890625,781.6849975585938
81,782.4908447265625,791.7582397460938,795.7875366210938,781.6849975585938
82,785.3113403320312,791.7582397460938,798.6080322265625,787.7289428710938
83,782.4908447265625,792.1611938476562,793.7728881835938,786.5201416015625
84,782.087890625,792.5640869140625,789.3406372070312,778.8644409179688
85,784.1025390625,796.1904907226562,785.7142944335938,775.2380981445312
86,784.5054931640625,797.8021850585938,784.1025390625,775.2380981445312
87,783.6996459960938,797.3992919921875,784.908447265625,775.6410522460938
88,785.7142944335938,795.7875366210938,788.1318969726562,775.6410522460938
89,786.1171875,794.981689453125,790.1465454101562,771.6116943359375
90,786.1171875,792.5640869140625,786.5201416015625,771.2088012695312
91,787.3259887695312,794.1758422851562,788.5347900390625,772.8204956054688
92,783.2966918945312,797.8021850585938,790.952392578125,783.6996459960938
93,786.923095703125,794.5787353515625,792.967041015625,792.1611938476562
94,788.937744140625,789.7435913085938,793.7728881835938,800.2197875976562
95,786.1171875,789.3406372070312,794.981689453125,803.040283203125
96,790.1465454101562,796.996337890625,796.996337890625,799.010986328125
97,788.1318969726562,800.2197875976562,799.010986328125,802.2344360351562
98,786.1171875,799.4139404296875,805.054931640625,805.4578857421875
99,790.1465454101562,800.6226806640625,806.6666870117188,808.2783813476562
100,792.5640869140625,798.2051391601562,807.069580078125,800.6226806640625
101,792.5640869140625,798.6080322265625,808.2783813476562,797.8021850585938
102,794.981689453125,802.2344360351562,804.6520385742188,798.6080322265625
103,794.5787353515625,801.4285888671875,800.2197875976562,797.3992919921875
104,791.7582397460938,803.8461303710938,799.8168334960938,794.981689453125
105,792.1611938476562,801.8314819335938,796.5933837890625,790.1465454101562
106,789.3406372070312,797.8021850585938,792.5640869140625,795.3846435546875
107,786.5201416015625,799.4139404296875,792.967041015625,784.5054931640625
108,786.5201416015625,797.3992919921875,793.7728881835938,772.8204956054688
109,785.3113403320312,796.1904907226562,791.7582397460938,778.4615478515625
110,788.937744140625,801.025634765625,791.7582397460938,781.6849975585938
111,784.5054931640625,799.4139404296875,789.7435913085938,771.6116943359375
112,782.4908447265625,799.010986328125,786.1171875,770.4029541015625
113,787.7289428710938,800.6226806640625,784.908447265625,775.2380981445312
114,784.1025390625,798.2051391601562,780.879150390625,776.8497924804688
115,780.879150390625,796.996337890625,780.879150390625,775.6410522460938
116,780.879150390625,795.7875366210938,784.1025390625,775.6410522460938
117,785.3113403320312,796.1904907226562,785.7142944335938,779.2673950195312
118,790.1465454101562,794.981689453125,789.7435913085938,782.893798828125
119,788.937744140625,794.5787353515625,792.1611938476562,782.087890625
120,785.3113403320312,795.7875366210938,792.5640869140625,780.0732421875
121,778.4615478515625,793.3699340820312,794.981689453125,787.3259887695312
122,775.6410522460938,791.3552856445312,792.5640869140625,786.5201416015625
123,784.1025390625,799.010986328125,794.5787353515625,784.5054931640625
124,792.967041015625,804.2490844726562,797.3992919921875,790.1465454101562
125,794.981689453125,801.4285888671875,798.2051391601562,796.1904907226562
126,792.967041015625,799.4139404296875,803.4432373046875,803.8461303710938
127,792.5640869140625,798.6080322265625,805.054931640625,799.8168334960938
128,794.5787353515625,796.1904907226562,806.6666870117188,798.6080322265625
129,799.010986328125,795.7875366210938,805.4578857421875,795.7875366210938
130,797.8021850585938,796.996337890625,803.4432373046875,791.3552856445312
131,793.3699340820312,795.7875366210938,801.025634765625,794.5787353515625
132,792.5640869140625,796.996337890625,799.8168334960938,794.5787353515625
133,792.1611938476562,798.6080322265625,801.8314819335938,790.5494384765625
134,795.7875366210938,799.8168334960938,801.8314819335938,788.1318969726562
135,795.7875366210938,801.8314819335938,803.4432373046875,788.5347900390625
136,790.1465454101562,801.4285888671875,803.8461303710938,785.7142944335938
137,787.3259887695312,799.010986328125,800.2197875976562,782.893798828125
138,785.7142944335938,794.981689453125,795.7875366210938,783.2966918945312
139,781.6849975585938,793.7728881835938,794.981689453125,780.0732421875
140,779.6703491210938,793.7728881835938,786.1171875,780.879150390625
141,776.8497924804688,795.7875366210938,782.4908447265625,781.2820434570312
142,776.4468994140625,795.7875366210938,786.5201416015625,773.6264038085938
143,778.05859375,790.1465454101562,786.1171875,772.0146484375
144,777.2527465820312,788.937744140625,786.5201416015625,776.4468994140625
145,778.8644409179688,790.1465454101562,788.937744140625,777.2527465820312
146,778.4615478515625,792.1611938476562,789.3406372070312,773.6264038085938
147,774.029296875,792.1611938476562,784.5054931640625,774.8351440429688
148,774.8351440429688,786.5201416015625,782.4908447265625,773.2234497070312
149,780.879150390625,786.923095703125,785.3113403320312,776.0439453125
150,788.1318969726562,786.923095703125,784.5054931640625,782.087890625
151,789.3406372070312,782.087890625,785.7142944335938,782.4908447265625
152,786.5201416015625,786.1171875,788.1318969726562,783.2966918945312
153,786.5201416015625,788.1318969726562,786.5201416015625,784.1025390625
154,787.3259887695312,783.6996459960938,784.1025390625,785.7142944335938
155,792.1611938476562,783.2966918945312,789.3406372070312,791.7582397460938
156,793.7728881835938,783.2966918945312,795.7875366210938,797.3992919921875
157,793.3699340820312,790.5494384765625,799.010986328125,794.981689453125
158,794.5787353515625,793.7728881835938,799.8168334960938,794.981689453125
159,795.3846435546875,789.3406372070312,796.996337890625,795.7875366210938
160,793.7728881835938,786.1171875,796.1904907226562,792.967041015625
161,790.1465454101562,789.3406372070312,798.2051391601562,793.7728881835938
162,787.7289428710938,792.1611938476562,800.2197875976562,790.952392578125
163,791.3552856445312,792.967041015625,801.4285888671875,788.5347900390625
164,794.981689453125,796.996337890625,803.040283203125,795.7875366210938
165,794.1758422851562,797.8021850585938,799.010986328125,797.3992919921875
166,788.937744140625,794.1758422851562,794.1758422851562,792.967041015625
167,785.7142944335938,796.996337890625,793.7728881835938,795.3846435546875
168,784.5054931640625,801.025634765625,794.1758422851562,790.5494384765625
169,784.908447265625,800.2197875976562,794.1758422851562,783.6996459960938
170,784.1025390625,796.996337890625,790.5494384765625,782.893798828125
171,784.1025390625,793.7728881835938,788.1318969726562,779.2673950195312
172,783.2966918945312,792.5640869140625,788.937744140625,776.4468994140625
173,786.923095703125,796.996337890625,790.952392578125,782.087890625
174,792.1611938476562,798.2051391601562,791.3552856445312,784.1025390625
175,791.7582397460938,796.1904907226562,792.1611938476562,781.2820434570312
176,792.1611938476562,795.7875366210938,790.1465454101562,780.4761962890625
177,790.952392578125,796.1904907226562,787.7289428710938,782.087890625
178,790.1465454101562,793.3699340820312,789.7435913085938,786.5201416015625
179,791.7582397460938,790.1465454101562,786.1171875,790.952392578125
180,791.7582397460938,795.7875366210938,785.3113403320312,792.967041015625
181,789.7435913085938,800.6226806640625,789.7435913085938,795.7875366210938
182,788.1318969726562,799.4139404296875,788.5347900390625,800.6226806640625
183,788.937744140625,798.2051391601562,789.7435913085938,805.054931640625
184,797.3992919921875,803.040283203125,793.3699340820312,809.4871826171875
185,801.4285888671875,804.6520385742188,790.5494384765625,807.069580078125
186,796.1904907226562,796.5933837890625,786.5201416015625,803.8461303710938
187,795.3846435546875,794.1758422851562,790.1465454101562,805.4578857421875
188,801.8314819335938,796.1904907226562,790.5494384765625,809.084228515625
189,804.6520385742188,791.7582397460938,788.937744140625,807.4725341796875
190,800.6226806640625,790.1465454101562,793.3699340820312,806.6666870117188
191,799.8168334960938,790.5494384765625,793.7728881835938,804.2490844726562
192,796.1904907226562,790.952392578125,793.3699340820312,794.1758422851562
193,795.7875366210938,796.1904907226562,794.5787353515625,796.5933837890625
194,794.981689453125,794.1758422851562,796.5933837890625,797.8021850585938
195,792.1611938476562,791.3552856445312,794.1758422851562,794.981689453125
196,793.3699340820312,794.1758422851562,795.7875366210938,793.7728881835938
197,792.967041015625,795.3846435546875,797.3992919921875,790.952392578125
198,792.1611938476562,796.5933837890625,796.1904907226562,788.937744140625
199,794.1758422851562,798.6080322265625,799.8168334960938,788.937744140625
200,795.7875366210938,801.8314819335938,803.040283203125,793.3699340820312
201,792.967041015625,797.3992919921875,801.4285888671875,793.3699340820312
202,790.1465454101562,794.5787353515625,799.8168334960938,787.3259887695312
203,788.5347900390625,797.8021850585938,802.2344360351562,787.3259887695312
204,790.5494384765625,794.5787353515625,803.4432373046875,789.3406372070312
205,797.3992919921875,794.1758422851562,799.8168334960938,788.937744140625
206,794.981689453125,796.996337890625,796.5933837890625,790.5494384765625
207,789.7435913085938,799.8168334960938,794.1758422851562,782.893798828125
208,789.3406372070312,803.4432373046875,792.5640869140625,781.2820434570312
209,790.952392578125,803.8461303710938,789.3406372070312,784.908447265625
210,796.996337890625,801.8314819335938,789.7435913085938,786.5201416015625
211,799.010986328125,796.996337890625,795.7875366210938,788.5347900390625
212,796.1904907226562,794.981689453125,798.2051391601562,788.937744140625
213,790.5494384765625,796.1904907226562,797.8021850585938,789.7435913085938
214,788.5347900390625,794.1758422851562,795.7875366210938,791.7582397460938
215,789.3406372070312,794.5787353515625,793.7728881835938,790.952392578125
216,792.5640869140625,792.967041015625,793.3699340820312,791.3552856445312
217,795.7875366210938,788.937744140625,796.1904907226562,793.3699340820312
218,791.3552856445312,789.7435913085938,802.6373901367188,791.3552856445312
219,788.1318969726562,791.7582397460938,804.2490844726562,788.937744140625
220,789.7435913085938,790.952392578125,802.2344360351562,788.5347900390625
221,793.7728881835938,793.7728881835938,805.4578857421875,793.3699340820312
222,790.5494384765625,794.5787353515625,809.4871826171875,790.952392578125
223,784.908447265625,790.952392578125,807.4725341796875,782.087890625
224,784.1025390625,786.923095703125,801.4285888671875,781.2820434570312
225,782.4908447265625,787.3259887695312,796.996337890625,785.3113403320312
226,781.2820434570312,787.7289428710938,794.5787353515625,783.2966918945312
227,785.3113403320312,787.7289428710938,794.1758422851562,782.087890625
228,784.908447265625,789.3406372070312,795.3846435546875,786.1171875
229,782.893798828125,797.3992919921875,794.981689453125,790.952392578125
230,781.6849975585938,798.6080322265625,797.3992919921875,786.923095703125
231,780.0732421875,790.5494384765625,801.4285888671875,786.923095703125
232,781.6849975585938,790.5494384765625,799.4139404296875,789.7435913085938
233,780.4761962890625,790.5494384765625,799.8168334960938,788.5347900390625
234,782.4908447265625,786.1171875,798.2051391601562,787.7289428710938
235,789.3406372070312,788.5347900390625,796.996337890625,789.7435913085938
236,792.1611938476562,795.3846435546875,796.1904907226562,790.1465454101562
237,794.5787353515625,798.2051391601562,798.2051391601562,786.923095703125
238,796.1904907226562,800.6226806640625,799.4139404296875,787.3259887695312
239,792.967041015625,799.010986328125,796.5933837890625,788.1318969726562
240,797.8021850585938,799.8168334960938,797.3992919921875,800.6226806640625
241,806.2637329101562,806.2637329101562,799.4139404296875,804.6520385742188
242,808.2783813476562,805.8607788085938,798.2051391601562,796.5933837890625
243,803.4432373046875,801.025634765625,793.7728881835938,800.6226806640625
244,798.6080322265625,799.4139404296875,795.7875366210938,801.8314819335938
245,801.025634765625,798.2051391601562,797.3992919921875,798.2051391601562
246,800.2197875976562,795.3846435546875,793.3699340820312,799.010986328125
247,796.1904907226562,794.981689453125,792.1611938476562,798.2051391601562
248,792.5640869140625,796.996337890625,794.981689453125,792.967041015625
249,788.5347900390625,792.5640869140625,798.6080322265625,792.5640869140625
250,786.923095703125,795.3846435546875,796.5933837890625,793.3699340820312
251,789.7435913085938,799.4139404296875,798.6080322265625,791.7582397460938
252,792.967041015625,796.1904907226562,798.6080322265625,791.7582397460938
253,786.923095703125,795.7875366210938,795.7875366210938,790.952392578125
254,782.893798828125,793.7728881835938,798.6080322265625,787.7289428710938
255,780.879150390625,787.7289428710938,796.5933837890625,782.893798828125
256,775.6410522460938,784.5054931640625,791.3552856445312,784.5054931640625
257,781.6849975585938,788.1318969726562,793.7728881835938,785.3113403320312
258,788.1318969726562,788.937744140625,796.996337890625,784.1025390625
259,783.2966918945312,788.937744140625,793.7728881835938,784.5054931640625
260,780.4761962890625,794.5787353515625,790.5494384765625,786.923095703125
261,789.3406372070312,797.8021850585938,792.1611938476562,785.7142944335938
262,792.1611938476562,799.010986328125,795.7875366210938,787.3259887695312
263,784.1025390625,792.967041015625,790.5494384765625,788.1318969726562
264,778.8644409179688,790.1465454101562,786.1171875,788.1318969726562
265,782.087890625,791.7582397460938,788.937744140625,790.1465454101562
266,788.937744140625,790.5494384765625,789.7435913085938,791.3552856445312
267,790.1465454101562,793.3699340820312,784.908447265625,796.5933837890625
268,791.3552856445312,794.5787353515625,786.5201416015625,800.2197875976562
269,792.1611938476562,792.967041015625,793.3699340820312,795.7875366210938
270,790.5494384765625,790.952392578125,794.1758422851562,794.981689453125
271,790.5494384765625,791.7582397460938,792.1611938476562,794.1758422851562
272,798.2051391601562,794.1758422851562,791.3552856445312,792.1611938476562
273,803.040283203125,792.1611938476562,793.7728881835938,798.2051391601562
274,799.4139404296875,787.7289428710938,795.7875366210938,806.6666870117188
275,789.7435913085938,786.923095703125,795.3846435546875,806.2637329101562
276,791.7582397460938,789.7435913085938,799.010986328125,798.6080322265625
277,793.3699340820312,788.5347900390625,797.8021850585938,791.7582397460938
278,787.7289428710938,787.7289428710938,796.1904907226562,788.5347900390625
279,780.4761962890625,786.1171875,797.3992919921875,785.7142944335938
280,777.6557006835938,782.893798828125,797.8021850585938,780.0732421875
281,783.6996459960938,788.937744140625,801.4285888671875,778.8644409179688
282,783.6996459960938,793.3699340820312,803.4432373046875,782.893798828125
283,781.6849975585938,789.7435913085938,803.040283203125,778.8644409179688
284,780.0732421875,790.1465454101562,804.2490844726562,772.0146484375
285,775.2380981445312,788.5347900390625,804.2490844726562,772.0146484375
286,775.2380981445312,786.5201416015625,802.2344360351562,778.8644409179688
287,775.2380981445312,787.7289428710938,797.3992919921875,781.6849975585938
288,777.2527465820312,784.5054931640625,793.7728881835938,771.6116943359375
289,782.4908447265625,784.1025390625,796.1904907226562,774.029296875
290,784.1025390625,784.5054931640625,801.4285888671875,780.0732421875
291,788.937744140625,789.3406372070312,799.4139404296875,786.5201416015625
292,794.981689453125,793.7728881835938,800.2197875976562,793.3699340820312
293,803.8461303710938,795.7875366210938,807.069580078125,799.010986328125
294,802.2344360351562,798.2051391601562,805.8607788085938,799.010986328125
295,794.1758422851562,795.7875366210938,802.6373901367188,792.1611938476562
296,793.7728881835938,797.8021850585938,799.8168334960938,786.5201416015625
297,796.996337890625,793.7728881835938,795.3846435546875,787.7289428710938
298,796.5933837890625,788.5347900390625,792.967041015625,787.7289428710938
299,790.5494384765625,792.1611938476562,796.5933837890625,785.3113403320312
300,793.7728881835938,798.2051391601562,803.8461303710938,792.5640869140625
301,797.3992919921875,801.8314819335938,808.6813354492188,801.4285888671875
302,792.967041015625,797.8021850585938,807.069580078125,801.4285888671875
303,793.7728881835938,795.7875366210938,803.040283203125,795.3846435546875
304,795.3846435546875,796.996337890625,805.4578857421875,791.7582397460938
305,793.3699340820312,797.3992919921875,805.4578857421875,792.1611938476562
306,793.3699340820312,797.3992919921875,801.025634765625,789.7435913085938
307,794.981689453125,795.7875366210938,797.8021850585938,782.893798828125
308,799.8168334960938,798.2051391601562,798.2051391601562,788.937744140625
309,792.967041015625,797.3992919921875,795.3846435546875,789.3406372070312
310,783.6996459960938,800.6226806640625,796.5933837890625,782.087890625
311,789.7435913085938,807.069580078125,800.6226806640625,781.2820434570312
312,784.908447265625,802.2344360351562,800.6226806640625,778.4615478515625
313,780.4761962890625,798.6080322265625,796.1904907226562,782.893798828125
314,786.5201416015625,799.010986328125,796.1904907226562,788.937744140625
315,786.1171875,799.010986328125,797.8021850585938,782.4908447265625
316,785.7142944335938,799.8168334960938,796.1904907226562,778.8644409179688
317,787.3259887695312,799.8168334960938,799.010986328125,781.2820434570312
318,790.952392578125,801.025634765625,799.010986328125,782.4908447265625
319,794.5787353515625,798.2051391601562,795.3846435546875,781.2820434570312
320,791.3552856445312,791.7582397460938,792.5640869140625,779.6703491210938
321,784.908447265625,790.1465454101562,790.1465454101562,780.879150390625
322,784.908447265625,793.7728881835938,794.1758422851562,780.4761962890625
323,788.937744140625,791.7582397460938,792.967041015625,781.6849975585938
324,784.908447265625,788.1318969726562,790.5494384765625,784.5054931640625
325,778.4615478515625,787.3259887695312,794.981689453125,786.1171875
326,776.0439453125,784.908447265625,797.3992919921875,778.8644409179688
327,772.4176025390625,782.087890625,794.1758422851562,778.05859375
328,771.6116943359375,783.2966918945312,791.7582397460938,783.2966918945312
329,777.2527465820312,784.908447265625,796.1904907226562,783.2966918945312
330,777.6557006835938,784.1025390625,794.5787353515625,780.0732421875
331,777.2527465820312,789.3406372070312,791.7582397460938,778.05859375
332,787.7289428710938,795.7875366210938,794.5787353515625,782.4908447265625
333,795.3846435546875,796.5933837890625,796.1904907226562,788.937744140625
334,789.3406372070312,795.3846435546875,792.1611938476562,786.923095703125
335,786.5201416015625,791.3552856445312,788.937744140625,782.893798828125
336,791.7582397460938,793.7728881835938,793.7728881835938,788.937744140625
337,795.7875366210938,798.2051391601562,796.996337890625,793.3699340820312
338,796.1904907226562,794.5787353515625,797.8021850585938,791.3552856445312
339,794.981689453125,792.5640869140625,795.7875366210938,791.7582397460938
340,797.3992919921875,790.5494384765625,795.7875366210938,799.010986328125
341,794.1758422851562,791.7582397460938,797.8021850585938,794.5787353515625
342,792.1611938476562,796.5933837890625,797.8021850585938,788.937744140625
343,798.6080322265625,798.2051391601562,792.5640869140625,796.1904907226562
344,799.8168334960938,795.7875366210938,792.5640869140625,805.4578857421875
345,796.996337890625,790.1465454101562,796.996337890625,801.8314819335938
346,795.7875366210938,795.7875366210938,794.5787353515625,791.7582397460938
347,788.1318969726562,798.6080322265625,790.1465454101562,789.7435913085938
348,788.1318969726562,796.1904907226562,794.5787353515625,797.3992919921875
349,790.5494384765625,795.7875366210938,794.981689453125,792.1611938476562
350,790.5494384765625,798.6080322265625,794.5787353515625,783.2966918945312
351,786.923095703125,796.1904907226562,797.8021850585938,782.4908447265625
352,782.893798828125,796.5933837890625,795.7875366210938,782.087890625
353,780.4761962890625,798.2051391601562,796.996337890625,782.893798828125
354,779.2673950195312,793.3699340820312,796.996337890625,781.6849975585938
355,781.2820434570312,796.1904907226562,796.1904907226562,784.908447265625
356,783.2966918945312,802.6373901367188,797.3992919921875,790.952392578125
357,785.3113403320312,806.2637329101562,798.6080322265625,798.2051391601562
358,788.5347900390625,802.6373901367188,794.5787353515625,794.1758422851562
359,792.967041015625,801.4285888671875,796.996337890625,797.3992919921875
360,791.7582397460938,800.2197875976562,801.4285888671875,801.025634765625
361,793.3699340820312,799.010986328125,800.2197875976562,792.5640869140625
362,794.5787353515625,802.6373901367188,799.4139404296875,787.7289428710938
363,794.1758422851562,800.2197875976562,796.996337890625,792.1611938476562
364,794.5787353515625,795.7875366210938,793.3699340820312,794.1758422851562
365,790.5494384765625,789.3406372070312,794.981689453125,790.952392578125
366,788.937744140625,786.1171875,797.3992919921875,788.937744140625
367,784.5054931640625,788.1318969726562,796.5933837890625,785.3113403320312
368,780.879150390625,787.3259887695312,792.5640869140625,783.6996459960938
369,782.4908447265625,784.908447265625,791.3552856445312,784.908447265625
370,780.4761962890625,781.6849975585938,791.3552856445312,786.1171875
371,779.6703491210938,782.893798828125,787.3259887695312,781.2820434570312
372,779.2673950195312,786.5201416015625,787.3259887695312,772.4176025390625
373,784.1025390625,784.5054931640625,788.1318969726562,776.0439453125
374,788.937744140625,783.6996459960938,786.923095703125,784.908447265625
375,782.4908447265625,785.3113403320312,786.923095703125,786.5201416015625
376,781.2820434570312,786.923095703125,787.3259887695312,784.908447265625
377,784.908447265625,786.923095703125,787.7289428710938,786.1171875
378,788.5347900390625,788.937744140625,788.1318969726562,789.3406372070312
379,794.5787353515625,789.3406372070312,787.3259887695312,792.1611938476562
380,796.996337890625,789.3406372070312,785.3113403320312,793.7728881835938
381,799.8168334960938,792.967041015625,792.1611938476562,791.7582397460938
382,802.2344360351562,795.3846435546875,795.3846435546875,794.1758422851562
383,800.6226806640625,797.8021850585938,796.5933837890625,803.040283203125
384,804.2490844726562,799.4139404296875,798.6080322265625,802.6373901367188
385,806.6666870117188,799.010986328125,792.967041015625,797.3992919921875
386,799.010986328125,793.7728881835938,790.5494384765625,793.3699340820312
387,793.3699340820312,792.5640869140625,792.5640869140625,794.5787353515625
388,795.7875366210938,794.981689453125,792.5640869140625,791.7582397460938
389,798.6080322265625,789.7435913085938,789.3406372070312,791.3552856445312
390,791.7582397460938,784.908447265625,786.923095703125,792.967041015625
391,788.937744140625,787.3259887695312,788.937744140625,790.5494384765625
392,791.3552856445312,791.7582397460938,791.7582397460938,790.5494384765625
393,790.952392578125,789.7435913085938,794.5787353515625,795.3846435546875
394,790.1465454101562,787.3259887695312,792.1611938476562,793.3699340820312
395,790.1465454101562,789.3406372070312,792.1611938476562,788.937744140625
396,788.5347900390625,787.7289428710938,788.937744140625,787.7289428710938
397,782.4908447265625,785.7142944335938,785.3113403320312,791.3552856445312
398,781.2820434570312,788.937744140625,787.7289428710938,798.2051391601562
399,786.1171875,790.952392578125,793.3699340820312,793.7728881835938
400,789.3406372070312,792.967041015625,796.5933837890625,795.3846435546875
401,785.3113403320312,799.4139404296875,794.1758422851562,794.981689453125
402,781.2820434570312,800.6226806640625,793.7728881835938,787.3259887695312
403,782.4908447265625,798.6080322265625,792.967041015625,786.923095703125
404,785.7142944335938,799.4139404296875,790.952392578125,786.5201416015625
405,791.7582397460938,799.4139404296875,788.5347900390625,792.967041015625
406,795.7875366210938,797.8021850585938,787.7289428710938,796.1904907226562
407,792.1611938476562,797.8021850585938,790.5494384765625,789.7435913085938
408,787.3259887695312,796.1904907226562,790.952392578125,785.3113403320312
409,787.3259887695312,796.996337890625,791.3552856445312,779.6703491210938
410,791.7582397460938,800.2197875976562,799.8168334960938,786.923095703125
411,790.5494384765625,799.8168334960938,799.4139404296875,788.937744140625
412,786.923095703125,795.3846435546875,794.1758422851562,781.6849975585938
413,782.893798828125,794.981689453125,793.3699340820312,782.087890625
414,775.2380981445312,794.1758422851562,789.3406372070312,777.6557006835938
415,777.6557006835938,790.952392578125,789.7435913085938,775.2380981445312
416,782.4908447265625,794.981689453125,792.5640869140625,783.6996459960938
417,783.2966918945312,796.1904907226562,794.1758422851562,791.3552856445312
418,781.6849975585938,794.1758422851562,792.5640869140625,787.3259887695312
419,778.4615478515625,796.5933837890625,792.5640869140625,781.2820434570312
420,788.1318969726562,797.3992919921875,793.7728881835938,784.5054931640625
421,794.1758422851562,792.967041015625,792.5640869140625,792.967041015625
422,792.5640869140625,794.5787353515625,793.7728881835938,794.1758422851562
423,796.996337890625,805.4578857421875,797.3992919921875,794.981689453125
424,798.6080322265625,804.6520385742188,799.010986328125,794.1758422851562
425,799.4139404296875,801.8314819335938,795.7875366210938,790.952392578125
426,801.4285888671875,800.6226806640625,792.967041015625,789.7435913085938
427,796.1904907226562,799.4139404296875,792.1611938476562,786.923095703125
428,792.5640869140625,799.4139404296875,792.5640869140625,789.3406372070312
429,792.967041015625,796.5933837890625,795.7875366210938,792.967041015625
430,795.3846435546875,796.5933837890625,797.3992919921875,793.7728881835938
431,791.7582397460938,794.981689453125,790.952392578125,788.5347900390625
432,793.7728881835938,795.7875366210938,788.937744140625,792.967041015625
433,793.3699340820312,796.5933837890625,792.1611938476562,794.1758422851562
434,785.7142944335938,799.010986328125,796.996337890625,786.1171875
435,786.923095703125,796.996337890625,800.2197875976562,787.7289428710938
436,788.937744140625,794.5787353515625,796.1904907226562,790.952392578125
437,792.1611938476562,795.3846435546875,796.5933837890625,791.3552856445312
438,790.952392578125,792.1611938476562,803.040283203125,788.5347900390625
439,782.893798828125,790.1465454101562,801.8314819335938,784.1025390625
440,781.6849975585938,791.7582397460938,796.1904907226562,784.1025390625
441,783.6996459960938,788.1318969726562,794.1758422851562,779.6703491210938
442,783.6996459960938,790.952392578125,794.1758422851562,779.2673950195312
443,794.5787353515625,792.5640869140625,794.981689453125,789.7435913085938
444,792.5640869140625,787.3259887695312,793.3699340820312,790.5494384765625
445,789.3406372070312,791.7582397460938,794.1758422851562,789.3406372070312
446,799.010986328125,794.5787353515625,792.5640869140625,794.1758422851562
447,801.4285888671875,795.7875366210938,792.967041015625,792.967041015625
448,793.7728881835938,795.7875366210938,794.981689453125,792.1611938476562
449,787.3259887695312,792.5640869140625,790.952392578125,792.1611938476562
450,786.5201416015625,791.3552856445312,790.5494384765625,790.5494384765625
451,787.7289428710938,792.5640869140625,790.5494384765625,788.937744140625
452,788.937744140625,795.3846435546875,790.952392578125,789.3406372070312
453,786.5201416015625,790.952392578125,796.1904907226562,792.967041015625
454,786.923095703125,782.893798828125,799.8168334960938,794.981689453125
455,788.5347900390625,785.7142944335938,801.4285888671875,796.996337890625
456,788.5347900390625,792.967041015625,803.8461303710938,796.1904907226562
457,788.5347900390625,794.1758422851562,804.6520385742188,790.952392578125
458,786.5201416015625,794.1758422851562,803.040283203125,790.1465454101562
459,788.5347900390625,799.010986328125,804.6520385742188,786.5201416015625
460,790.5494384765625,796.996337890625,804.6520385742188,785.7142944335938
461,789.3406372070312,792.1611938476562,803.040283203125,786.1171875
462,796.1904907226562,790.5494384765625,804.6520385742188,790.1465454101562
463,793.3699340820312,791.7582397460938,804.6520385742188,791.3552856445312
464,784.908447265625,796.996337890625,801.025634765625,784.1025390625
465,788.937744140625,801.025634765625,799.8168334960938,790.5494384765625
466,800.2197875976562,801.8314819335938,802.6373901367188,805.054931640625
467,805.4578857421875,799.8168334960938,803.8461303710938,807.069580078125
468,797.3992919921875,796.1904907226562,802.6373901367188,799.4139404296875
469,798.2051391601562,792.967041015625,804.6520385742188,801.025634765625
470,801.4285888671875,793.7728881835938,806.2637329101562,800.2197875976562
471,801.025634765625,796.996337890625,805.8607788085938,799.010986328125
472,803.8461303710938,801.4285888671875,801.025634765625,797.3992919921875
473,803.040283203125,800.2197875976562,799.010986328125,790.5494384765625
474,796.1904907226562,799.8168334960938,801.8314819335938,791.7582397460938
475,789.3406372070312,802.2344360351562,801.8314819335938,788.937744140625
476,789.7435913085938,801.8314819335938,799.010986328125,787.7289428710938
477,796.1904907226562,796.996337890625,797.8021850585938,791.7582397460938
478,790.1465454101562,791.3552856445312,795.7875366210938,794.5787353515625
479,781.2820434570312,788.1318969726562,795.7875366210938,794.981689453125
480,781.6849975585938,785.3113403320312,795.3846435546875,781.6849975585938
481,785.7142944335938,788.5347900390625,797.8021850585938,777.2527465820312
482,788.1318969726562,790.5494384765625,797.8021850585938,782.893798828125
483,790.952392578125,794.981689453125,793.3699340820312,785.3113403320312
484,793.7728881835938,801.025634765625,797.3992919921875,782.087890625
485,790.952392578125,802.6373901367188,794.981689453125,780.4761962890625
486,791.3552856445312,800.2197875976562,792.967041015625,780.879150390625
487,789.3406372070312,793.7728881835938,796.5933837890625,777.6557006835938
488,786.1171875,792.5640869140625,794.981689453125,781.2820434570312
489,785.7142944335938,793.7728881835938,796.996337890625,785.7142944335938
490,787.3259887695312,791.7582397460938,799.4139404296875,793.3699340820312
491,789.7435913085938,792.5640869140625,799.8168334960938,795.3846435546875
492,792.1611938476562,793.3699340820312,800.6226806640625,793.7728881835938
493,796.1904907226562,792.1611938476562,796.5933837890625,799.8168334960938
494,794.1758422851562,794.1758422851562,792.1611938476562,793.7728881835938
495,792.967041015625,798.6080322265625,793.3699340820312,788.937744140625
496,799.4139404296875,800.6226806640625,799.010986328125,790.952392578125
497,796.996337890625,794.5787353515625,797.8021850585938,788.5347900390625
498,795.7875366210938,792.5640869140625,798.2051391601562,793.7728881835938
499,795.3846435546875,791.7582397460938,801.4285888671875,793.7728881835938
500,792.967041015625,790.952392578125,799.4139404296875,791.3552856445312
501,789.7435913085938,791.7582397460938,800.2197875976562,790.5494384765625
502,788.937744140625,791.3552856445312,807.069580078125,789.7435913085938
503,788.5347900390625,795.3846435546875,806.2637329101562,793.3699340820312
504,782.893798828125,800.2197875976562,804.2490844726562,792.967041015625
505,779.2673950195312,798.6080322265625,807.069580078125,796.1904907226562
506,780.0732421875,794.1758422851562,805.4578857421875,801.025634765625
507,787.3259887695312,796.5933837890625,799.4139404296875,794.5787353515625
508,792.967041015625,803.040283203125,794.981689453125,795.3846435546875
509,795.3846435546875,807.4725341796875,795.7875366210938,799.010986328125
510,791.3552856445312,806.2637329101562,794.981689453125,794.5787353515625
511,786.5201416015625,804.2490844726562,794.981689453125,788.5347900390625
512,784.1025390625,796.1904907226562,796.1904907226562,781.6849975585938
513,786.923095703125,792.967041015625,795.7875366210938,780.879150390625
514,788.937744140625,796.996337890625,799.8168334960938,786.5201416015625
515,784.1025390625,796.996337890625,799.4139404296875,787.7289428710938
516,780.879150390625,791.7582397460938,793.3699340820312,791.3552856445312
517,786.1171875,789.3406372070312,794.1758422851562,792.5640869140625
518,786.1171875,790.952392578125,794.981689453125,789.3406372070312
519,785.3113403320312,788.937744140625,794.981689453125,789.7435913085938
520,786.923095703125,783.6996459960938,794.981689453125,793.3699340820312
521,789.7435913085938,787.3259887695312,794.981689453125,794.5787353515625
522,792.1611938476562,793.3699340820312,795.3846435546875,792.1611938476562
523,790.5494384765625,792.5640869140625,796.1904907226562,790.1465454101562
524,791.7582397460938,791.3552856445312,790.952392578125,790.5494384765625
525,794.5787353515625,789.3406372070312,790.1465454101562,790.952392578125
526,790.1465454101562,786.1171875,792.967041015625,787.7289428710938
527,789.3406372070312,787.3259887695312,786.923095703125,781.6849975585938
528,793.7728881835938,791.7582397460938,787.7289428710938,782.087890625
529,794.1758422851562,789.7435913085938,786.1171875,778.8644409179688
530,794.5787353515625,788.5347900390625,785.7142944335938,775.6410522460938
531,794.5787353515625,790.1465454101562,787.7289428710938,779.2673950195312
532,793.7728881835938,789.3406372070312,783.6996459960938,785.3113403320312
533,795.3846435546875,790.1465454101562,788.1318969726562,788.937744140625
534,799.010986328125,794.1758422851562,787.7289428710938,791.7582397460938
535,795.7875366210938,794.5787353515625,785.7142944335938,795.7875366210938
536,793.7728881835938,793.3699340820312,791.7582397460938,799.4139404296875
537,799.010986328125,794.1758422851562,794.1758422851562,799.4139404296875
538,802.2344360351562,794.981689453125,793.7728881835938,800.2197875976562
539,806.2637329101562,798.2051391601562,797.8021850585938,807.069580078125
540,805.054931640625,796.5933837890625,808.2783813476562,812.7106323242188
541,788.5347900390625,792.5640869140625,809.89013671875,802.6373901367188
542,785.3113403320312,795.3846435546875,801.025634765625,796.5933837890625
543,801.025634765625,801.025634765625,796.1904907226562,801.4285888671875
544,792.967041015625,802.2344360351562,795.7875366210938,792.5640869140625
545,782.087890625,797.8021850585938,799.4139404296875,785.7142944335938
546,782.087890625,792.967041015625,797.8021850585938,786.1171875
547,781.6849975585938,793.7728881835938,794.981689453125,786.923095703125
548,789.3406372070312,796.996337890625,795.7875366210938,788.5347900390625
549,793.7728881835938,797.8021850585938,794.5787353515625,787.3259887695312
550,791.7582397460938,796.996337890625,797.3992919921875,782.893798828125
551,794.5787353515625,797.3992919921875,799.4139404296875,787.3259887695312
552,796.996337890625,797.8021850585938,796.996337890625,789.7435913085938
553,792.967041015625,798.2051391601562,799.010986328125,781.2820434570312
554,796.5933837890625,795.7875366210938,799.010986328125,782.4908447265625
555,793.7728881835938,793.7728881835938,793.7728881835938,782.087890625
556,782.4908447265625,791.3552856445312,794.5787353515625,778.8644409179688
557,783.2966918945312,788.1318969726562,796.996337890625,781.2820434570312
558,786.923095703125,788.5347900390625,794.5787353515625,784.5054931640625
559,784.5054931640625,784.1025390625,792.967041015625,780.879150390625
560,784.908447265625,785.7142944335938,798.2051391601562,781.2820434570312
561,784.1025390625,786.5201416015625,799.010986328125,785.3113403320312
562,781.2820434570312,787.3259887695312,792.967041015625,786.1171875
563,779.6703491210938,790.1465454101562,793.7728881835938,793.3699340820312
564,778.05859375,784.908447265625,794.1758422851562,792.5640869140625
565,777.6557006835938,784.908447265625,794.5787353515625,784.5054931640625
566,777.2527465820312,793.3699340820312,792.967041015625,787.3259887695312
567,781.2820434570312,794.5787353515625,790.5494384765625,790.952392578125
568,784.908447265625,794.1758422851562,792.967041015625,795.3846435546875
569,787.7289428710938,798.6080322265625,797.8021850585938,796.996337890625
570,794.5787353515625,801.4285888671875,799.010986328125,798.6080322265625
571,799.010986328125,801.4285888671875,799.010986328125,796.996337890625
572,793.3699340820312,799.4139404296875,800.2197875976562,786.1171875
573,788.5347900390625,796.996337890625,799.4139404296875,780.0732421875
574,792.1611938476562,800.2197875976562,801.8314819335938,787.7289428710938
575,793.7728881835938,799.4139404296875,799.010986328125,788.937744140625
576,788.5347900390625,794.981689453125,794.1758422851562,776.0439453125
577,790.5494384765625,793.7728881835938,799.8168334960938,778.05859375
578,797.8021850585938,791.3552856445312,801.8314819335938,785.7142944335938
579,802.6373901367188,796.1904907226562,802.6373901367188,787.7289428710938
580,804.2490844726562,803.8461303710938,800.6226806640625,790.952392578125
581,792.967041015625,795.7875366210938,798.2051391601562,788.1318969726562
582,785.7142944335938,790.1465454101562,795.7875366210938,785.7142944335938
583,786.1171875,796.1904907226562,792.5640869140625,790.952392578125
584,789.3406372070312,798.6080322265625,797.8021850585938,796.996337890625
585,788.1318969726562,795.3846435546875,799.4139404296875,798.2051391601562
586,783.6996459960938,791.3552856445312,790.952392578125,792.967041015625
587,783.2966918945312,788.5347900390625,791.7582397460938,790.952392578125
588,786.5201416015625,794.1758422851562,792.5640869140625,790.1465454101562
589,787.7289428710938,799.4139404296875,789.7435913085938,795.7875366210938
590,785.7142944335938,796.5933837890625,792.5640869140625,798.2051391601562
591,784.908447265625,796.5933837890625,793.3699340820312,788.1318969726562
592,780.879150390625,799.010986328125,792.967041015625,782.4908447265625
593,776.8497924804688,794.981689453125,791.3552856445312,776.0439453125
594,780.0732421875,789.7435913085938,793.3699340820312,774.4322509765625
595,784.1025390625,789.3406372070312,795.7875366210938,778.4615478515625
596,782.893798828125,790.5494384765625,796.5933837890625,780.879150390625
597,786.5201416015625,794.1758422851562,800.6226806640625,785.3113403320312
598,790.5494384765625,796.996337890625,800.6226806640625,787.7289428710938
599,791.3552856445312,796.1904907226562,799.4139404296875,788.1318969726562
600,795.3846435546875,794.5787353515625,799.8168334960938,788.937744140625
601,793.7728881835938,790.5494384765625,794.5787353515625,783.6996459960938
602,787.3259887695312,786.1171875,792.967041015625,778.4615478515625
603,787.3259887695312,785.3113403320312,796.5933837890625,778.4615478515625
604,791.3552856445312,786.1171875,795.3846435546875,781.2820434570312
605,796.996337890625,788.937744140625,794.1758422851562,788.937744140625
606,796.996337890625,789.3406372070312,794.5787353515625,795.3846435546875
607,795.7875366210938,792.967041015625,797.3992919921875,799.4139404296875
608,796.1904907226562,797.3992919921875,797.8021850585938,799.8168334960938
609,792.967041015625,797.8021850585938,795.3846435546875,797.3992919921875
610,796.1904907226562,793.3699340820312,797.8021850585938,801.8314819335938
611,797.8021850585938,788.1318969726562,802.2344360351562,807.069580078125
612,794.5787353515625,784.1025390625,799.4139404296875,807.87548828125
613,796.1904907226562,790.952392578125,794.981689453125,806.6666870117188
614,786.5201416015625,795.3846435546875,792.1611938476562,793.7728881835938
615,784.1025390625,793.3699340820312,788.5347900390625,789.7435913085938
616,794.1758422851562,791.3552856445312,787.3259887695312,791.7582397460938
617,788.937744140625,791.3552856445312,784.5054931640625,782.087890625
618,779.6703491210938,795.3846435546875,783.2966918945312,778.8644409179688
619,789.7435913085938,794.5787353515625,785.7142944335938,788.1318969726562
620,792.1611938476562,796.5933837890625,791.7582397460938,791.3552856445312
621,787.7289428710938,796.5933837890625,793.7728881835938,788.1318969726562
622,789.3406372070312,796.5933837890625,791.7582397460938,792.5640869140625
623,782.087890625,796.996337890625,791.3552856445312,786.5201416015625
624,785.7142944335938,790.952392578125,792.967041015625,785.3113403320312
625,793.7728881835938,793.7728881835938,796.1904907226562,786.923095703125
626,786.923095703125,796.5933837890625,791.7582397460938,774.8351440429688
627,782.087890625,791.3552856445312,785.7142944335938,778.05859375
628,785.3113403320312,793.3699340820312,787.7289428710938,787.3259887695312
629,791.7582397460938,798.2051391601562,794.5787353515625,790.1465454101562
630,796.1904907226562,798.2051391601562,794.5787353515625,788.5347900390625
631,794.1758422851562,796.5933837890625,790.5494384765625,790.1465454101562
632,791.7582397460938,795.7875366210938,792.967041015625,789.7435913085938
633,785.7142944335938,795.7875366210938,794.1758422851562,788.1318969726562
634,782.4908447265625,795.7875366210938,795.3846435546875,790.952392578125
635,784.1025390625,793.7728881835938,795.3846435546875,790.952392578125
636,783.6996459960938,794.1758422851562,790.5494384765625,794.981689453125
637,788.1318969726562,797.3992919921875,790.952392578125,792.5640869140625
638,788.5347900390625,801.4285888671875,793.7728881835938,787.3259887695312
639,781.2820434570312,803.4432373046875,790.952392578125,790.5494384765625
640,779.6703491210938,797.8021850585938,787.3259887695312,789.7435913085938
641,785.3113403320312,794.1758422851562,792.5640869140625,786.5201416015625
642,786.5201416015625,794.981689453125,793.3699340820312,787.3259887695312
643,785.7142944335938,793.7728881835938,789.7435913085938,790.5494384765625
644,782.087890625,788.5347900390625,792.5640869140625,790.1465454101562
645,785.3113403320312,783.6996459960938,790.1465454101562,791.3552856445312
646,792.5640869140625,785.7142944335938,788.1318969726562,788.937744140625
647,793.3699340820312,791.7582397460938,790.952392578125,794.981689453125
648,790.5494384765625,790.1465454101562,787.7289428710938,797.8021850585938
649,784.1025390625,782.893798828125,782.087890625,784.908447265625
650,786.923095703125,782.893798828125,784.5054931640625,781.6849975585938
651,791.7582397460938,782.893798828125,788.1318969726562,785.3113403320312
652,789.7435913085938,783.2966918945312,786.1171875,786.5201416015625
653,788.5347900390625,784.5054931640625,785.3113403320312,788.937744140625
654,788.1318969726562,783.6996459960938,786.923095703125,788.1318969726562
655,787.7289428710938,782.893798828125,789.3406372070312,788.5347900390625
656,792.5640869140625,786.1171875,794.1758422851562,793.7728881835938
657,795.7875366210938,787.3259887695312,796.1904907226562,794.1758422851562
658,791.3552856445312,788.937744140625,792.5640869140625,794.1758422851562
659,791.7582397460938,789.7435913085938,791.3552856445312,802.6373901367188
660,791.7582397460938,791.7582397460938,792.967041015625,796.5933837890625
661,788.5347900390625,795.7875366210938,792.5640869140625,788.937744140625
662,792.5640869140625,794.5787353515625,794.5787353515625,796.996337890625
663,795.7875366210938,798.2051391601562,797.3992919921875,801.025634765625
664,794.1758422851562,793.3699340820312,798.2051391601562,796.1904907226562
665,791.3552856445312,790.1465454101562,794.1758422851562,791.7582397460938
666,787.7289428710938,796.1904907226562,794.5787353515625,794.1758422851562
667,790.5494384765625,797.8021850585938,800.6226806640625,795.7875366210938
668,796.1904907226562,797.3992919921875,802.2344360351562,798.2051391601562
669,800.2197875976562,791.3552856445312,803.4432373046875,801.025634765625
670,796.996337890625,787.7289428710938,798.2051391601562,796.1904907226562
671,790.5494384765625,792.967041015625,795.7875366210938,792.1611938476562
672,796.5933837890625,799.010986328125,795.7875366210938,794.981689453125
673,801.4285888671875,798.2051391601562,792.5640869140625,794.1758422851562
674,796.996337890625,796.5933837890625,790.952392578125,790.1465454101562
675,787.7289428710938,795.7875366210938,788.1318969726562,782.087890625
676,791.3552856445312,794.981689453125,792.1611938476562,783.2966918945312
677,799.8168334960938,796.996337890625,796.1904907226562,786.923095703125
678,799.8168334960938,796.5933837890625,795.3846435546875,785.3113403320312
679,795.7875366210938,800.2197875976562,794.981689453125,787.7289428710938
680,793.7728881835938,802.2344360351562,794.981689453125,784.5054931640625
681,794.5787353515625,800.6226806640625,790.952392578125,781.2820434570312
682,796.996337890625,801.4285888671875,789.3406372070312,788.5347900390625
683,794.5787353515625,798.6080322265625,793.7728881835938,786.5201416015625
684,788.5347900390625,798.6080322265625,794.981689453125,777.6557006835938
685,786.1171875,799.010986328125,791.3552856445312,783.6996459960938
686,786.5201416015625,802.2344360351562,791.3552856445312,787.7289428710938
687,783.2966918945312,799.4139404296875,788.937744140625,776.4468994140625
688,787.3259887695312,788.937744140625,790.1465454101562,773.6264038085938
689,791.7582397460938,790.952392578125,795.7875366210938,788.1318969726562
690,782.087890625,797.8021850585938,793.3699340820312,786.5201416015625
691,782.893798828125,797.8021850585938,792.5640869140625,787.3259887695312
692,790.1465454101562,796.996337890625,794.981689453125,797.3992919921875
693,791.3552856445312,796.996337890625,795.7875366210938,792.967041015625
694,787.7289428710938,796.996337890625,796.1904907226562,791.3552856445312
695,784.1025390625,794.5787353515625,795.3846435546875,792.5640869140625
696,788.1318969726562,797.3992919921875,794.981689453125,794.5787353515625
697,794.1758422851562,797.3992919921875,799.8168334960938,804.2490844726562
698,799.4139404296875,798.2051391601562,800.2197875976562,809.4871826171875
699,795.3846435546875,800.2197875976562,794.981689453125,803.4432373046875
700,790.1465454101562,797.3992919921875,793.3699340820312,795.7875366210938
701,796.1904907226562,796.5933837890625,792.967041015625,796.1904907226562
702,797.8021850585938,796.1904907226562,790.1465454101562,801.025634765625
703,789.7435913085938,795.7875366210938,792.1611938476562,801.4285888671875
704,787.7289428710938,801.025634765625,795.7875366210938,799.4139404296875
705,787.3259887695312,799.010986328125,793.7728881835938,797.3992919921875
706,787.7289428710938,796.5933837890625,798.6080322265625,796.1904907226562
707,793.3699340820312,802.2344360351562,797.8021850585938,795.3846435546875
708,797.3992919921875,801.4285888671875,795.3846435546875,795.3846435546875
709,795.3846435546875,800.6226806640625,798.2051391601562,796.5933837890625
710,794.1758422851562,803.040283203125,798.6080322265625,789.7435913085938
711,792.5640869140625,800.2197875976562,791.7582397460938,782.4908447265625
712,792.5640869140625,800.6226806640625,790.1465454101562,789.3406372070312
713,790.952392578125,800.6226806640625,789.7435913085938,792.967041015625
714,789.3406372070312,799.8168334960938,788.1318969726562,786.1171875
715,787.7289428710938,798.2051391601562,792.967041015625,786.1171875
716,790.5494384765625,799.4139404296875,793.7728881835938,790.5494384765625
717,794.5787353515625,799.010986328125,794.5787353515625,794.5787353515625
718,791.3552856445312,797.3992919921875,792.1611938476562,790.1465454101562
719,792.1611938476562,802.6373901367188,793.7728881835938,789.3406372070312
720,792.967041015625,805.4578857421875,797.3992919921875,797.8021850585938
721,789.7435913085938,801.8314819335938,797.3992919921875,793.3699340820312
722,787.7289428710938,800.6226806640625,796.1904907226562,783.6996459960938
723,789.3406372070312,802.6373901367188,793.7728881835938,783.6996459960938
724,785.7142944335938,801.025634765625,794.1758422851562,783.2966918945312
725,782.087890625,794.981689453125,794.981689453125,780.0732421875
726,784.908447265625,794.1758422851562,793.7728881835938,784.908447265625
727,790.5494384765625,796.1904907226562,794.1758422851562,795.3846435546875
728,788.5347900390625,796.5933837890625,794.5787353515625,790.1465454101562
729,781.2820434570312,796.5933837890625,795.3846435546875,783.6996459960938
730,774.8351440429688,794.1758422851562,795.7875366210938,788.937744140625
731,774.4322509765625,794.1758422851562,795.7875366210938,786.1171875
732,783.6996459960938,797.3992919921875,799.4139404296875,791.7582397460938
733,791.7582397460938,799.010986328125,803.8461303710938,792.1611938476562
734,788.937744140625,801.4285888671875,795.7875366210938,784.1025390625
735,779.2673950195312,804.2490844726562,792.5640869140625,775.2380981445312
736,778.4615478515625,814.3223266601562,794.1758422851562,766.7765502929688
737,780.879150390625,815.93408203125,792.967041015625,765.970703125
738,774.4322509765625,801.8314819335938,784.5054931640625,756.7033081054688
739,770.0,799.010986328125,790.1465454101562,753.8828125
740,765.1648559570312,800.6226806640625,795.7875366210938,752.6740112304688
741,765.1648559570312,799.4139404296875,790.952392578125,751.8681030273438
742,763.9560546875,801.025634765625,792.5640869140625,751.4652099609375
743,750.2564086914062,795.3846435546875,790.1465454101562,747.8388061523438
744,734.945068359375,798.2051391601562,794.981689453125,736.959716796875
745,719.6337280273438,803.4432373046875,806.6666870117188,721.2454223632812
746,704.3223266601562,807.4725341796875,815.1282348632812,709.5604248046875
747,696.2637329101562,813.91943359375,817.94873046875,705.1282348632812
748,684.5787353515625,809.084228515625,821.1721801757812,697.069580078125
749,664.4322509765625,800.6226806640625,821.97802734375,681.7582397460938
750,659.1941528320312,809.084228515625,828.8278198242188,681.3552856445312
751,654.7619018554688,813.5164794921875,839.7069702148438,672.893798828125
752,645.4945068359375,810.2930297851562,841.7216186523438,657.9853515625
753,650.3296508789062,816.3369750976562,841.7216186523438,660.0
754,652.7472534179688,814.7252807617188,842.930419921875,668.05859375
755,645.8974609375,811.098876953125,846.5567626953125,663.2234497070312
756,645.4945068359375,807.4725341796875,846.5567626953125,653.9560546875
757,651.94140625,805.4578857421875,843.7362670898438,657.1795043945312
758,655.970703125,803.4432373046875,842.12451171875,661.6116943359375
759,667.2527465820312,803.040283203125,840.5128173828125,666.8497924804688
760,670.879150390625,804.6520385742188,841.7216186523438,674.5054931640625
761,666.8497924804688,807.87548828125,841.7216186523438,682.967041015625
762,676.5201416015625,813.5164794921875,840.10986328125,691.4285888671875
763,691.8314819335938,813.5164794921875,839.7069702148438,703.91943359375
764,699.084228515625,810.2930297851562,836.08056640625,716.4102783203125
765,703.113525390625,805.4578857421875,831.2454223632812,722.05126953125
766,721.2454223632812,808.6813354492188,827.2161254882812,742.6007080078125
767,732.12451171875,813.113525390625,822.7838745117188,751.8681030273438
768,733.3333129882812,804.6520385742188,819.96337890625,745.8241577148438
769,743.4066162109375,800.6226806640625,817.1428833007812,754.6886596679688
770,749.047607421875,804.6520385742188,815.93408203125,765.5677490234375
771,749.8534545898438,799.8168334960938,815.1282348632812,764.7619018554688
772,767.5823974609375,801.4285888671875,807.069580078125,778.05859375
773,777.6557006835938,807.4725341796875,806.2637329101562,790.5494384765625
774,777.6557006835938,805.054931640625,807.4725341796875,786.923095703125
775,788.1318969726562,804.2490844726562,801.8314819335938,794.5787353515625
776,796.1904907226562,801.8314819335938,797.3992919921875,798.2051391601562
777,803.8461303710938,797.3992919921875,792.5640869140625,802.6373901367188
778,811.5018310546875,794.5787353515625,785.7142944335938,805.054931640625
779,813.5164794921875,794.981689453125,778.8644409179688,803.040283203125
780,817.5457763671875,794.981689453125,779.2673950195312,808.6813354492188
781,819.1575317382812,787.3259887695312,777.6557006835938,806.2637329101562
782,819.96337890625,786.1171875,774.029296875,807.87548828125
783,824.3956298828125,790.952392578125,776.4468994140625,817.1428833007812
784,827.6190185546875,790.5494384765625,776.0439453125,825.2014770507812
785,820.3662719726562,787.3259887695312,774.4322509765625,825.6043701171875
786,816.7399291992188,784.5054931640625,771.2088012695312,823.99267578125
787,823.1868286132812,785.7142944335938,771.2088012695312,831.6483764648438
788,826.8131713867188,784.908447265625,767.5823974609375,831.2454223632812
789,831.6483764648438,785.7142944335938,761.1355590820312,833.6630249023438
790,832.05126953125,786.923095703125,766.3735961914062,830.8424682617188
791,822.7838745117188,786.923095703125,766.7765502929688,814.7252807617188
792,821.5750732421875,788.937744140625,763.1502075195312,812.7106323242188
793,826.00732421875,789.3406372070312,765.970703125,820.3662719726562
794,828.4249267578125,790.952392578125,763.1502075195312,820.3662719726562
795,828.8278198242188,790.5494384765625,762.7472534179688,821.1721801757812
796,829.6337280273438,787.3259887695312,761.5384521484375,822.7838745117188
797,832.05126953125,789.7435913085938,759.9267578125,823.5897216796875
798,828.4249267578125,791.7582397460938,763.9560546875,817.5457763671875
799,828.02197265625,790.1465454101562,763.9560546875,815.93408203125
800,832.4542236328125,789.7435913085938,764.3589477539062,829.2307739257812
801,830.03662109375,783.2966918945312,763.9560546875,833.6630249023438
802,829.2307739257812,778.4615478515625,761.1355590820312,826.8131713867188
803,833.6630249023438,780.4761962890625,764.7619018554688,825.2014770507812
804,840.10986328125,782.893798828125,765.1648559570312,832.4542236328125
805,839.7069702148438,788.937744140625,762.3442993164062,837.2893676757812
806,827.2161254882812,785.3113403320312,763.5531005859375,828.4249267578125
807,825.2014770507812,782.087890625,763.9560546875,826.4102783203125
808,834.4688720703125,786.923095703125,764.7619018554688,834.06591796875
809,838.4981689453125,789.3406372070312,768.3883056640625,840.915771484375
810,839.7069702148438,790.1465454101562,770.4029541015625,843.7362670898438
811,838.4981689453125,786.1171875,770.8058471679688,842.930419921875
812,837.2893676757812,781.6849975585938,772.4176025390625,839.7069702148438
813,835.6776733398438,783.2966918945312,776.0439453125,837.2893676757812
814,834.06591796875,786.1171875,777.2527465820312,836.08056640625
815,830.8424682617188,782.4908447265625,772.4176025390625,834.06591796875
816,823.5897216796875,782.4908447265625,772.0146484375,835.2747192382812
817,818.7545776367188,786.1171875,778.05859375,833.2600708007812
818,811.90478515625,781.2820434570312,780.879150390625,819.5604248046875
819,810.6959838867188,780.4761962890625,780.4761962890625,819.1575317382812
820,819.1575317382812,786.923095703125,780.879150390625,823.5897216796875
821,825.2014770507812,790.952392578125,780.879150390625,820.3662719726562
822,817.94873046875,793.7728881835938,780.879150390625,815.93408203125
823,811.5018310546875,796.1904907226562,780.0732421875,815.5311279296875
824,809.4871826171875,796.5933837890625,778.05859375,811.5018310546875
825,811.5018310546875,796.5933837890625,776.4468994140625,803.8461303710938
826,820.3662719726562,794.5787353515625,776.4468994140625,806.2637329101562
827,819.1575317382812,794.1758422851562,778.4615478515625,809.084228515625
828,811.90478515625,796.1904907226562,779.6703491210938,805.4578857421875
829,809.084228515625,794.981689453125,775.6410522460938,801.4285888671875
830,814.7252807617188,793.7728881835938,775.2380981445312,799.010986328125
831,816.3369750976562,789.3406372070312,778.8644409179688,799.8168334960938
832,809.4871826171875,790.1465454101562,774.4322509765625,799.010986328125
833,807.87548828125,795.3846435546875,771.6116943359375,792.1611938476562
834,809.4871826171875,797.3992919921875,778.8644409179688,790.952392578125
835,814.3223266601562,796.996337890625,781.6849975585938,792.1611938476562
836,815.5311279296875,794.5787353515625,782.893798828125,798.2051391601562
837,812.7106323242188,790.952392578125,788.1318969726562,804.6520385742188
838,805.8607788085938,788.937744140625,787.7289428710938,798.2051391601562
839,803.4432373046875,788.1318969726562,788.5347900390625,799.8168334960938
840,806.6666870117188,788.5347900390625,790.1465454101562,804.6520385742188
841,800.2197875976562,785.3113403320312,784.908447265625,793.7728881835938
842,795.7875366210938,783.2966918945312,784.5054931640625,792.5640869140625
843,799.4139404296875,790.1465454101562,790.5494384765625,796.996337890625
844,798.6080322265625,787.7289428710938,795.3846435546875,793.7728881835938
845,799.4139404296875,782.893798828125,794.5787353515625,793.7728881835938
846,804.2490844726562,786.1171875,791.7582397460938,798.2051391601562
847,804.2490844726562,785.7142944335938,792.967041015625,794.981689453125
848,798.6080322265625,784.908447265625,793.3699340820312,788.937744140625
849,794.1758422851562,788.1318969726562,795.3846435546875,795.7875366210938
850,799.4139404296875,789.3406372070312,799.010986328125,803.4432373046875
851,802.6373901367188,788.937744140625,805.054931640625,811.90478515625
852,802.6373901367188,793.3699340820312,802.6373901367188,807.87548828125
853,796.996337890625,790.1465454101562,795.3846435546875,794.981689453125
854,799.4139404296875,788.5347900390625,799.8168334960938,792.967041015625
855,799.8168334960938,792.1611938476562,796.1904907226562,790.1465454101562
856,801.4285888671875,789.7435913085938,792.5640869140625,792.1611938476562
857,809.4871826171875,789.7435913085938,799.010986328125,797.3992919921875
858,802.6373901367188,793.3699340820312,804.2490844726562,797.3992919921875
859,797.8021850585938,793.7728881835938,804.6520385742188,796.1904907226562
860,800.2197875976562,790.5494384765625,800.2197875976562,794.981689453125
861,799.8168334960938,794.5787353515625,794.981689453125,795.7875366210938
862,804.6520385742188,794.981689453125,794.981689453125,804.6520385742188
863,801.4285888671875,792.1611938476562,794.1758422851562,811.098876953125
864,796.5933837890625,792.1611938476562,792.967041015625,801.4285888671875
865,803.4432373046875,792.5640869140625,793.3699340820312,799.4139404296875
866,799.8168334960938,789.7435913085938,790.1465454101562,799.8168334960938
867,794.981689453125,785.3113403320312,790.952392578125,796.5933837890625
868,799.8168334960938,787.3259887695312,791.7582397460938,801.025634765625
869,800.2197875976562,791.3552856445312,790.952392578125,801.025634765625
870,794.1758422851562,792.1611938476562,789.7435913085938,792.967041015625
871,790.5494384765625,793.3699340820312,786.5201416015625,789.7435913085938
872,788.937744140625,791.3552856445312,785.7142944335938,790.952392578125
873,790.1465454101562,791.7582397460938,786.1171875,790.952392578125
874,791.7582397460938,794.1758422851562,787.7289428710938,790.5494384765625
875,786.5201416015625,791.7582397460938,792.5640869140625,787.7289428710938
876,785.7142944335938,786.5201416015625,791.3552856445312,785.7142944335938
877,787.7289428710938,790.5494384765625,790.5494384765625,785.3113403320312
878,789.3406372070312,797.8021850585938,792.5640869140625,788.5347900390625
879,790.952392578125,796.1904907226562,791.7582397460938,795.3846435546875
880,796.996337890625,796.1904907226562,794.1758422851562,799.4139404296875
881,802.2344360351562,793.7728881835938,791.3552856445312,802.6373901367188
882,800.6226806640625,793.3699340820312,788.5347900390625,805.054931640625
883,793.3699340820312,794.981689453125,794.5787353515625,796.1904907226562
884,787.7289428710938,790.5494384765625,798.2051391601562,787.7289428710938
885,792.5640869140625,790.952392578125,795.7875366210938,794.981689453125
886,796.996337890625,792.5640869140625,792.967041015625,796.996337890625
887,791.7582397460938,789.7435913085938,794.5787353515625,789.3406372070312
888,788.5347900390625,791.7582397460938,791.3552856445312,787.3259887695312
889,791.3552856445312,794.1758422851562,791.7582397460938,797.3992919921875
890,788.1318969726562,792.1611938476562,793.7728881835938,801.4285888671875
891,800.6226806640625,796.1904907226562,793.7728881835938,798.6080322265625
892,807.87548828125,798.2051391601562,794.5787353515625,800.2197875976562
893,797.3992919921875,794.981689453125,791.3552856445312,799.8168334960938
894,796.996337890625,793.7728881835938,792.967041015625,799.010986328125
895,796.5933837890625,791.7582397460938,794.981689453125,794.1758422851562
896,794.1758422851562,788.5347900390625,795.3846435546875,791.7582397460938
897,798.2051391601562,787.3259887695312,795.3846435546875,789.7435913085938
898,794.981689453125,786.1171875,792.1611938476562,785.3113403320312
899,785.7142944335938,788.1318969726562,791.7582397460938,786.923095703125
900,789.3406372070312,788.1318969726562,790.5494384765625,791.3552856445312
901,791.7582397460938,789.7435913085938,790.1465454101562,791.3552856445312
902,792.1611938476562,791.7582397460938,789.3406372070312,793.3699340820312
903,794.5787353515625,791.7582397460938,788.937744140625,794.1758422851562
904,793.7728881835938,794.5787353515625,791.3552856445312,795.3846435546875
905,792.967041015625,794.981689453125,792.5640869140625,791.7582397460938
906,794.981689453125,794.1758422851562,792.967041015625,788.937744140625
907,794.1758422851562,794.981689453125,792.1611938476562,788.5347900390625
908,792.1611938476562,796.5933837890625,792.1611938476562,794.1758422851562
909,788.1318969726562,795.3846435546875,791.7582397460938,803.040283203125
910,786.5201416015625,796.996337890625,794.981689453125,796.996337890625
911,789.7435913085938,799.8168334960938,796.996337890625,790.952392578125
912,790.1465454101562,794.981689453125,793.3699340820312,789.3406372070312
913,787.7289428710938,795.3846435546875,788.937744140625,784.1025390625
914,784.5054931640625,803.040283203125,786.923095703125,785.7142944335938
915,782.893798828125,801.4285888671875,787.7289428710938,788.1318969726562
916,787.7289428710938,797.8021850585938,790.952392578125,790.5494384765625
917,792.1611938476562,796.5933837890625,789.7435913085938,789.7435913085938
918,790.1465454101562,797.3992919921875,789.7435913085938,786.5201416015625
919,784.5054931640625,798.2051391601562,793.3699340820312,786.5201416015625
920,784.1025390625,799.4139404296875,795.7875366210938,787.7289428710938
921,786.5201416015625,796.996337890625,792.967041015625,786.1171875
922,786.923095703125,794.5787353515625,789.7435913085938,784.5054931640625
923,786.1171875,793.3699340820312,790.5494384765625,785.3113403320312
924,787.3259887695312,792.5640869140625,790.1465454101562,791.3552856445312
925,785.3113403320312,795.7875366210938,793.3699340820312,790.5494384765625
926,787.3259887695312,794.981689453125,792.967041015625,788.1318969726562
927,792.5640869140625,792.5640869140625,786.5201416015625,789.7435913085938
928,796.1904907226562,794.981689453125,790.952392578125,789.3406372070312
929,796.5933837890625,794.981689453125,792.967041015625,788.5347900390625
930,794.1758422851562,790.5494384765625,791.7582397460938,791.3552856445312
931,793.3699340820312,791.3552856445312,796.1904907226562,799.8168334960938
932,795.7875366210938,795.7875366210938,798.6080322265625,801.025634765625
933,798.6080322265625,798.2051391601562,799.8168334960938,803.040283203125
934,801.025634765625,798.2051391601562,798.2051391601562,803.040283203125
935,801.8314819335938,795.7875366210938,796.996337890625,807.069580078125
936,794.5787353515625,791.7582397460938,798.6080322265625,805.4578857421875
937,793.3699340820312,790.5494384765625,799.010986328125,798.2051391601562
938,798.6080322265625,788.5347900390625,800.2197875976562,801.4285888671875
939,797.3992919921875,785.7142944335938,804.2490844726562,801.4285888671875
940,792.5640869140625,785.3113403320312,803.4432373046875,796.5933837890625
941,790.5494384765625,785.7142944335938,797.8021850585938,788.5347900390625
942,792.967041015625,786.1171875,797.3992919921875,781.2820434570312
943,799.4139404296875,786.1171875,801.4285888671875,782.893798828125
944,797.3992919921875,787.3259887695312,799.4139404296875,780.0732421875
945,790.5494384765625,788.5347900390625,798.2051391601562,779.2673950195312
946,790.1465454101562,788.5347900390625,801.025634765625,784.5054931640625
947,788.1318969726562,787.3259887695312,799.010986328125,785.7142944335938
948,786.923095703125,786.5201416015625,796.5933837890625,788.1318969726562
949,789.7435913085938,790.1465454101562,796.5933837890625,788.937744140625
950,790.5494384765625,793.3699340820312,799.010986328125,786.1171875
951,787.3259887695312,793.3699340820312,799.010986328125,786.923095703125
952,785.7142944335938,791.7582397460938,799.4139404296875,781.6849975585938
953,783.2966918945312,789.3406372070312,798.6080322265625,780.4761962890625
954,783.2966918945312,792.1611938476562,793.7728881835938,782.087890625
955,786.1171875,798.6080322265625,794.981689453125,784.1025390625
956,783.6996459960938,794.981689453125,791.7582397460938,786.1171875
957,785.3113403320312,786.5201416015625,792.1611938476562,785.7142944335938
958,792.1611938476562,784.1025390625,791.3552856445312,789.3406372070312
959,788.5347900390625,788.1318969726562,790.1465454101562,790.5494384765625
960,784.908447265625,792.5640869140625,794.981689453125,784.908447265625
961,789.3406372070312,792.5640869140625,797.3992919921875,787.3259887695312
962,787.7289428710938,792.5640869140625,797.3992919921875,795.3846435546875
963,796.5933837890625,795.3846435546875,796.996337890625,795.7875366210938
964,805.4578857421875,794.5787353515625,794.1758422851562,796.5933837890625
965,801.025634765625,792.5640869140625,788.937744140625,798.2051391601562
966,797.8021850585938,794.5787353515625,788.937744140625,795.7875366210938
967,800.2197875976562,795.3846435546875,792.5640869140625,794.981689453125
968,800.6226806640625,793.3699340820312,793.7728881835938,789.3406372070312
969,798.6080322265625,790.1465454101562,792.967041015625,788.937744140625
970,794.5787353515625,790.5494384765625,796.5933837890625,792.5640869140625
971,787.3259887695312,796.1904907226562,796.996337890625,790.5494384765625
972,785.3113403320312,796.5933837890625,788.5347900390625,786.923095703125
973,790.1465454101562,796.996337890625,786.5201416015625,786.923095703125
974,794.5787353515625,797.8021850585938,789.3406372070312,790.5494384765625
975,794.981689453125,795.3846435546875,787.7289428710938,787.3259887695312
976,795.7875366210938,799.010986328125,788.5347900390625,788.5347900390625
977,789.7435913085938,796.1904907226562,791.3552856445312,785.3113403320312
978,790.952392578125,792.5640869140625,792.5640869140625,786.923095703125
979,798.2051391601562,797.8021850585938,793.7728881835938,793.3699340820312
980,797.3992919921875,801.8314819335938,790.952392578125,793.3699340820312
981,792.967041015625,799.010986328125,790.1465454101562,791.3552856445312
982,793.3699340820312,796.996337890625,792.967041015625,795.3846435546875
983,792.967041015625,794.1758422851562,790.952392578125,790.5494384765625
984,791.7582397460938,790.1465454101562,788.937744140625,785.7142944335938
985,792.5640869140625,790.952392578125,792.967041015625,795.7875366210938
986,791.7582397460938,793.3699340820312,793.3699340820312,801.025634765625
987,790.5494384765625,794.981689453125,790.952392578125,796.5933837890625
988,790.5494384765625,792.967041015625,788.937744140625,794.1758422851562
989,793.7728881835938,791.7582397460938,789.7435913085938,793.7728881835938
990,790.5494384765625,789.7435913085938,793.3699340820312,794.1758422851562
991,779.2673950195312,787.7289428710938,791.3552856445312,790.952392578125
992,774.8351440429688,785.3113403320312,785.3113403320312,788.5347900390625
993,777.2527465820312,782.893798828125,786.1171875,787.7289428710938
994,784.1025390625,784.5054931640625,788.937744140625,792.5640869140625
995,786.1171875,781.6849975585938,789.7435913085938,791.3552856445312
996,784.5054931640625,784.1025390625,793.3699340820312,796.5933837890625
997,783.2966918945312,788.1318969726562,796.996337890625,801.4285888671875
998,786.923095703125,782.4908447265625,798.2051391601562,790.5494384765625
999,790.952392578125,780.0732421875,793.3699340820312,786.5201416015625
1000,795.7875366210938,781.2820434570312,794.1758422851562,797.3992919921875
1001,797.3992919921875,784.5054931640625,793.7728881835938,800.2197875976562
1002,794.981689453125,786.1171875,794.1758422851562,796.1904907226562
1003,796.1904907226562,787.3259887695312,798.2051391601562,801.025634765625
1004,800.2197875976562,794.1758422851562,796.5933837890625,804.2490844726562
1005,800.6226806640625,793.7728881835938,796.5933837890625,804.2490844726562
1006,797.3992919921875,794.981689453125,795.3846435546875,799.8168334960938
1007,798.2051391601562,800.2197875976562,799.010986328125,796.5933837890625
1008,796.1904907226562,797.3992919921875,799.010986328125,799.4139404296875
1009,796.5933837890625,794.1758422851562,797.3992919921875,796.1904907226562
1010,794.1758422851562,790.1465454101562,794.5787353515625,788.1318969726562
1011,792.967041015625,788.1318969726562,791.7582397460938,795.3846435546875
1012,798.2051391601562,790.1465454101562,797.3992919921875,798.2051391601562
1013,801.8314819335938,791.3552856445312,800.6226806640625,795.7875366210938
1014,788.1318969726562,793.3699340820312,795.3846435546875,783.6996459960938
1015,778.05859375,795.3846435546875,790.5494384765625,779.6703491210938
1016,787.3259887695312,796.5933837890625,795.3846435546875,790.952392578125
1017,784.908447265625,796.5933837890625,799.4139404296875,787.7289428710938
1018,781.2820434570312,795.3846435546875,794.5787353515625,781.2820434570312
1019,787.7289428710938,794.981689453125,792.1611938476562,785.7142944335938
1020,792.967041015625,797.8021850585938,797.8021850585938,793.7728881835938
1021,791.3552856445312,798.2051391601562,796.996337890625,788.937744140625
1022,788.5347900390625,792.967041015625,796.1904907226562,792.967041015625
1023,787.3259887695312,790.1465454101562,797.3992919921875,794.981689453125
1024,793.3699340820312,794.1758422851562,795.7875366210938,798.6080322265625
1025,793.3699340820312,796.1904907226562,793.3699340820312,803.4432373046875
1026,792.967041015625,797.8021850585938,792.967041015625,803.8461303710938
1027,800.2197875976562,801.8314819335938,797.8021850585938,808.6813354492188
1028,800.2197875976562,800.2197875976562,800.6226806640625,803.8461303710938
1029,802.2344360351562,794.981689453125,796.1904907226562,799.010986328125
1030,804.6520385742188,791.3552856445312,799.010986328125,799.8168334960938
1031,799.8168334960938,788.5347900390625,799.010986328125,803.8461303710938
1032,796.996337890625,790.952392578125,797.8021850585938,803.040283203125
1033,796.1904907226562,794.981689453125,796.5933837890625,792.967041015625
1034,799.010986328125,795.3846435546875,794.5787353515625,793.3699340820312
1035,801.4285888671875,795.3846435546875,794.981689453125,792.1611938476562
1036,801.8314819335938,793.7728881835938,792.5640869140625,792.1611938476562
1037,797.8021850585938,792.967041015625,793.7728881835938,791.3552856445312
1038,790.1465454101562,796.996337890625,791.3552856445312,788.937744140625
1039,790.1465454101562,796.1904907226562,787.7289428710938,786.1171875
1040,792.967041015625,794.5787353515625,794.5787353515625,781.2820434570312
1041,788.1318969726562,792.1611938476562,792.5640869140625,780.879150390625
1042,782.893798828125,790.952392578125,790.5494384765625,781.6849975585938
1043,786.1171875,791.7582397460938,789.3406372070312,786.5201416015625
1044,788.937744140625,794.1758422851562,786.923095703125,790.1465454101562
1045,793.3699340820312,797.8021850585938,788.937744140625,786.5201416015625
1046,798.2051391601562,792.967041015625,795.7875366210938,790.952392578125
1047,790.952392578125,788.937744140625,797.3992919921875,792.967041015625
1048,790.952392578125,789.7435913085938,795.7875366210938,793.7728881835938
1049,796.996337890625,791.7582397460938,796.996337890625,793.3699340820312
1050,800.2197875976562,792.1611938476562,794.1758422851562,793.3699340820312
1051,801.8314819335938,794.5787353515625,796.996337890625,796.996337890625
1052,800.6226806640625,800.2197875976562,799.010986328125,796.1904907226562
1053,796.996337890625,801.025634765625,799.010986328125,793.7728881835938
1054,796.1904907226562,801.4285888671875,798.6080322265625,796.5933837890625
1055,796.996337890625,800.2197875976562,799.010986328125,797.3992919921875
1056,794.1758422851562,794.5787353515625,799.010986328125,790.5494384765625
1057,791.3552856445312,795.3846435546875,798.2051391601562,794.1758422851562
1058,790.5494384765625,802.2344360351562,799.8168334960938,793.7728881835938
1059,789.7435913085938,800.6226806640625,799.8168334960938,783.2966918945312
1060,790.952392578125,798.2051391601562,799.4139404296875,785.3113403320312
1061,794.981689453125,795.7875366210938,796.1904907226562,787.3259887695312
1062,790.5494384765625,793.7728881835938,793.7728881835938,791.3552856445312
1063,780.879150390625,794.981689453125,793.7728881835938,792.967041015625
1064,778.8644409179688,794.981689453125,790.952392578125,780.879150390625
1065,780.879150390625,787.7289428710938,790.952392578125,776.4468994140625
1066,785.7142944335938,786.5201416015625,793.3699340820312,782.893798828125
1067,781.6849975585938,790.952392578125,790.952392578125,778.05859375
1068,780.0732421875,794.981689453125,792.5640869140625,774.8351440429688
1069,786.5201416015625,795.7875366210938,793.3699340820312,783.6996459960938
1070,790.952392578125,790.5494384765625,792.5640869140625,790.1465454101562
1071,793.3699340820312,788.5347900390625,790.1465454101562,789.3406372070312
1072,798.6080322265625,791.3552856445312,790.952392578125,791.3552856445312
1073,801.8314819335938,792.967041015625,795.3846435546875,796.996337890625
1074,793.7728881835938,790.952392578125,790.952392578125,794.981689453125
1075,792.967041015625,784.908447265625,788.1318969726562,789.7435913085938
1076,800.6226806640625,785.3113403320312,789.3406372070312,798.2051391601562
1077,798.2051391601562,786.1171875,782.893798828125,803.040283203125
1078,791.3552856445312,789.3406372070312,783.2966918945312,801.025634765625
1079,788.937744140625,794.981689453125,788.937744140625,799.010986328125
1080,795.7875366210938,794.5787353515625,792.1611938476562,799.4139404296875
1081,794.5787353515625,793.7728881835938,793.7728881835938,799.010986328125
1082,784.908447265625,788.937744140625,792.1611938476562,792.967041015625
1083,779.2673950195312,786.1171875,798.2051391601562,785.3113403320312
1084,774.8351440429688,786.923095703125,798.6080322265625,780.879150390625
1085,773.6264038085938,783.2966918945312,792.5640869140625,780.0732421875
1086,778.4615478515625,788.1318969726562,792.967041015625,783.6996459960938
1087,779.2673950195312,791.7582397460938,794.981689453125,779.6703491210938
1088,778.4615478515625,789.3406372070312,796.5933837890625,779.2673950195312
1089,774.029296875,791.7582397460938,798.2051391601562,780.4761962890625
1090,774.8351440429688,791.7582397460938,800.6226806640625,782.4908447265625
1091,782.4908447265625,787.7289428710938,799.8168334960938,786.1171875
1092,781.6849975585938,782.893798828125,798.2051391601562,785.3113403320312
1093,782.087890625,786.5201416015625,794.5787353515625,790.5494384765625
1094,784.908447265625,793.7728881835938,790.952392578125,783.2966918945312
1095,782.4908447265625,795.7875366210938,792.967041015625,780.4761962890625
1096,787.3259887695312,796.5933837890625,794.5787353515625,787.7289428710938
1097,796.1904907226562,797.3992919921875,797.3992919921875,788.1318969726562
1098,793.3699340820312,799.8168334960938,795.7875366210938,788.1318969726562
1099,789.3406372070312,801.025634765625,795.7875366210938,790.5494384765625
1100,789.3406372070312,794.981689453125,800.6226806640625,794.5787353515625
1101,789.7435913085938,790.5494384765625,794.981689453125,795.7875366210938
1102,790.952392578125,792.5640869140625,795.3846435546875,799.010986328125
1103,791.3552856445312,793.3699340820312,796.1904907226562,795.3846435546875
1104,792.5640869140625,796.1904907226562,793.7728881835938,794.981689453125
1105,796.1904907226562,799.4139404296875,799.8168334960938,798.2051391601562
1106,792.5640869140625,795.3846435546875,805.054931640625,791.3552856445312
1107,789.7435913085938,790.1465454101562,806.2637329101562,787.3259887695312
1108,788.937744140625,792.1611938476562,800.6226806640625,787.3259887695312
1109,783.6996459960938,792.967041015625,798.6080322265625,788.1318969726562
1110,783.6996459960938,793.7728881835938,797.3992919921875,787.7289428710938
1111,783.2966918945312,792.5640869140625,794.981689453125,784.908447265625
1112,784.908447265625,795.7875366210938,796.5933837890625,784.908447265625
1113,790.952392578125,800.2197875976562,799.010986328125,785.7142944335938
1114,790.5494384765625,798.2051391601562,796.996337890625,785.3113403320312
1115,784.5054931640625,796.5933837890625,795.3846435546875,784.5054931640625
1116,787.7289428710938,795.3846435546875,798.6080322265625,787.7289428710938
1117,790.952392578125,794.1758422851562,799.010986328125,781.2820434570312
1118,788.5347900390625,789.3406372070312,794.981689453125,776.0439453125
1119,788.937744140625,792.1611938476562,798.2051391601562,781.6849975585938
1120,786.5201416015625,793.7728881835938,803.4432373046875,785.7142944335938
1121,788.1318969726562,791.7582397460938,799.010986328125,785.7142944335938
1122,792.1611938476562,792.1611938476562,798.2051391601562,786.1171875
1123,795.3846435546875,790.5494384765625,801.4285888671875,792.5640869140625
1124,795.3846435546875,790.5494384765625,800.6226806640625,792.5640869140625
1125,794.5787353515625,783.6996459960938,798.6080322265625,793.7728881835938
1126,793.3699340820312,784.1025390625,790.952392578125,793.3699340820312
1127,793.3699340820312,788.937744140625,786.923095703125,789.3406372070312
1128,794.1758422851562,791.7582397460938,789.7435913085938,790.952392578125
1129,787.3259887695312,794.981689453125,792.967041015625,784.1025390625
1130,786.5201416015625,797.8021850585938,792.967041015625,782.087890625
1131,784.1025390625,794.5787353515625,789.3406372070312,784.908447265625
1132,776.4468994140625,793.7728881835938,788.1318969726562,777.2527465820312
1133,782.4908447265625,796.5933837890625,789.3406372070312,773.6264038085938
1134,784.1025390625,791.3552856445312,791.3552856445312,775.6410522460938
1135,784.908447265625,786.1171875,789.3406372070312,775.2380981445312
1136,788.1318969726562,787.7289428710938,788.1318969726562,781.6849975585938
1137,789.3406372070312,793.3699340820312,790.1465454101562,788.1318969726562
1138,786.923095703125,790.952392578125,789.7435913085938,784.1025390625
1139,784.5054931640625,791.3552856445312,790.952392578125,792.5640869140625
1140,786.1171875,798.2051391601562,795.7875366210938,793.7728881835938
1141,787.3259887695312,796.5933837890625,798.2051391601562,790.1465454101562
1142,791.3552856445312,792.5640869140625,791.7582397460938,796.1904907226562
1143,788.5347900390625,789.3406372070312,790.5494384765625,793.7728881835938
1144,784.908447265625,787.7289428710938,794.5787353515625,790.5494384765625
1145,783.6996459960938,788.1318969726562,795.7875366210938,792.5640869140625
1146,781.6849975585938,788.5347900390625,794.1758422851562,793.3699340820312
1147,786.5201416015625,786.923095703125,793.3699340820312,794.5787353515625
1148,789.7435913085938,783.2966918945312,795.7875366210938,799.4139404296875
1149,792.967041015625,789.3406372070312,795.3846435546875,800.6226806640625
1150,794.5787353515625,792.967041015625,797.3992919921875,800.6226806640625
1151,791.7582397460938,795.3846435546875,798.6080322265625,798.2051391601562
1152,792.5640869140625,793.7728881835938,799.8168334960938,794.981689453125
1153,796.996337890625,789.3406372070312,799.4139404296875,796.5933837890625
1154,802.6373901367188,792.1611938476562,794.981689453125,794.5787353515625
1155,804.6520385742188,792.1611938476562,794.5787353515625,791.3552856445312
1156,799.010986328125,789.3406372070312,793.3699340820312,791.7582397460938
1157,798.2051391601562,790.5494384765625,790.5494384765625,793.3699340820312
1158,798.2051391601562,791.3552856445312,790.1465454101562,790.5494384765625
1159,793.3699340820312,792.5640869140625,792.5640869140625,785.3113403320312
1160,795.7875366210938,793.7728881835938,795.7875366210938,787.7289428710938
1161,795.3846435546875,792.967041015625,794.981689453125,787.3259887695312
1162,791.7582397460938,790.1465454101562,791.3552856445312,780.4761962890625
1163,798.2051391601562,793.3699340820312,793.7728881835938,785.3113403320312
1164,797.8021850585938,797.8021850585938,796.996337890625,792.5640869140625
1165,787.3259887695312,790.5494384765625,794.981689453125,792.967041015625
1166,786.1171875,790.1465454101562,797.8021850585938,801.025634765625
1167,784.908447265625,791.3552856445312,795.3846435546875,793.7728881835938
1168,785.7142944335938,788.937744140625,790.952392578125,783.6996459960938
1169,789.3406372070312,793.7728881835938,792.5640869140625,787.7289428710938
1170,781.2820434570312,795.3846435546875,791.3552856445312,784.5054931640625
1171,775.6410522460938,793.7728881835938,791.3552856445312,780.4761962890625
1172,779.2673950195312,788.5347900390625,791.7582397460938,777.2527465820312
1173,792.1611938476562,788.937744140625,795.3846435546875,788.937744140625
1174,794.981689453125,792.1611938476562,797.3992919921875,794.1758422851562
1175,789.7435913085938,790.1465454101562,795.7875366210938,789.3406372070312
1176,790.1465454101562,792.5640869140625,799.8168334960938,790.5494384765625
1177,791.7582397460938,794.1758422851562,802.2344360351562,793.3699340820312
1178,795.3846435546875,797.3992919921875,800.6226806640625,794.1758422851562
1179,798.2051391601562,798.6080322265625,800.6226806640625,791.3552856445312
1180,792.5640869140625,796.5933837890625,801.025634765625,789.7435913085938
1181,783.2966918945312,801.025634765625,794.5787353515625,786.923095703125
1182,790.952392578125,802.2344360351562,790.952392578125,793.3699340820312
1183,799.010986328125,800.6226806640625,792.5640869140625,794.981689453125
1184,803.4432373046875,801.025634765625,794.1758422851562,796.1904907226562
1185,805.8607788085938,802.6373901367188,794.5787353515625,801.8314819335938
1186,799.8168334960938,799.4139404296875,794.5787353515625,795.7875366210938
1187,792.1611938476562,794.5787353515625,791.7582397460938,787.7289428710938
1188,789.3406372070312,794.1758422851562,789.3406372070312,786.923095703125
1189,792.967041015625,796.996337890625,792.5640869140625,785.3113403320312
1190,786.5201416015625,798.6080322265625,792.1611938476562,774.8351440429688
1191,786.5201416015625,798.6080322265625,790.5494384765625,776.4468994140625
1192,787.7289428710938,800.2197875976562,794.1758422851562,780.879150390625
1193,787.3259887695312,796.5933837890625,795.7875366210938,780.879150390625
1194,798.6080322265625,791.7582397460938,797.8021850585938,786.5201416015625
1195,798.6080322265625,792.1611938476562,796.996337890625,790.952392578125
1196,793.3699340820312,792.1611938476562,792.967041015625,787.3259887695312
1197,800.2197875976562,796.5933837890625,797.3992919921875,790.1465454101562
1198,803.4432373046875,801.8314819335938,797.8021850585938,792.5640869140625
1199,801.8314819335938,797.3992919921875,793.3699340820312,786.1171875
1200,805.054931640625,795.3846435546875,791.3552856445312,794.981689453125
1201,804.6520385742188,797.3992919921875,792.5640869140625,804.2490844726562
1202,795.3846435546875,795.7875366210938,793.3699340820312,792.1611938476562
1203,796.996337890625,794.1758422851562,793.3699340820312,787.7289428710938
1204,800.6226806640625,791.3552856445312,796.1904907226562,790.5494384765625
1205,797.8021850585938,788.937744140625,792.967041015625,788.937744140625
1206,790.5494384765625,786.5201416015625,789.7435913085938,788.1318969726562
1207,785.7142944335938,784.5054931640625,791.7582397460938,790.5494384765625
1208,790.1465454101562,786.1171875,792.1611938476562,792.5640869140625
1209,796.1904907226562,787.3259887695312,792.1611938476562,790.952392578125
1210,798.2051391601562,796.5933837890625,792.5640869140625,786.923095703125
1211,796.996337890625,803.040283203125,789.7435913085938,791.7582397460938
1212,796.1904907226562,799.010986328125,791.3552856445312,806.2637329101562
1213,796.1904907226562,799.010986328125,794.5787353515625,800.2197875976562
1214,805.8607788085938,801.4285888671875,794.1758422851562,796.5933837890625
1215,808.6813354492188,796.996337890625,799.010986328125,801.025634765625
1216,793.7728881835938,794.5787353515625,801.8314819335938,790.952392578125
1217,791.7582397460938,798.6080322265625,796.996337890625,788.5347900390625
1218,801.4285888671875,794.5787353515625,795.3846435546875,790.5494384765625
1219,807.87548828125,791.7582397460938,797.8021850585938,788.937744140625
1220,804.6520385742188,790.1465454101562,798.6080322265625,790.952392578125
1221,792.967041015625,786.923095703125,793.7728881835938,788.5347900390625
1222,785.3113403320312,791.7582397460938,791.3552856445312,781.2820434570312
1223,787.3259887695312,796.5933837890625,792.5640869140625,793.3699340820312
1224,789.3406372070312,794.5787353515625,793.3699340820312,799.4139404296875
1225,792.967041015625,793.3699340820312,795.3846435546875,796.996337890625
1226,794.1758422851562,793.7728881835938,797.8021850585938,801.8314819335938
1227,791.3552856445312,791.3552856445312,803.8461303710938,795.3846435546875
1228,792.967041015625,787.7289428710938,801.025634765625,790.952392578125
1229,792.1611938476562,787.3259887695312,793.3699340820312,790.5494384765625
1230,788.5347900390625,784.908447265625,792.1611938476562,788.1318969726562
1231,783.2966918945312,782.087890625,796.996337890625,788.5347900390625
1232,788.5347900390625,787.3259887695312,799.4139404296875,786.923095703125
1233,792.5640869140625,789.3406372070312,796.996337890625,781.2820434570312
1234,787.7289428710938,785.3113403320312,796.1904907226562,785.7142944335938
1235,787.3259887695312,785.3113403320312,797.8021850585938,793.3699340820312
1236,786.5201416015625,792.5640869140625,799.4139404296875,792.967041015625
1237,777.6557006835938,794.981689453125,799.4139404296875,787.3259887695312
1238,774.029296875,791.7582397460938,795.7875366210938,785.7142944335938
1239,779.6703491210938,790.952392578125,799.010986328125,794.981689453125
1240,782.893798828125,792.1611938476562,799.8168334960938,794.981689453125
1241,785.7142944335938,797.8021850585938,799.8168334960938,791.3552856445312
1242,786.5201416015625,801.8314819335938,801.025634765625,793.7728881835938
1243,785.3113403320312,798.6080322265625,798.2051391601562,792.5640869140625
1244,790.5494384765625,795.7875366210938,797.3992919921875,793.7728881835938
1245,791.7582397460938,797.8021850585938,795.7875366210938,791.3552856445312
1246,788.1318969726562,794.981689453125,793.7728881835938,796.996337890625
1247,783.6996459960938,788.5347900390625,795.7875366210938,798.6080322265625
1248,783.2966918945312,792.1611938476562,794.981689453125,789.3406372070312
1249,784.1025390625,793.3699340820312,794.1758422851562,786.1171875
1250,786.1171875,789.3406372070312,794.1758422851562,782.4908447265625
1251,790.952392578125,793.7728881835938,792.967041015625,786.1171875
1252,786.1171875,801.4285888671875,796.1904907226562,780.0732421875
1253,789.3406372070312,800.6226806640625,797.3992919921875,780.0732421875
1254,796.5933837890625,796.996337890625,799.8168334960938,787.3259887695312
1255,792.5640869140625,796.1904907226562,798.2051391601562,785.3113403320312
1256,792.967041015625,795.7875366210938,792.967041015625,785.7142944335938
1257,791.3552856445312,794.981689453125,790.952392578125,787.3259887695312
1258,785.7142944335938,796.5933837890625,787.7289428710938,786.1171875
1259,786.923095703125,798.6080322265625,788.5347900390625,786.1171875
1260,788.1318969726562,794.981689453125,789.7435913085938,783.2966918945312
1261,792.5640869140625,794.1758422851562,791.3552856445312,788.5347900390625
1262,800.2197875976562,802.6373901367188,794.981689453125,801.8314819335938
1263,796.5933837890625,802.6373901367188,799.4139404296875,800.2197875976562
1264,791.7582397460938,799.4139404296875,800.2197875976562,792.1611938476562
1265,791.3552856445312,799.010986328125,797.8021850585938,793.3699340820312
1266,794.1758422851562,797.3992919921875,796.1904907226562,799.010986328125
1267,790.952392578125,789.7435913085938,793.7728881835938,790.1465454101562
1268,787.7289428710938,787.7289428710938,791.7582397460938,779.6703491210938
1269,786.1171875,790.1465454101562,788.1318969726562,790.1465454101562
1270,779.6703491210938,790.1465454101562,792.967041015625,800.6226806640625
1271,778.4615478515625,795.3846435546875,795.7875366210938,795.7875366210938
1272,780.0732421875,798.2051391601562,794.1758422851562,794.981689453125
1273,780.879150390625,796.5933837890625,791.3552856445312,792.5640869140625
1274,778.05859375,792.967041015625,787.7289428710938,780.879150390625
1275,777.2527465820312,793.3699340820312,788.937744140625,775.6410522460938
1276,792.5640869140625,803.8461303710938,797.8021850585938,784.5054931640625
1277,793.7728881835938,801.8314819335938,798.2051391601562,789.7435913085938
1278,787.3259887695312,796.996337890625,796.1904907226562,786.1171875
1279,787.3259887695312,799.4139404296875,797.8021850585938,785.3113403320312
1280,782.893798828125,796.5933837890625,793.7728881835938,786.5201416015625
1281,787.7289428710938,795.7875366210938,791.3552856445312,788.937744140625
1282,792.1611938476562,795.3846435546875,792.5640869140625,789.7435913085938
1283,788.1318969726562,790.1465454101562,788.937744140625,785.7142944335938
1284,787.3259887695312,789.7435913085938,786.923095703125,782.893798828125
1285,789.7435913085938,791.7582397460938,784.5054931640625,785.7142944335938
1286,799.010986328125,794.1758422851562,788.1318969726562,790.952392578125
1287,800.6226806640625,792.5640869140625,791.7582397460938,788.1318969726562
1288,793.7728881835938,786.1171875,789.3406372070312,784.5054931640625
1289,790.5494384765625,787.7289428710938,792.967041015625,786.1171875
1290,795.3846435546875,794.981689453125,794.5787353515625,792.5640869140625
1291,802.2344360351562,795.7875366210938,799.010986328125,799.010986328125
1292,800.6226806640625,792.967041015625,801.025634765625,798.6080322265625
1293,800.2197875976562,796.5933837890625,795.7875366210938,809.084228515625
1294,793.7728881835938,802.2344360351562,793.7728881835938,810.6959838867188
1295,792.967041015625,803.8461303710938,799.4139404296875,797.8021850585938
1296,797.3992919921875,800.2197875976562,800.6226806640625,797.3992919921875
1297,788.5347900390625,796.1904907226562,796.996337890625,794.1758422851562
1298,783.6996459960938,796.5933837890625,794.5787353515625,789.7435913085938
1299,781.2820434570312,794.1758422851562,796.1904907226562,794.981689453125
1300,784.908447265625,790.1465454101562,798.2051391601562,805.054931640625
1301,791.3552856445312,791.7582397460938,797.8021850585938,804.6520385742188
1302,792.1611938476562,794.5787353515625,797.8021850585938,798.6080322265625
1303,792.1611938476562,790.1465454101562,798.6080322265625,794.5787353515625
1304,788.937744140625,788.5347900390625,796.996337890625,794.5787353515625
1305,794.1758422851562,791.3552856445312,795.3846435546875,798.6080322265625
1306,800.2197875976562,791.7582397460938,792.967041015625,791.7582397460938
1307,803.040283203125,790.952392578125,792.967041015625,788.937744140625
1308,802.6373901367188,790.952392578125,794.5787353515625,792.967041015625
1309,800.2197875976562,792.967041015625,793.7728881835938,788.1318969726562
1310,798.6080322265625,791.3552856445312,795.3846435546875,784.908447265625
1311,796.1904907226562,787.3259887695312,792.967041015625,787.7289428710938
1312,797.3992919921875,786.923095703125,789.3406372070312,785.3113403320312
1313,800.2197875976562,793.3699340820312,792.5640869140625,786.5201416015625
1314,801.025634765625,796.996337890625,794.1758422851562,792.967041015625
1315,797.8021850585938,794.981689453125,794.1758422851562,792.967041015625
1316,794.981689453125,792.5640869140625,794.5787353515625,795.7875366210938
1317,795.3846435546875,790.5494384765625,797.3992919921875,795.3846435546875
1318,797.3992919921875,793.7728881835938,797.8021850585938,790.5494384765625
1319,792.5640869140625,790.952392578125,795.7875366210938,796.1904907226562
1320,786.923095703125,790.5494384765625,791.7582397460938,796.5933837890625
1321,792.1611938476562,794.1758422851562,793.7728881835938,791.3552856445312
1322,793.7728881835938,794.981689453125,794.5787353515625,795.3846435546875
1323,788.937744140625,796.996337890625,793.3699340820312,793.3699340820312
1324,784.5054931640625,796.5933837890625,792.967041015625,782.4908447265625
1325,783.6996459960938,797.8021850585938,790.952392578125,780.0732421875
1326,784.5054931640625,796.1904907226562,790.5494384765625,785.3113403320312
1327,786.5201416015625,793.3699340820312,792.1611938476562,787.7289428710938
1328,788.5347900390625,794.981689453125,794.5787353515625,785.3113403320312
1329,791.3552856445312,796.5933837890625,799.4139404296875,787.3259887695312
1330,796.996337890625,796.1904907226562,803.040283203125,793.7728881835938
1331,797.3992919921875,799.010986328125,803.4432373046875,796.996337890625
1332,794.981689453125,801.4285888671875,803.040283203125,791.7582397460938
1333,798.6080322265625,800.2197875976562,796.5933837890625,786.923095703125
1334,799.010986328125,801.025634765625,789.3406372070312,784.908447265625
1335,795.7875366210938,800.6226806640625,788.5347900390625,783.2966918945312
1336,799.010986328125,800.6226806640625,792.967041015625,788.937744140625
1337,804.2490844726562,800.6226806640625,794.5787353515625,789.3406372070312
1338,801.025634765625,796.1904907226562,791.7582397460938,791.3552856445312
1339,796.996337890625,793.7728881835938,788.5347900390625,786.923095703125
1340,797.3992919921875,800.6226806640625,790.5494384765625,782.893798828125
1341,801.4285888671875,801.8314819335938,792.1611938476562,788.937744140625
1342,801.025634765625,793.7728881835938,791.3552856445312,794.5787353515625
1343,790.952392578125,790.1465454101562,793.3699340820312,796.996337890625
1344,786.923095703125,789.7435913085938,795.3846435546875,794.981689453125
1345,782.087890625,786.5201416015625,793.7728881835938,788.5347900390625
1346,774.8351440429688,786.1171875,792.967041015625,783.6996459960938
1347,776.8497924804688,788.1318969726562,793.3699340820312,787.3259887695312
1348,778.8644409179688,786.5201416015625,790.1465454101562,789.7435913085938
1349,778.05859375,786.1171875,788.5347900390625,785.3113403320312
1350,774.029296875,787.3259887695312,789.7435913085938,780.0732421875
1351,775.6410522460938,788.1318969726562,789.3406372070312,778.4615478515625
1352,784.1025390625,786.1171875,793.7728881835938,780.879150390625
1353,786.1171875,788.5347900390625,794.981689453125,786.5201416015625
1354,786.1171875,793.7728881835938,789.7435913085938,789.3406372070312
1355,784.908447265625,789.7435913085938,793.3699340820312,784.1025390625
1356,782.893798828125,793.7728881835938,794.981689453125,778.4615478515625
1357,783.6996459960938,796.996337890625,792.967041015625,781.2820434570312
1358,786.923095703125,795.3846435546875,796.1904907226562,789.7435913085938
1359,792.1611938476562,799.8168334960938,795.3846435546875,789.3406372070312
1360,791.3552856445312,798.2051391601562,796.1904907226562,786.5201416015625
1361,785.7142944335938,797.8021850585938,797.8021850585938,785.3113403320312
1362,788.1318969726562,800.2197875976562,796.996337890625,786.923095703125
1363,793.7728881835938,797.3992919921875,798.2051391601562,787.3259887695312
1364,794.5787353515625,796.1904907226562,802.2344360351562,790.1465454101562
1365,792.5640869140625,797.3992919921875,803.040283203125,796.5933837890625
1366,791.3552856445312,795.3846435546875,798.2051391601562,793.7728881835938
1367,793.3699340820312,794.981689453125,795.3846435546875,790.5494384765625
1368,793.7728881835938,797.3992919921875,794.1758422851562,789.3406372070312
1369,792.1611938476562,796.5933837890625,791.7582397460938,796.1904907226562
1370,786.5201416015625,792.967041015625,791.7582397460938,796.996337890625
1371,784.5054931640625,791.3552856445312,789.7435913085938,783.2966918945312
1372,792.967041015625,790.952392578125,786.5201416015625,788.5347900390625
1373,800.6226806640625,788.937744140625,798.6080322265625,806.2637329101562
1374,795.3846435546875,792.5640869140625,804.2490844726562,797.8021850585938
1375,783.6996459960938,801.4285888671875,795.7875366210938,778.05859375
1376,780.0732421875,802.2344360351562,795.7875366210938,777.6557006835938
1377,780.879150390625,796.1904907226562,791.7582397460938,776.8497924804688
1378,782.087890625,793.3699340820312,790.5494384765625,774.4322509765625
1379,785.7142944335938,795.3846435546875,794.981689453125,776.0439453125
1380,784.5054931640625,794.1758422851562,789.7435913085938,776.4468994140625
1381,782.087890625,790.1465454101562,789.3406372070312,776.0439453125
1382,782.893798828125,797.3992919921875,791.3552856445312,773.2234497070312
1383,787.3259887695312,801.4285888671875,790.5494384765625,776.4468994140625
1384,791.3552856445312,799.010986328125,790.952392578125,782.087890625
1385,785.7142944335938,793.3699340820312,788.937744140625,785.7142944335938
1386,782.087890625,788.1318969726562,787.3259887695312,786.923095703125
1387,788.1318969726562,786.923095703125,790.5494384765625,793.3699340820312
1388,792.967041015625,787.3259887695312,789.3406372070312,800.6226806640625
1389,792.5640869140625,787.3259887695312,786.923095703125,798.6080322265625
1390,790.952392578125,784.908447265625,785.7142944335938,790.5494384765625
1391,786.923095703125,786.5201416015625,787.3259887695312,784.908447265625
1392,787.7289428710938,788.937744140625,790.5494384765625,793.3699340820312
1393,792.1611938476562,788.1318969726562,793.3699340820312,798.6080322265625
1394,792.967041015625,788.937744140625,795.7875366210938,792.967041015625
1395,793.3699340820312,792.1611938476562,796.5933837890625,796.1904907226562
1396,785.3113403320312,791.7582397460938,794.1758422851562,796.5933837890625
1397,782.893798828125,789.3406372070312,796.1904907226562,795.3846435546875
1398,788.1318969726562,787.7289428710938,796.5933837890625,792.1611938476562
1399,791.3552856445312,786.5201416015625,792.5640869140625,793.3699340820312
1400,790.952392578125,789.7435913085938,795.7875366210938,796.996337890625
1401,784.908447265625,791.7582397460938,799.010986328125,792.5640869140625
1402,783.2966918945312,790.952392578125,795.7875366210938,786.923095703125
1403,785.3113403320312,790.1465454101562,793.3699340820312,784.5054931640625
1404,788.5347900390625,788.5347900390625,792.5640869140625,790.952392578125
1405,788.937744140625,789.7435913085938,788.1318969726562,791.3552856445312
1406,785.3113403320312,791.3552856445312,789.7435913085938,785.3113403320312
1407,781.2820434570312,789.3406372070312,793.3699340820312,784.1025390625
1408,786.923095703125,789.7435913085938,792.967041015625,783.6996459960938
1409,790.1465454101562,793.7728881835938,795.7875366210938,787.7289428710938
1410,789.7435913085938,793.3699340820312,796.996337890625,791.3552856445312
1411,792.1611938476562,792.5640869140625,796.5933837890625,788.5347900390625
1412,793.3699340820312,794.981689453125,796.996337890625,784.908447265625
1413,802.2344360351562,801.025634765625,794.981689453125,792.5640869140625
1414,801.4285888671875,799.4139404296875,795.3846435546875,791.7582397460938
1415,794.981689453125,792.5640869140625,790.5494384765625,785.7142944335938
1416,791.3552856445312,794.5787353515625,790.952392578125,788.1318969726562
1417,788.1318969726562,795.3846435546875,794.1758422851562,783.6996459960938
1418,785.7142944335938,790.952392578125,791.7582397460938,779.2673950195312
1419,789.3406372070312,789.7435913085938,790.5494384765625,782.893798828125
1420,792.1611938476562,789.7435913085938,788.1318969726562,785.7142944335938
1421,792.1611938476562,792.1611938476562,791.7582397460938,789.7435913085938
1422,790.5494384765625,793.3699340820312,795.7875366210938,792.5640869140625
1423,788.5347900390625,790.1465454101562,795.7875366210938,792.967041015625
1424,788.1318969726562,788.937744140625,795.7875366210938,793.3699340820312
1425,790.5494384765625,792.967041015625,794.5787353515625,792.967041015625
1426,786.923095703125,795.7875366210938,796.1904907226562,788.5347900390625
1427,784.1025390625,796.1904907226562,796.996337890625,788.1318969726562
1428,789.3406372070312,796.996337890625,795.7875366210938,791.7582397460938
1429,794.5787353515625,792.5640869140625,794.981689453125,792.1611938476562
1430,793.7728881835938,792.5640869140625,794.5787353515625,788.1318969726562
1431,789.7435913085938,795.7875366210938,797.8021850585938,790.952392578125
1432,788.937744140625,797.3992919921875,800.6226806640625,792.1611938476562
1433,787.7289428710938,798.6080322265625,796.996337890625,787.7289428710938
1434,791.3552856445312,797.8021850585938,796.5933837890625,792.5640869140625
1435,799.8168334960938,799.4139404296875,801.4285888671875,802.6373901367188
1436,799.8168334960938,802.6373901367188,802.2344360351562,801.025634765625
1437,795.7875366210938,804.2490844726562,800.2197875976562,797.3992919921875
1438,792.1611938476562,801.4285888671875,798.2051391601562,796.5933837890625
1439,796.5933837890625,799.8168334960938,794.1758422851562,798.2051391601562
1440,799.010986328125,798.2051391601562,794.5787353515625,790.952392578125
1441,795.3846435546875,798.2051391601562,796.996337890625,789.7435913085938
1442,792.5640869140625,802.2344360351562,795.3846435546875,794.5787353515625
1443,792.1611938476562,798.6080322265625,797.3992919921875,793.7728881835938
1444,796.1904907226562,794.5787353515625,794.5787353515625,792.5640869140625
1445,796.996337890625,795.3846435546875,794.1758422851562,792.967041015625
1446,788.937744140625,797.8021850585938,793.7728881835938,790.952392578125
1447,780.879150390625,792.1611938476562,792.967041015625,786.923095703125
1448,786.5201416015625,791.3552856445312,799.4139404296875,792.967041015625
1449,796.996337890625,798.2051391601562,801.8314819335938,804.2490844726562
1450,798.6080322265625,801.8314819335938,801.8314819335938,804.2490844726562
1451,799.010986328125,799.8168334960938,801.8314819335938,799.4139404296875
1452,800.6226806640625,795.7875366210938,800.6226806640625,801.8314819335938
1453,803.8461303710938,795.3846435546875,797.8021850585938,800.2197875976562
1454,802.6373901367188,794.5787353515625,796.1904907226562,791.7582397460938
1455,795.3846435546875,789.3406372070312,796.996337890625,783.6996459960938
1456,791.3552856445312,788.937744140625,793.3699340820312,782.893798828125
1457,792.967041015625,788.937744140625,792.1611938476562,786.5201416015625
1458,791.7582397460938,789.3406372070312,792.1611938476562,778.4615478515625
1459,794.5787353515625,792.5640869140625,794.1758422851562,776.8497924804688
1460,801.025634765625,794.5787353515625,791.7582397460938,782.893798828125
1461,803.4432373046875,791.3552856445312,788.937744140625,783.6996459960938
1462,804.2490844726562,787.3259887695312,790.5494384765625,785.7142944335938
1463,795.3846435546875,784.5054931640625,791.3552856445312,778.8644409179688
1464,787.3259887695312,783.6996459960938,792.967041015625,771.6116943359375
1465,789.7435913085938,784.5054931640625,792.967041015625,780.879150390625
1466,788.5347900390625,786.923095703125,798.6080322265625,786.923095703125
1467,784.1025390625,790.5494384765625,799.8168334960938,782.087890625
1468,784.1025390625,790.5494384765625,796.5933837890625,782.087890625
1469,784.1025390625,792.1611938476562,799.8168334960938,783.2966918945312
1470,783.2966918945312,794.1758422851562,798.6080322265625,784.1025390625
1471,782.893798828125,793.3699340820312,796.1904907226562,784.1025390625
1472,776.8497924804688,795.7875366210938,798.6080322265625,781.2820434570312
1473,772.0146484375,799.4139404296875,796.1904907226562,782.893798828125
1474,776.8497924804688,799.010986328125,796.5933837890625,789.7435913085938
1475,781.2820434570312,793.7728881835938,796.996337890625,785.3113403320312
1476,780.4761962890625,791.7582397460938,792.1611938476562,782.087890625
1477,782.893798828125,794.1758422851562,792.1611938476562,793.3699340820312
1478,784.908447265625,794.1758422851562,796.996337890625,794.1758422851562
1479,782.4908447265625,788.5347900390625,803.040283203125,793.7728881835938
1480,786.5201416015625,782.893798828125,800.2197875976562,794.1758422851562
1481,793.7728881835938,786.923095703125,797.8021850585938,795.3846435546875
1482,791.3552856445312,790.1465454101562,796.5933837890625,798.6080322265625
1483,782.893798828125,790.952392578125,792.1611938476562,790.5494384765625
1484,783.6996459960938,794.981689453125,792.967041015625,792.967041015625
1485,786.5201416015625,797.3992919921875,795.7875366210938,794.981689453125
1486,789.7435913085938,798.2051391601562,794.5787353515625,784.908447265625
1487,789.7435913085938,798.2051391601562,795.7875366210938,784.5054931640625
1488,788.5347900390625,790.5494384765625,797.3992919921875,788.937744140625
1489,790.1465454101562,790.5494384765625,793.3699340820312,787.3259887695312
1490,790.952392578125,796.996337890625,788.5347900390625,783.6996459960938
1491,792.5640869140625,794.1758422851562,791.3552856445312,783.6996459960938
1492,786.923095703125,793.3699340820312,794.1758422851562,780.4761962890625
1493,780.879150390625,793.3699340820312,793.3699340820312,778.8644409179688
1494,784.908447265625,795.7875366210938,788.1318969726562,780.879150390625
1495,784.1025390625,798.2051391601562,786.923095703125,783.2966918945312
1496,783.2966918945312,793.3699340820312,788.937744140625,784.1025390625
1497,786.923095703125,790.5494384765625,791.3552856445312,785.3113403320312
1498,781.6849975585938,789.7435913085938,792.5640869140625,786.1171875
1499,778.8644409179688,791.7582397460938,796.1904907226562,789.7435913085938
1500,782.893798828125,791.7582397460938,794.981689453125,792.967041015625
1501,789.7435913085938,795.3846435546875,793.3699340820312,793.3699340820312
1502,791.3552856445312,799.8168334960938,796.1904907226562,793.3699340820312
1503,788.1318969726562,796.996337890625,793.3699340820312,793.3699340820312
1504,790.1465454101562,793.3699340820312,789.7435913085938,793.7728881835938
1505,792.5640869140625,790.5494384765625,789.3406372070312,792.5640869140625
1506,801.025634765625,792.5640869140625,791.7582397460938,796.996337890625
1507,804.2490844726562,794.981689453125,798.2051391601562,803.4432373046875
1508,800.2197875976562,794.981689453125,800.6226806640625,797.3992919921875
1509,799.010986328125,796.5933837890625,796.1904907226562,793.3699340820312
1510,798.6080322265625,796.5933837890625,796.1904907226562,791.3552856445312
1511,798.6080322265625,796.996337890625,800.6226806640625,799.010986328125
1512,796.996337890625,795.3846435546875,799.4139404296875,805.054931640625
1513,794.981689453125,797.8021850585938,799.010986328125,794.1758422851562
1514,794.1758422851562,800.2197875976562,800.2197875976562,790.952392578125
1515,792.5640869140625,795.7875366210938,797.3992919921875,786.1171875
1516,796.5933837890625,796.996337890625,796.1904907226562,784.908447265625
1517,799.4139404296875,796.5933837890625,796.5933837890625,788.5347900390625
1518,790.952392578125,790.1465454101562,796.1904907226562,786.1171875
1519,785.3113403320312,791.3552856445312,794.5787353515625,786.923095703125
1520,784.1025390625,792.5640869140625,792.967041015625,785.7142944335938
1521,784.908447265625,788.937744140625,790.952392578125,782.087890625
1522,790.5494384765625,789.7435913085938,788.937744140625,784.1025390625
1523,793.3699340820312,793.3699340820312,792.967041015625,791.3552856445312
1524,795.7875366210938,792.967041015625,799.010986328125,790.1465454101562
1525,798.6080322265625,794.5787353515625,797.3992919921875,786.1171875
1526,799.8168334960938,796.996337890625,792.967041015625,792.967041015625
1527,798.2051391601562,793.3699340820312,793.3699340820312,798.6080322265625
1528,794.5787353515625,792.967041015625,791.7582397460938,792.1611938476562
1529,794.5787353515625,793.7728881835938,792.5640869140625,791.7582397460938
1530,798.2051391601562,793.7728881835938,795.3846435546875,797.8021850585938
1531,795.3846435546875,795.7875366210938,792.5640869140625,794.5787353515625
1532,797.8021850585938,796.996337890625,794.1758422851562,797.8021850585938
1533,801.025634765625,795.3846435546875,797.3992919921875,802.6373901367188
1534,789.3406372070312,790.1465454101562,796.996337890625,803.040283203125
1535,786.5201416015625,792.1611938476562,796.996337890625,802.2344360351562
1536,790.952392578125,796.1904907226562,796.5933837890625,796.1904907226562
1537,797.8021850585938,796.996337890625,796.1904907226562,801.025634765625
1538,795.7875366210938,793.7728881835938,792.967041015625,800.2197875976562
1539,790.5494384765625,788.1318969726562,791.7582397460938,792.967041015625
1540,788.1318969726562,790.5494384765625,792.5640869140625,788.5347900390625
1541,791.3552856445312,795.7875366210938,794.1758422851562,789.7435913085938
1542,799.010986328125,796.996337890625,794.981689453125,796.1904907226562
1543,794.1758422851562,794.5787353515625,796.1904907226562,794.1758422851562
1544,784.5054931640625,793.7728881835938,797.3992919921875,784.1025390625
1545,782.893798828125,791.3552856445312,794.5787353515625,781.2820434570312
1546,784.5054931640625,791.3552856445312,793.7728881835938,785.7142944335938
1547,784.908447265625,796.5933837890625,794.1758422851562,785.3113403320312
1548,781.6849975585938,794.981689453125,794.5787353515625,784.5054931640625
1549,782.4908447265625,795.3846435546875,797.3992919921875,790.952392578125
1550,783.6996459960938,791.7582397460938,794.5787353515625,790.952392578125
1551,783.6996459960938,787.3259887695312,790.952392578125,784.908447265625
1552,786.5201416015625,789.7435913085938,792.1611938476562,784.1025390625
1553,790.952392578125,791.3552856445312,796.996337890625,790.5494384765625
1554,791.3552856445312,791.7582397460938,797.8021850585938,789.7435913085938
1555,789.7435913085938,790.952392578125,791.7582397460938,783.6996459960938
1556,784.5054931640625,790.1465454101562,788.1318969726562,778.05859375
1557,787.3259887695312,792.1611938476562,788.1318969726562,778.4615478515625
1558,785.3113403320312,790.952392578125,788.937744140625,778.8644409179688
1559,777.6557006835938,790.5494384765625,792.1611938476562,774.8351440429688
1560,781.6849975585938,792.967041015625,792.5640869140625,780.4761962890625
1561,782.087890625,791.7582397460938,789.7435913085938,787.3259887695312
1562,783.2966918945312,791.3552856445312,790.952392578125,788.1318969726562
1563,786.5201416015625,792.967041015625,790.5494384765625,785.7142944335938
1564,789.7435913085938,792.967041015625,786.923095703125,784.5054931640625
1565,787.7289428710938,790.952392578125,786.1171875,790.5494384765625
1566,778.05859375,787.3259887695312,787.7289428710938,786.1171875
1567,776.0439453125,786.1171875,781.6849975585938,776.8497924804688
1568,783.6996459960938,785.7142944335938,782.4908447265625,782.893798828125
1569,782.893798828125,789.3406372070312,788.937744140625,786.5201416015625
1570,778.4615478515625,792.967041015625,789.3406372070312,786.5201416015625
1571,780.0732421875,791.3552856445312,789.7435913085938,784.1025390625
1572,784.5054931640625,792.5640869140625,790.1465454101562,786.5201416015625
1573,788.1318969726562,794.1758422851562,794.5787353515625,791.7582397460938
1574,786.1171875,794.1758422851562,795.3846435546875,784.5054931640625
1575,788.5347900390625,795.7875366210938,794.1758422851562,786.1171875
1576,787.7289428710938,795.3846435546875,793.7728881835938,789.3406372070312
1577,786.923095703125,793.7728881835938,793.3699340820312,788.937744140625
1578,793.3699340820312,794.5787353515625,798.2051391601562,793.7728881835938
1579,796.996337890625,792.1611938476562,797.8021850585938,794.5787353515625
1580,792.967041015625,791.3552856445312,796.996337890625,797.8021850585938
1581,788.1318969726562,794.5787353515625,796.996337890625,795.3846435546875
1582,789.7435913085938,792.1611938476562,797.3992919921875,794.981689453125
1583,790.1465454101562,791.3552856445312,799.4139404296875,794.1758422851562
1584,792.5640869140625,790.5494384765625,799.010986328125,796.1904907226562
